SpectraSmart Spectrum 2.9.0.0
--------- Device Information -----------
Spectrum Name :  反射率_0
Saving Time :  2024/04/21 00:02:45
Spectro-Module Model Name : SE2030-DUVN
Spectro-Module Serial Number : OS361AC55029948
Wavelength Start : 200
Wavelength End : 1025
Wavelength Unit : Wavelength(nm)
Spectrum Unit : Reflectance(%)
-----------Spectrum Setting ------------
Integration Time : 20ms
Average : 10
Boxcar : 0
Background removal :  enabled
linearity correction :  enabled
SC :  disabled
Intensity correction :  disabled
DWT denoise :  enabled
savitzky-golay :  disabled
FFT :  disabled
Running average :  disabled
Kalman :  disabled
High pass :  disabled
---------------BEGIN--------------------
Wavelength(nm)             Reflectance(%)
200.29               0
200.75       -25.45629
201.21        23.67969
201.67        47.62896
202.13        53.77942
202.58        49.21138
203.04        36.99605
203.50        20.47455
203.96         10.5096
204.42        12.53437
204.88        22.14614
205.34        33.74073
205.80        39.72913
206.26        37.83413
206.72        30.49377
207.18        16.79259
207.64       -3.347323
208.10       -25.14054
208.55       -46.75185
209.01       -51.99133
209.47       -26.37724
209.93        5.265921
210.39        29.32721
210.85        44.59417
211.31        52.14997
211.77        54.88859
212.23        55.03454
212.69        50.50432
213.14         34.6791
213.60       -8.854813
214.06       -162.2697
214.52       -546.3936
214.98        -222.408
215.44       -17.39114
215.90        50.09119
216.36        73.32217
216.81        79.56156
217.27         76.0598
217.73        47.58455
218.19        425.2646
218.65         247.977
219.11        -438.106
219.57         21.4395
220.02        52.01245
220.48        58.34592
220.94         57.1576
221.40        49.54338
221.86        31.13831
222.32        21.77311
222.77        41.30548
223.23        56.61545
223.69        63.77344
224.15        65.74636
224.61        65.01552
225.06        62.93749
225.52        60.25625
225.98        57.73803
226.44        55.89769
226.90        54.05767
227.36        53.59239
227.81        56.41133
228.27         60.8511
228.73        65.05119
229.19        67.54252
229.65        67.46014
230.10        65.13376
230.56        61.34236
231.02        56.62371
231.48        53.42651
231.93        53.60584
232.39        56.38112
232.85        59.90004
233.31        62.73016
233.77        64.97803
234.22        67.38415
234.68        69.68631
235.14        71.23933
235.60        71.90215
236.05        71.43845
236.51        70.41087
236.97        72.36295
237.43        77.62074
237.88        82.30703
238.34        84.86732
238.80        91.55196
239.26         89.2394
239.71        86.99691
240.17        81.77515
240.63        77.33859
241.08        77.30388
241.54        83.02982
242.00        92.32096
242.46         98.0079
242.91        98.08897
243.37        91.70953
243.83        80.89971
244.28          75.077
244.74        79.36617
245.20        89.23563
245.66        97.91382
246.11        98.30108
246.57         89.8425
247.03        74.99927
247.48        56.05481
247.94        36.36744
248.40        13.57035
248.85       -32.03417
249.31       -156.9538
249.77       -226.1773
250.22       -25.76815
250.68        51.03386
251.14        74.47751
251.59        80.88007
252.05        81.24118
252.51        77.63802
252.96        72.00066
253.42        72.46278
253.88        82.47623
254.33        95.98431
254.79        108.0104
255.25        113.6952
255.70        114.2236
256.16        113.6892
256.62         112.659
257.07        111.3979
257.53        110.8517
257.99        110.2854
258.44        109.4756
258.90        109.4044
259.35        109.1129
259.81        109.1224
260.27        108.7708
260.72        107.5153
261.18         106.126
261.63        104.2766
262.09        102.6777
262.55        101.1181
263.00        99.41712
263.46        97.92771
263.91        96.32829
264.37        94.97871
264.83        93.75799
265.28        92.54913
265.74         91.5458
266.19         90.5407
266.65        89.62783
267.11        88.70223
267.56        87.66734
268.02        86.54514
268.47          85.248
268.93         83.8443
269.38        82.31048
269.84        80.72491
270.30        79.10857
270.75        77.47595
271.21        75.90288
271.66        74.39314
272.12        73.00707
272.57        71.67431
273.03        70.47036
273.48        69.36942
273.94        68.39755
274.39         67.4836
274.85         66.5478
275.31        65.34527
275.76        63.85725
276.22        62.26183
276.67        60.73996
277.13        59.72233
277.58        59.16096
278.04        58.96618
278.49        58.81972
278.95        58.46069
279.40        57.73123
279.86          56.808
280.31          55.731
280.77        54.73637
281.22         53.8154
281.68        53.00265
282.13        52.19971
282.59         51.4182
283.04        50.61015
283.50         49.8634
283.95        49.21362
284.41        48.79065
284.86        48.56778
285.32        48.52467
285.77        48.52782
286.22        48.45582
286.68        48.29216
287.13        48.00812
287.59        47.71188
288.04        47.43388
288.50        47.20312
288.95        47.06752
289.41        47.02452
289.86        46.67651
290.32        45.99356
290.77        46.35557
291.22        45.55896
291.68        45.58291
292.13        45.76099
292.59        46.13162
293.04        46.63247
293.50         47.2378
293.95        47.92479
294.40        48.67476
294.86        49.46865
295.31        50.26647
295.77        51.06504
296.22        51.85724
296.68        52.66119
297.13        53.48334
297.58        54.35035
298.04        55.25945
298.49        56.23945
298.95        57.36527
299.40        58.60993
299.85        59.94804
300.31        61.28329
300.76        62.42842
301.21        63.37032
301.67        64.20299
302.12        65.00132
302.58        66.00324
303.03        67.21854
303.48        68.62505
303.94        70.16031
304.39        71.66781
304.84        73.10654
305.30        74.52373
305.75        75.88989
306.20        77.27875
306.66        78.70257
307.11        80.08252
307.57        81.40426
308.02        82.56287
308.47        83.57899
308.93        84.53002
309.38        85.43501
309.83        86.39017
310.29        87.47023
310.74        88.57161
311.19        89.69175
311.65        90.78652
312.10        91.81435
312.55        92.79578
313.00        93.68808
313.46        94.42874
313.91        95.00247
314.36        95.44001
314.82        95.84197
315.27        96.35931
315.72        97.03378
316.18        97.82546
316.63        98.63879
317.08        99.31786
317.53        99.81245
317.99        100.1554
318.44        100.4173
318.89         100.701
319.35        101.0325
319.80        101.3866
320.25        101.7033
320.70        101.8945
321.16        101.9407
321.61        101.9022
322.06        101.8536
322.51        101.9159
322.97        102.1043
323.42        102.4109
323.87        102.7624
324.32        103.0542
324.78        103.2315
325.23        103.3638
325.68        103.4558
326.13        103.5445
326.59        103.6276
327.04        103.7486
327.49        103.9008
327.94        104.1135
328.39        104.3887
328.85        104.6819
329.30        105.0411
329.75        105.4122
330.20        105.7717
330.66        106.0824
331.11        106.3654
331.56        106.5239
332.01        106.5582
332.46        106.5047
332.92        106.3961
333.37        106.4318
333.82        106.6199
334.27         106.936
334.72         107.379
335.17        107.9349
335.63        108.5444
336.08        109.2573
336.53        109.9638
336.98        110.5327
337.43        110.9253
337.88        111.1569
338.34        111.2807
338.79         111.461
339.24         111.724
339.69        112.0456
340.14        112.3843
340.59        112.6713
341.05         112.895
341.50         113.092
341.95        113.3107
342.40        113.6281
342.85        114.0523
343.30        114.5439
343.75        115.0257
344.20        115.3829
344.66         115.598
345.11        115.6944
345.56          115.73
346.01        115.7975
346.46        115.9288
346.91        116.0743
347.36        116.2145
347.81        116.3736
348.26        116.5452
348.72        116.5433
349.17        116.6697
349.62        116.6061
350.07        116.4561
350.52        116.2265
350.97        115.9556
351.42         115.705
351.87        115.4936
352.32        115.3105
352.77        115.1441
353.22        114.9683
353.67        114.7714
354.13        114.5781
354.58        114.3447
355.03        114.0571
355.48        113.7114
355.93        113.3011
356.38        112.8662
356.83        112.4719
357.28        112.1147
357.73        111.7659
358.18        111.3472
358.63        110.7363
359.08         109.927
359.53        108.9877
359.98        108.0102
360.43        107.1272
360.88        106.3736
361.33        105.7013
361.78        105.0996
362.23        104.5488
362.68        104.0255
363.13        103.5403
363.58        103.0082
364.03         102.292
364.48        101.3745
364.93        100.2907
365.38        99.18351
365.83         98.2942
366.28         97.6739
366.73        97.24554
367.18        96.86645
367.63        96.30463
368.08        95.50318
368.53        94.54837
368.98        93.52567
369.43        92.55363
369.88        91.67222
370.33        90.84135
370.78         90.0626
371.23        89.35908
371.68        88.73864
372.13        88.20721
372.58        87.74557
373.03            87.3
373.48        86.84439
373.93        86.38383
374.38        85.89867
374.83        85.37412
375.28        84.82047
375.72        84.22597
376.17        83.66727
376.62        83.19125
377.07        82.79016
377.52        82.43039
377.97        82.05769
378.42        81.59308
378.87        81.03443
379.32        80.43449
379.77        79.82259
380.22         79.2229
380.67        78.64012
381.11        78.06096
381.56        77.52367
382.01        77.11584
382.46        76.85484
382.91        76.72121
383.36        76.60438
383.81        76.33065
384.26        75.86398
384.71        75.24781
385.15        74.59332
385.60        74.14242
386.05        73.91447
386.50        73.83886
386.95        73.77948
387.40        73.52798
387.85        73.05601
388.29        72.41544
388.74        71.82108
389.19        71.37221
389.64        71.09223
390.09        70.92326
390.54        70.81354
390.98        70.67058
391.43        70.49902
391.88        70.31087
392.33        70.11916
392.78        69.91914
393.23        69.71131
393.67        69.51217
394.12        69.37511
394.57        69.09296
395.02        68.71577
395.47        68.53677
395.91        68.54423
396.36        68.42223
396.81        68.18246
397.26        68.04038
397.71        67.95148
398.15        67.77637
398.60        67.59131
399.05        67.23003
399.50        66.85878
399.95        67.00568
400.39        67.53341
400.84        67.69575
401.29        67.40199
401.74        66.90121
402.18        66.35334
402.63        66.07539
403.08        66.04191
403.53         65.7898
403.97        65.32502
404.42        65.02644
404.87        64.91842
405.32        64.89491
405.76        64.94514
406.21        65.01628
406.66        65.07096
407.11        65.27168
407.55        65.51727
408.00        65.27834
408.45        64.66071
408.90         64.3031
409.34        64.27482
409.79         64.2736
410.24        64.23446
410.68        64.18321
411.13        64.10062
411.58        63.99459
412.03        63.88803
412.47        63.82874
412.92        63.80404
413.37        63.80729
413.81        63.81924
414.26        63.86311
414.71        63.91628
415.15        63.99328
415.60        64.03456
416.05         63.9939
416.49        63.86671
416.94        63.66158
417.39        63.44132
417.83        63.29337
418.28        63.24013
418.73         63.2569
419.17        63.29109
419.62        63.26563
420.07        63.16597
420.51        63.01617
420.96        62.88585
421.41         62.8541
421.85         62.9123
422.30         63.0023
422.74        63.07043
423.19        63.29395
423.64        63.57307
424.08        63.57914
424.53        63.30937
424.98         63.2172
425.42         63.3588
425.87        63.45004
426.31        63.48323
426.76         63.6113
427.21        63.79412
427.65        63.88603
428.10        63.86025
428.54        63.81821
428.99        63.80939
429.44        63.83337
429.88        63.80988
430.33        63.66796
430.77        63.42717
431.22         63.2466
431.66        63.18559
432.11        63.56126
432.56        64.28392
433.00        64.44101
433.45        63.82877
433.89        63.73742
434.34        64.34995
434.78        63.14767
435.23        63.28941
435.67        63.75548
436.12        64.48895
436.57        64.59869
437.01        63.99748
437.46        63.68133
437.90        64.35048
438.35        64.38266
438.79        64.48132
439.24         64.4436
439.68        64.45118
440.13        64.40182
440.57        64.30238
441.02        64.36914
441.46        64.55028
441.91        64.41237
442.35        64.06116
442.80        64.47986
443.24        65.40562
443.69        65.49863
444.13        64.79981
444.58        64.43906
445.02        64.51102
445.47        64.73465
445.91        64.98783
446.36         65.1033
446.80        65.04041
447.24        64.90394
447.69        64.77898
448.13        64.89919
448.58        65.04348
449.02        65.03573
449.47        64.84174
449.91         64.7584
450.36        64.81251
450.80        64.75291
451.25        64.61967
451.69        64.63641
452.13        64.75483
452.58        64.64179
453.02        64.33008
453.47        64.15886
453.91        64.14346
454.36        64.12668
454.80        64.05821
455.24        63.98934
455.69        63.94161
456.13        63.74788
456.58        63.51595
457.02        63.75049
457.46         64.0107
457.91         64.0835
458.35        63.95791
458.79        63.86758
459.24        63.84608
459.68        63.74685
460.13        63.65039
460.57        63.45676
461.01        63.15352
461.46        63.63082
461.90        63.20972
462.34        63.36411
462.79        63.28896
463.23        63.42956
463.68        63.59379
464.12        63.32264
464.56        62.78864
465.01         62.8735
465.45        63.37263
465.89        63.49261
466.34        63.26773
466.78        63.05923
467.22        62.91175
467.67        63.27323
468.11         62.9937
468.55        63.05992
468.99        63.08309
469.44        63.02702
469.88        62.87406
470.32        62.63135
470.77        62.37438
471.21        62.20241
471.65        62.14681
472.10        62.18949
472.54        62.24759
472.98        62.24053
473.42        62.15891
473.87        61.95559
474.31        61.69661
474.75        61.79962
475.20        62.15705
475.64        62.14718
476.08        61.82052
476.52        61.73408
476.97        61.87686
477.41        62.04964
477.85        62.15154
478.29         61.9939
478.74          61.468
479.18        61.58073
479.62         61.8567
480.06        61.98471
480.50        61.85868
480.95        61.79892
481.39        61.77484
481.83        61.91316
482.27        62.36623
482.72        61.90435
483.16        62.22977
483.60        62.55081
484.04        62.54138
484.48        62.18925
484.93        62.01389
485.37        61.86232
485.81        61.89282
486.25         61.4904
486.69        62.28299
487.14        62.20243
487.58        61.56709
488.02        62.01511
488.46        61.38324
488.90        61.40201
489.34        61.36525
489.79        60.88053
490.23        61.57209
490.67          61.715
491.11        61.77743
491.55        61.67676
491.99        61.50253
492.43         61.4374
492.88        61.49665
493.32        61.60702
493.76        61.63361
494.20        61.59989
494.64        61.53343
495.08        60.90231
495.52        60.45731
495.96        60.75879
496.41        61.70976
496.85        61.74747
497.29        60.93293
497.73        60.80241
498.17        61.05606
498.61        61.35107
499.05        61.43187
499.49         61.1074
499.93        60.55527
500.37        60.48838
500.82        60.86092
501.26        61.09512
501.70        61.10252
502.14        60.75409
502.58        60.62739
503.02        60.53268
503.46        60.58779
503.90        60.67997
504.34        60.74459
504.78        60.77567
505.22        60.74055
505.66        60.66803
506.10        60.61384
506.54        60.53901
506.98        60.42343
507.42         60.7206
507.86        60.74223
508.30        60.61056
508.74        60.72632
509.18        60.61476
509.62         60.4924
510.06        60.44738
510.50        60.48923
510.94        60.51204
511.38         60.4803
511.82        60.42128
512.26        60.32735
512.70        60.17216
513.14        60.01104
513.58        59.95228
514.02        60.01244
514.46        60.15458
514.90        60.29908
515.34        60.35213
515.78        60.29221
516.22        60.12197
516.66        59.75389
517.10        59.89462
517.54        59.66629
517.98        59.74887
518.42        59.83997
518.86        59.90947
519.30        59.93606
519.74        59.90151
520.18        59.85736
520.62        59.95286
521.06        60.15266
521.50        60.21947
521.93        60.13998
522.37        60.08954
522.81        60.07575
523.25        59.99279
523.69        59.87182
524.13        59.81517
524.57        59.83656
525.01        59.90801
525.45        60.00464
525.89         60.0849
526.32        60.13145
526.76        60.15955
527.20        60.17624
527.64        60.19617
528.08        60.22054
528.52        60.24115
528.96        60.24939
529.40        60.22692
529.83        60.17144
530.27        60.12456
530.71        60.07823
531.15        60.01505
531.59        59.94069
532.03        59.86671
532.46        59.81333
532.90         59.8256
533.34        59.89956
533.78        60.01466
534.22        60.12917
534.66        60.17925
535.09         60.1428
535.53        60.06293
535.97         59.9509
536.41        59.84284
536.85        59.75513
537.28        59.67682
537.72        59.62581
538.16        59.63195
538.60        59.69168
539.04        59.79504
539.47        59.88291
539.91         59.9135
540.35         59.8604
540.79        59.74615
541.22        59.60647
541.66        59.51559
542.10        59.48954
542.54        59.50556
542.97        59.54186
543.41        59.59414
543.85        59.64997
544.29        59.72628
544.72        59.79348
545.16        59.85803
545.60         59.9054
546.04        59.85702
546.47        59.77455
546.91        59.90366
547.35         60.1678
547.79        60.25031
548.22        60.11101
548.66        59.88404
549.10        59.66409
549.53        59.62808
549.97        59.76679
550.41        59.81517
550.84        59.76138
551.28        59.77984
551.72        59.85918
552.15        59.91751
552.59        59.95956
553.03        59.86141
553.46        59.91993
553.90        59.84392
554.34        59.70224
554.77        59.79241
555.21        59.62506
555.65         59.6545
556.08         59.7407
556.52        59.86678
556.96         59.9864
557.39        60.09453
557.83        60.16323
558.27        60.05519
558.70        59.84318
559.14        59.74673
559.57         59.7755
560.01        59.93821
560.45        60.11177
560.88        59.97651
561.32        59.64634
561.75        59.46519
562.19        59.51278
562.63        59.64848
563.06        59.79424
563.50        59.82233
563.93        59.71746
564.37        59.62231
564.80        59.55329
565.24         59.5993
565.68        59.75344
566.11        59.73594
566.55        59.81292
566.98        59.92088
567.42        60.09164
567.85        60.02172
568.29          59.848
568.72        59.86505
569.16        60.02729
569.60          60.444
570.03         60.1818
570.47        60.16378
570.90        60.11279
571.34        60.27447
571.77        60.31462
572.21        60.36721
572.64        60.27818
573.08        60.10791
573.51         60.0956
573.95         60.3973
574.38        60.12545
574.82        60.58826
