SpectraSmart Spectrum 2.9.0.0
--------- Device Information -----------
Spectrum Name :  反射率_0
Saving Time :  2024/04/21 00:45:46
Spectro-Module Model Name : SE2030-DUVN
Spectro-Module Serial Number : OS361AC55029948
Wavelength Start : 200
Wavelength End : 1025
Wavelength Unit : Wavelength(nm)
Spectrum Unit : Reflectance(%)
-----------Spectrum Setting ------------
Integration Time : 20ms
Average : 10
Boxcar : 0
Background removal :  enabled
linearity correction :  enabled
SC :  disabled
Intensity correction :  disabled
DWT denoise :  enabled
savitzky-golay :  disabled
FFT :  disabled
Running average :  disabled
Kalman :  disabled
High pass :  disabled
---------------BEGIN--------------------
Wavelength(nm)             Reflectance(%)
200.29               0
200.75        57.85699
201.21        48.21685
201.67        39.84473
202.13        37.55878
202.58        39.46511
203.04        44.31881
203.50        50.10847
203.96         51.1309
204.42        44.70761
204.88        32.92131
205.34        19.41666
205.80         7.55642
206.26       -2.432561
206.72        -9.43969
207.18       -16.61349
207.64       -31.50426
208.10       -53.47095
208.55       -78.93845
209.01       -85.43705
209.47       -52.58613
209.93       -11.59301
210.39        19.70633
210.85         38.7345
211.31        46.00752
211.77        44.52351
212.23        34.78483
212.69        12.46935
213.14       -26.43189
213.60        -88.7044
214.06       -249.0229
214.52       -564.5209
214.98       -221.4515
215.44       -45.48027
215.90        10.09893
216.36        27.19105
216.81        26.79445
217.27        10.34719
217.73       -71.28662
218.19        907.1938
218.65        383.8555
219.11       -809.0991
219.57       -26.76563
220.02        22.98978
220.48         32.0255
220.94        28.01538
221.40        10.73503
221.86       -31.16879
222.32       -57.85835
222.77        -19.1542
223.23        14.11083
223.69          31.241
224.15        38.14544
224.61        40.13416
225.06        40.14817
225.52        38.80402
225.98        36.22179
226.44        32.79918
226.90        27.89608
227.36         24.0617
227.81        26.03297
228.27        31.97285
228.73        38.51887
229.19        42.92419
229.65        43.65419
230.10         41.3139
230.56        37.26682
231.02        32.22826
231.48        28.71618
231.93        28.76204
232.39        31.56017
232.85        34.91656
233.31        36.89013
233.77        37.59428
234.22        38.03377
234.68        38.13169
235.14        37.69927
235.60        36.99902
236.05        35.40139
236.51        33.43758
236.97        37.21214
237.43        47.08918
237.88        54.31656
238.34        55.61067
238.80         72.4623
239.26        65.06274
239.71        62.05478
240.17        53.02506
240.63        43.33333
241.08        37.30859
241.54        38.07369
242.00        45.85758
242.46        50.56751
242.91        49.38127
243.37        43.30606
243.83        34.75879
244.28        32.46952
244.74        40.42031
245.20         52.6513
245.66         62.5928
246.11        64.38201
246.57         57.7345
247.03         44.7692
247.48        27.74692
247.94        10.38611
248.40       -9.155615
248.85       -47.89518
249.31       -154.3008
249.77       -224.7249
250.22       -59.16832
250.68        7.040561
251.14        27.25214
251.59         31.3576
252.05        28.40698
252.51        20.39214
252.96        8.261953
253.42        1.282473
253.88        6.812884
254.33        20.66033
254.79        37.72342
255.25        52.08617
255.70        61.75432
256.16        68.18484
256.62        72.31313
257.07        74.92147
257.53        76.90447
257.99        77.97518
258.44        77.90018
258.90        77.29412
259.35        75.76817
259.81         74.1371
260.27        72.25057
260.72        70.07525
261.18        68.21968
261.63        66.41286
262.09        65.03012
262.55        63.89637
263.00        62.83401
263.46        62.01701
263.91         61.2078
264.37        60.60395
264.83        60.08233
265.28        59.55289
265.74         59.0672
266.19        58.42138
266.65        57.67565
267.11        56.79643
267.56        55.80181
268.02        54.83933
268.47        53.88063
268.93        52.94076
269.38        51.94001
269.84        50.83191
270.30        49.60403
270.75        48.29558
271.21        47.02061
271.66         45.8674
272.12        44.90003
272.57        44.06454
273.03        43.33112
273.48         42.5832
273.94        41.82514
274.39        41.04469
274.85        40.31168
275.31        39.64472
275.76        39.03603
276.22        38.51038
276.67        38.01233
277.13        37.57394
277.58        37.13586
278.04        36.72984
278.49        36.29909
278.95        35.87608
279.40         35.4013
279.86        34.91382
280.31        34.35787
280.77        33.76501
281.22        33.10891
281.68         32.4731
282.13        31.83608
282.59        31.26043
283.04         30.7299
283.50        30.26188
283.95        29.89097
284.41        29.71157
284.86        29.70168
285.32        29.84344
285.77        29.99123
286.22        29.96282
286.68        29.75221
287.13         29.3793
287.59        29.03092
288.04        28.87845
288.50        28.94297
288.95        29.26164
289.41        29.74046
289.86        29.77847
290.32        29.27582
290.77        30.06298
291.22        29.23442
291.68        29.34763
292.13         29.5571
292.59        29.91661
293.04        30.38774
293.50        30.98455
293.95        31.71445
294.40        32.55696
294.86         33.5015
295.31         34.5174
295.77        35.58303
296.22        36.66848
296.68         37.7688
297.13        38.87041
297.58        39.98439
298.04        41.12213
298.49        42.27154
298.95        43.43732
299.40        44.61182
299.85        45.81132
300.31        47.06467
300.76        48.38726
301.21        49.78528
301.67        51.26338
302.12        52.77656
302.58        54.36103
303.03        55.98046
303.48         57.6704
303.94        59.39791
304.39        61.06405
304.84        62.65725
305.30        64.20495
305.75        65.73422
306.20        67.39292
306.66        69.19686
307.11        71.05607
307.57        72.87453
308.02         74.4376
308.47        75.73323
308.93        76.85901
309.38        77.90617
309.83        79.06515
310.29        80.45248
310.74        81.92007
311.19        83.37212
311.65        84.60998
312.10        85.57619
312.55         86.3514
313.00        87.04086
313.46        87.81346
313.91        88.69816
314.36        89.63933
314.82        90.58816
315.27        91.46635
315.72        92.25237
316.18        92.97768
316.63        93.63172
317.08        94.19641
317.53        94.67392
317.99        95.06136
318.44        95.40439
318.89        95.76804
319.35        96.16789
319.80        96.59839
320.25        97.01947
320.70        97.36728
321.16        97.61463
321.61         97.7914
322.06        97.93243
322.51        98.10158
322.97        98.30347
323.42        98.56051
323.87        98.80987
324.32        98.96638
324.78        98.99931
325.23        98.97256
325.68         98.9661
326.13         99.1354
326.59        99.49007
327.04        100.0374
327.49        100.6321
327.94         101.062
328.39        101.2705
328.85        101.2851
329.30        101.2921
329.75        101.4827
330.20        101.9157
330.66        102.4873
331.11        103.1457
331.56         103.674
332.01        104.0129
332.46        104.2227
332.92        104.3272
333.37        104.5054
333.82        104.7617
334.27        105.0642
334.72        105.4104
335.17        105.8004
335.63        106.1961
336.08        106.6616
336.53        107.1489
336.98         107.616
337.43        108.0473
337.88        108.4454
338.34        108.7926
338.79        109.1243
339.24        109.4277
339.69         109.702
340.14        109.9672
340.59        110.2604
341.05          110.59
341.50        110.9521
341.95        111.3271
342.40        111.6846
342.85        112.0109
343.30        112.3128
343.75        112.5786
344.20        112.7952
344.66        112.9728
345.11        113.0983
345.56        113.2076
346.01        113.3537
346.46        113.5548
346.91        113.7942
347.36        114.0217
347.81        114.2037
348.26        114.3348
348.72         114.261
349.17        114.3335
349.62        114.4339
350.07        114.6632
350.52         114.966
350.97        115.2172
351.42        115.2116
351.87        114.9055
352.32        114.3756
352.77        113.7579
353.22         113.257
353.67        112.9272
354.13        112.7246
354.58        112.5477
355.03        112.2834
355.48        111.9008
355.93        111.4498
356.38        110.9743
356.83        110.5338
357.28         110.134
357.73        109.7309
358.18        109.3018
358.63        108.8237
359.08        108.2907
359.53        107.7278
359.98        107.1114
360.43        106.3963
360.88        105.5857
361.33        104.6936
361.78        103.8104
362.23        103.0829
362.68        102.5362
363.13        102.1251
363.58        101.7265
364.03        101.1402
364.48        100.3212
364.93        99.33434
365.38        98.29282
365.83        97.38445
366.28        96.66106
366.73        96.05688
367.18        95.50893
367.63          94.918
368.08        94.25156
368.53        93.55547
368.98        92.82236
369.43        92.02472
369.88        91.16366
370.33        90.23399
370.78        89.30742
371.23        88.53004
371.68        87.94495
372.13        87.52007
372.58         87.1648
373.03        86.71684
373.48        86.12768
373.93        85.44243
374.38        84.72079
374.83        84.07225
375.28        83.53865
375.72        83.06982
376.17        82.66194
376.62         82.2457
377.07        81.78867
377.52        81.28983
377.97        80.76124
378.42        80.25156
378.87        79.80756
379.32        79.35099
379.77        78.81355
380.22          78.338
380.67        77.95866
381.11        76.65091
381.56        76.32247
382.01        75.69861
382.46        75.37074
382.91        75.25024
383.36        75.20295
383.81        74.98289
384.26        74.52165
384.71        73.89977
385.15        73.25163
385.60         72.8554
386.05        72.73238
386.50        72.78712
386.95        72.84396
387.40        72.63583
387.85         72.1244
388.29        71.38993
388.74        70.67608
389.19        70.12289
389.64        69.76385
390.09        69.52567
390.54        69.36541
390.98        69.20442
391.43        69.04768
391.88        68.91248
392.33        68.77739
392.78        68.57883
393.23        68.31352
393.67        68.01783
394.12        67.81104
394.57        67.51056
395.02        67.36222
395.47        67.34193
395.91        67.44707
396.36        67.38412
396.81        67.14093
397.26        66.88692
397.71        66.63189
398.15        66.32378
398.60        66.05219
399.05         65.7177
399.50        65.43306
399.95        65.44505
400.39        65.70197
400.84        65.95843
401.29        66.06763
401.74        65.73082
402.18        65.06396
402.63        64.68294
403.08        64.61594
403.53        64.35262
403.97        63.91026
404.42        63.67664
404.87        63.62954
405.32        63.56789
405.76        63.46328
406.21        63.35652
406.66        63.25319
407.11        63.21257
407.55        63.21865
408.00        63.13127
408.45        62.95495
408.90        62.69083
409.34        62.40793
409.79        62.32961
410.24        62.41127
410.68        62.39086
411.13        62.25397
411.58        62.15831
412.03        62.11434
412.47        62.07585
412.92        62.02404
413.37        61.98515
413.81        61.95497
414.26        61.97749
414.71        62.03386
415.15         62.1185
415.60        62.17838
416.05         62.1785
416.49        62.11004
416.94        61.98368
417.39        61.81429
417.83        61.61651
418.28        61.40608
418.73        61.17733
419.17        60.97035
419.62        60.86041
420.07        60.85899
420.51         60.9415
420.96         61.0585
421.41        61.09557
421.85        61.01117
422.30        60.84773
422.74        60.65783
423.19        60.69073
423.64        60.91707
424.08        61.13383
424.53        61.23624
424.98         61.3494
425.42        61.46707
425.87        61.41821
426.31          61.265
426.76        61.31853
427.21        61.56073
427.65        61.60526
428.10        61.38039
428.54        61.54733
428.99        61.38419
429.44        61.33276
429.88        61.18704
430.33        61.17649
430.77        61.21168
431.22        61.24994
431.66        61.26136
432.11        61.24108
432.56        61.32096
433.00        61.41628
433.45        61.26399
433.89        61.58385
434.34        62.51635
434.78        60.54146
435.23        60.57929
435.67        61.68896
436.12        61.40632
436.57        61.68266
437.01        61.49866
437.46         61.2828
437.90        61.59946
438.35        62.04644
438.79        61.84314
439.24        61.86224
439.68        61.83333
440.13        61.77557
440.57        61.69474
441.02        61.65426
441.46        61.68165
441.91        61.75858
442.35        61.82784
442.80        62.18888
443.24        62.67232
443.69         62.7099
444.13        62.32904
444.58        62.04317
445.02        61.93708
445.47        62.05023
445.91        62.30268
446.36        62.40215
446.80        62.30216
447.24        62.22682
447.69         62.2561
448.13        62.14424
448.58          62.385
449.02        62.32948
449.47        62.14656
449.91        62.03825
450.36        62.03588
450.80        61.92817
451.25        61.77055
451.69        61.80167
452.13        61.97901
452.58        61.98183
453.02        61.79717
453.47        61.68045
453.91        61.63008
454.36         61.5089
454.80        61.33073
455.24        61.22626
455.69        61.22924
456.13        61.21134
456.58        61.18338
457.02        61.35809
457.46        61.35963
457.91        61.34291
458.35        61.30257
458.79        61.20436
459.24        61.09763
459.68        60.96491
460.13        60.86184
460.57        60.68672
461.01         60.4634
461.46        60.55491
461.90        60.29921
462.34        60.23853
462.79        60.53035
463.23        60.17943
463.68        60.72013
464.12         60.4345
464.56        59.91199
465.01        59.93104
465.45        60.31087
465.89        60.29038
466.34        59.92256
466.78        59.71569
467.22        59.55918
467.67        59.88167
468.11        59.91486
468.55        59.84429
468.99        59.51103
469.44        59.33642
469.88        59.34175
470.32        59.27095
470.77        59.14186
471.21        59.09658
471.65        59.13559
472.10        59.21603
472.54        59.29255
472.98        59.30117
473.42        59.23077
473.87        59.15524
474.31        59.06182
474.75        58.94763
475.20        58.83596
475.64        58.82978
476.08        58.93369
476.52        58.95463
476.97        58.84498
477.41        58.97689
477.85        59.32321
478.29        58.68438
478.74        58.51542
479.18        58.48891
479.62        58.71702
480.06        58.88319
480.50        58.95424
480.95         58.9455
481.39        58.71529
481.83        59.40984
482.27        59.47826
482.72        58.74623
483.16        59.04515
483.60        59.19851
484.04        59.13235
484.48        58.75768
484.93        58.58257
485.37        58.50724
485.81        59.13374
486.25        58.24765
486.69        59.07373
487.14        58.98042
487.58        59.24243
488.02        58.77901
488.46        58.33538
488.90        58.80043
489.34        58.56554
489.79        58.22245
490.23        58.58646
490.67        58.62695
491.11        58.69707
491.55        58.55796
491.99        58.30503
492.43        58.20873
492.88        58.27784
493.32        58.36708
493.76        58.41439
494.20        58.48186
494.64        58.57371
495.08        58.39948
495.52        58.50699
495.96         58.4003
496.41        58.25843
496.85          58.164
497.29        58.10093
497.73        58.27507
498.17         58.3218
498.61         58.2928
499.05        58.10041
499.49        58.02204
499.93        58.10472
500.37        58.09835
500.82        58.01721
501.26        58.29725
501.70        58.79786
502.14        58.51406
502.58        58.02441
503.02        57.75876
503.46        57.85752
503.90         57.9227
504.34        57.89206
504.78          57.894
505.22        57.93588
505.66        57.91334
506.10        57.82066
506.54        57.90463
506.98        58.21663
507.42        57.67506
507.86        58.17226
508.30        58.04053
508.74        58.05265
509.18        57.98674
509.62        57.92032
510.06        57.86422
510.50        57.79331
510.94        57.66084
511.38         57.4991
511.82        57.42897
512.26        57.46084
512.70        57.53406
513.14        57.62155
513.58        57.69721
514.02        57.74341
514.46        57.76503
514.90        57.74348
515.34        57.69533
515.78        57.63174
516.22        57.50928
516.66        57.21369
517.10        57.43161
517.54          57.214
517.98        57.30148
518.42        57.37865
518.86        57.41556
519.30        57.39713
519.74         57.3112
520.18        57.21608
520.62        57.26913
521.06        57.44054
521.50        57.49509
521.93        57.43189
522.37        57.43453
522.81        57.50585
523.25        57.53888
523.69        57.51432
524.13        57.45596
524.57        57.36694
525.01        57.24157
525.45        57.12803
525.89        57.10319
526.32         57.1761
526.76        57.32877
527.20         57.4931
527.64        57.56041
528.08        57.50658
528.52        57.36901
528.96        57.20807
529.40        57.11126
529.83        57.09979
530.27        57.17051
530.71        57.27108
531.15        57.31751
531.59        57.28997
532.03         57.2211
532.46        57.13663
532.90        57.08739
533.34        57.08254
533.78        57.10577
534.22        57.13458
534.66         57.1371
535.09        57.09814
535.53        57.04819
535.97        56.99626
536.41        56.97074
536.85         56.9779
537.28        57.00785
537.72        57.04453
538.16        57.06362
538.60        57.05848
539.04         57.0402
539.47        57.00742
539.91        57.00515
540.35        57.02436
540.79        57.05658
541.22        57.09223
541.66        57.13109
542.10        57.16197
542.54        57.18035
542.97        57.17805
543.41        57.17091
543.85        57.16033
544.29        57.16345
544.72        57.15366
545.16        57.14109
545.60        57.11618
546.04        57.00562
546.47        56.89285
546.91        57.04076
547.35        57.37358
547.79        57.59032
548.22        57.59627
548.66        57.39647
549.10        57.08955
549.53        56.96023
549.97        57.02691
550.41        57.01183
550.84         56.9258
551.28        56.94371
551.72        57.03988
552.15         57.1595
552.59        57.31027
553.03        57.10249
553.46        57.31911
553.90        57.21083
554.34        56.97903
554.77        57.01836
555.21        56.97961
555.65        56.61982
556.08         57.0679
556.52        57.18301
556.96        57.28923
557.39        57.41601
557.83        57.54111
558.27        57.48339
558.70        57.27635
559.14         57.1497
559.57        57.11934
560.01        57.13688
560.45        57.15276
560.88        57.10967
561.32        57.06124
561.75        56.97847
562.19        56.93848
562.63        57.12494
563.06        57.43096
563.50        57.40818
563.93        57.08876
564.37        56.94408
564.80         56.9883
565.24         57.0554
565.68        57.11217
566.11        57.13146
566.55        57.11724
566.98        57.13249
567.42        57.23635
567.85        57.11206
568.29        57.36451
568.72        57.37616
569.16        57.39614
569.60        57.33842
570.03        57.47389
570.47        57.58004
570.90        57.68742
571.34        57.50311
571.77        57.82853
572.21        57.52411
572.64        57.56809
573.08        57.42662
573.51        57.32893
573.95        57.68004
574.38        57.51775
574.82        58.07937
