SpectraSmart Spectrum 2.9.0.0
--------- Device Information -----------
Spectrum Name :  反射率_0
Saving Time :  2024/04/21 00:06:30
Spectro-Module Model Name : SE2030-DUVN
Spectro-Module Serial Number : OS361AC55029948
Wavelength Start : 200
Wavelength End : 1025
Wavelength Unit : Wavelength(nm)
Spectrum Unit : Reflectance(%)
-----------Spectrum Setting ------------
Integration Time : 20ms
Average : 10
Boxcar : 0
Background removal :  enabled
linearity correction :  enabled
SC :  disabled
Intensity correction :  disabled
DWT denoise :  enabled
savitzky-golay :  disabled
FFT :  disabled
Running average :  disabled
Kalman :  disabled
High pass :  disabled
---------------BEGIN--------------------
Wavelength(nm)             Reflectance(%)
200.29               0
200.75       -50.10434
201.21        8.523244
201.67        36.62194
202.13        42.48342
202.58        34.41779
203.04        15.35241
203.50       -10.12608
203.96       -26.20722
204.42       -24.68566
204.88       -11.15172
205.34        4.936241
205.80        10.16367
206.26       0.5116493
206.72        -20.7287
207.18       -50.22957
207.64       -76.68156
208.10       -88.82244
208.55       -89.45003
209.01       -70.21212
209.47       -32.04381
209.93       0.4983997
210.39        22.00587
210.85        34.53159
211.31        40.38317
211.77        42.27235
212.23        41.52616
212.69        36.25656
213.14         21.8944
213.60       -13.79121
214.06        -138.579
214.52       -452.0424
214.98       -193.0428
215.44        -27.1717
215.90        29.12943
216.36        46.65343
216.81        44.68066
217.27        23.06123
217.73       -79.80402
218.19        1149.301
218.65        497.3014
219.11       -1054.509
219.57       -34.80072
220.02        29.84341
220.48        41.17233
220.94        34.60936
221.40        8.759812
221.86       -54.50113
222.32       -99.40402
222.77       -46.66903
223.23        1.402414
223.69        26.17694
224.15         34.9986
224.61        35.54095
225.06        32.45056
225.52        26.87006
225.98        19.81626
226.44        12.35834
226.90        3.158015
227.36       -3.459757
227.81       0.5466254
228.27        11.44523
228.73        23.24138
229.19        31.22485
229.65        33.07354
230.10        29.90075
230.56        23.50142
231.02        15.05301
231.48        9.152966
231.93        9.314775
232.39        13.86201
232.85         19.2881
233.31        22.57221
233.77        23.82413
234.22         24.4581
234.68        24.49182
235.14        23.81421
235.60        22.78076
236.05        20.57877
236.51        17.59046
236.97          20.914
237.43        31.29805
237.88        37.79787
238.34        36.03457
238.80         58.7853
239.26        47.96366
239.71        46.14312
240.17        37.98633
240.63        29.34854
241.08        23.96848
241.54        25.04489
242.00        32.57916
242.46        35.22693
242.91        29.59487
243.37        16.23685
243.83       -1.975067
244.28       -11.82297
244.74       -5.435795
245.20        9.163074
245.66         23.2738
246.11        29.03052
246.57        25.44013
247.03        15.51543
247.48     -0.07932357
247.94       -21.18422
248.40       -54.00954
248.85       -132.9539
249.31       -377.6924
249.77       -589.4861
250.22       -220.3646
250.68        -61.1845
251.14       -7.469938
251.59        11.42393
252.05        18.10243
252.51        20.10477
252.96        17.92426
253.42        13.91107
253.88        11.20633
254.33        9.970489
254.79        14.60819
255.25        25.87259
255.70        38.31478
256.16        48.76734
256.62        55.54051
257.07        57.87132
257.53        57.60881
257.99        56.06371
258.44        54.09739
258.90        53.04725
259.35        52.44412
259.81         52.2369
260.27        51.95264
260.72         51.2324
261.18        50.42073
261.63        49.44181
262.09        48.58449
262.55        47.73889
263.00        46.82026
263.46        46.00129
263.91        45.12479
264.37        44.38159
264.83        43.70871
265.28        43.04151
265.74        42.47624
266.19        41.95268
266.65        41.49456
267.11        41.03831
267.56         40.4746
268.02        39.72976
268.47        38.75006
268.93        37.61234
269.38        36.37674
269.84        35.20062
270.30        34.12655
270.75        33.13087
271.21        32.22644
271.66        31.35987
272.12        30.54966
272.57        29.80693
273.03        29.15172
273.48        28.56672
273.94        28.06211
274.39         27.5957
274.85        27.18286
275.31        26.79156
275.76        26.39911
276.22        26.03027
276.67        25.66249
277.13        25.33572
277.58        25.01717
278.04        24.72281
278.49        24.39835
278.95        24.03927
279.40        23.60957
279.86        23.14949
280.31        22.66005
280.77        22.21874
281.22        21.81158
281.68        21.47589
282.13        21.14964
282.59         20.8089
283.04        20.43222
283.50        20.05344
283.95        19.73926
284.41        19.61055
284.86        19.66874
285.32        19.87638
285.77        20.10569
286.22        20.18262
286.68        20.09687
287.13        19.87152
287.59         19.6671
288.04        19.62415
288.50        19.74187
288.95        20.08893
289.41        20.58407
289.86        20.60799
290.32         20.0514
290.77        20.97646
291.22        20.06761
291.68        20.17148
292.13        20.33048
292.59        20.61185
293.04        21.00247
293.50        21.55887
293.95        22.29387
294.40        23.15779
294.86        24.10489
295.31        25.05069
295.77        25.96273
296.22        26.84786
296.68        27.71285
297.13        28.56533
297.58        29.43703
298.04        30.34192
298.49        31.32297
298.95        32.46676
299.40        33.76738
299.85        35.19403
300.31        36.68909
300.76        38.14526
301.21        39.53343
301.67        40.89898
302.12        42.23346
302.58        43.61338
303.03        45.04324
303.48        46.55579
303.94        48.17004
304.39        49.87133
304.84        51.65984
305.30        53.54395
305.75        55.48825
306.20        57.52776
306.66        59.64017
307.11        61.75097
307.57        63.81805
308.02        65.73002
308.47        67.48411
308.93        69.15397
309.38        70.73117
309.83        72.23059
310.29        73.77425
310.74        75.26276
311.19         76.7643
311.65        78.32851
312.10         79.9407
312.55        81.58162
313.00        83.19128
313.46        84.67545
313.91        85.98375
314.36        87.13885
314.82        88.17089
315.27        89.13084
315.72        90.05142
316.18        90.92884
316.63        91.76004
317.08        92.54324
317.53        93.27467
317.99        93.95166
318.44        94.59438
318.89        95.21573
319.35        95.81265
319.80        96.38947
320.25        96.89963
320.70        97.27354
321.16        97.49877
321.61         97.6199
322.06        97.71543
322.51        97.92035
322.97        98.25339
323.42        98.70816
323.87        99.19901
324.32        99.59561
324.78        99.83849
325.23        100.0017
325.68        100.1123
326.13        100.2458
326.59        100.4056
327.04        100.6163
327.49        100.8447
327.94         101.074
328.39        101.2964
328.85         101.495
329.30        101.7301
329.75        101.9673
330.20        102.2064
330.66        102.4158
331.11        102.6576
331.56        102.9075
332.01        103.1679
332.46         103.435
332.92        103.6772
333.37        103.9777
333.82        104.3003
334.27        104.6527
334.72        105.0197
335.17        105.3732
335.63        105.6845
336.08          106.02
336.53        106.3985
336.98        106.8998
337.43        107.5276
337.88        108.2358
338.34        108.9296
338.79        109.5095
339.24        109.9142
339.69        110.1862
340.14        110.3492
340.59        110.4507
341.05        110.5273
341.50        110.5763
341.95        110.6697
342.40        110.9295
342.85        111.3676
343.30        111.9481
343.75        112.5367
344.20        112.9149
344.66        113.0418
345.11        112.9657
345.56        112.8086
346.01        112.7671
346.46        112.9003
346.91        113.1376
347.36        113.4021
347.81        113.6195
348.26        113.7669
348.72        113.7253
349.17        113.8063
349.62        113.8484
350.07        113.9516
350.52         114.074
350.97        114.1661
351.42        114.1525
351.87        114.0064
352.32        113.7489
352.77        113.4244
353.22        113.0949
353.67        112.7815
354.13         112.496
354.58        112.1687
355.03        111.7428
355.48        111.2169
355.93        110.6128
356.38        110.0316
356.83        109.6216
357.28        109.3882
357.73        109.2683
358.18        109.1032
358.63        108.6426
359.08        107.8444
359.53        106.8103
359.98        105.6947
360.43        104.7314
360.88        103.9818
361.33        103.3649
361.78        102.8304
362.23        102.2972
362.68        101.7265
363.13        101.1555
363.58        100.5272
364.03        99.74298
364.48        98.79793
364.93        97.71355
365.38        96.61888
365.83        95.73434
366.28        95.10469
366.73        94.66148
367.18        94.26925
367.63        93.70582
368.08        92.91669
368.53        91.98186
368.98         90.9815
369.43        90.02878
369.88        89.15893
370.33        88.32909
370.78        87.54136
371.23        86.81891
371.68        86.17171
372.13        85.61208
372.58        85.10884
373.03        84.59109
373.48        84.03011
373.93        83.42711
374.38        82.80605
374.83        82.22321
375.28         81.6974
375.72        81.20097
376.17        80.72129
376.62        80.17185
377.07        79.53193
377.52        78.81753
377.97        78.09464
378.42        77.49065
378.87        77.04537
379.32        76.72425
379.77        76.44286
380.22        76.06397
380.67        75.54795
381.11        74.93528
381.56        74.27939
382.01        73.69575
382.46        73.23099
382.91         72.8554
383.36         72.5242
383.81        72.16664
384.26        71.75912
384.71        71.32423
385.15        70.87968
385.60        70.50832
386.05        70.20196
386.50        69.94284
386.95         69.6874
387.40        69.37994
387.85        69.01761
388.29        68.57756
388.74        68.20174
389.19        67.91017
389.64        67.69656
390.09        67.52867
390.54        67.34319
390.98        67.02908
391.43        66.61745
391.88        66.15385
392.33        65.70512
392.78        65.36287
393.23        65.14345
393.67        64.97215
394.12        64.89793
394.57        64.84438
395.02        64.78491
395.47        64.71546
395.91        64.60783
396.36        64.40303
396.81        64.11835
397.26        63.79903
397.71        63.48546
398.15        63.20807
398.60        63.04548
399.05        62.89378
399.50        62.79004
399.95        62.82743
400.39        62.95307
400.84        63.05839
401.29        63.05629
401.74        62.62284
402.18        61.91983
402.63        61.68421
403.08        61.85809
403.53         61.6779
403.97        61.12488
404.42        60.68853
404.87        60.46149
405.32        60.39086
405.76        60.47582
406.21        60.71302
406.66        60.97306
407.11        61.07755
407.55          60.974
408.00        60.65268
408.45        60.22524
408.90        59.81185
409.34        59.53553
409.79        59.60187
410.24        59.87154
410.68        59.92019
411.13        59.70116
411.58        59.42768
412.03        59.19272
412.47        59.09197
412.92        59.14536
413.37        59.32003
413.81        59.53068
414.26        59.70643
414.71         59.8046
415.15         59.8624
415.60        59.86791
416.05        59.85396
416.49        59.83391
416.94        59.78283
417.39        59.71662
417.83        59.65758
418.28        59.61271
418.73         59.5813
419.17        59.54447
419.62        59.47861
420.07        59.38825
420.51        59.28306
420.96        59.21167
421.41        59.23359
421.85        59.33401
422.30        59.43344
422.74        59.49933
423.19          59.791
423.64        60.19209
424.08        60.23368
424.53        59.91257
424.98        59.82669
425.42        60.04265
425.87        60.13246
426.31        60.10749
426.76        60.33574
427.21        60.72089
427.65        60.75875
428.10        60.47562
428.54        60.36443
428.99         60.4881
429.44        60.64168
429.88         60.7349
430.33        60.71067
430.77        60.57671
431.22        60.60066
431.66        60.79662
432.11         61.1452
432.56        61.59089
433.00        61.74426
433.45        61.38875
433.89        61.16081
434.34        61.39462
434.78        60.17183
435.23        61.12725
435.67        61.68118
436.12        61.88271
436.57        61.95437
437.01        61.77376
437.46         61.6482
437.90         62.2383
438.35        62.30056
438.79        62.52769
439.24        62.59022
439.68        62.65538
440.13        62.62617
440.57        62.53595
441.02        62.62746
441.46        62.86222
441.91        62.89175
442.35        62.73939
442.80        63.11816
443.24        63.82673
443.69        63.91935
444.13        63.42052
444.58        63.11243
445.02        63.08695
445.47         63.2535
445.91        63.51405
446.36        63.65257
446.80          63.632
447.24        63.56471
447.69        63.52467
448.13        63.72625
448.58        63.94567
449.02        64.00921
449.47        63.87162
449.91         63.8109
450.36        63.85327
450.80        63.75544
451.25        63.58086
451.69        63.58583
452.13        63.73294
452.58        63.68974
453.02        63.46118
453.47        63.33677
453.91         63.3168
454.36         63.2539
454.80        63.13453
455.24        63.03875
455.69        62.99026
456.13        62.89587
456.58        62.79519
457.02        62.89448
457.46        62.84377
457.91        62.90748
458.35        63.02407
458.79        62.97887
459.24        62.81159
459.68        62.58121
460.13        62.38635
460.57        62.18628
461.01        62.01137
461.46        62.11584
461.90        62.02116
462.34        61.96654
462.79        62.07199
463.23        61.92839
463.68        62.19244
464.12        61.85329
464.56        61.29116
465.01         61.4249
465.45        61.97481
465.89        62.05124
466.34        61.70725
466.78        61.24958
467.22        60.74433
467.67        61.40033
468.11        60.98903
468.55        61.04448
468.99        60.89614
469.44        60.83381
469.88         60.8445
470.32        60.77631
470.77         60.6661
471.21        60.60704
471.65        60.60702
472.10         60.6303
472.54        60.65001
472.98        60.63816
473.42        60.59036
473.87        60.56362
474.31        60.52154
474.75        60.44828
475.20        60.35508
475.64        60.29644
476.08        60.27491
476.52        60.29441
476.97        60.35429
477.41        60.44792
477.85        60.43679
478.29        60.61339
478.74        59.99002
479.18        59.78122
479.62        60.16946
480.06        60.24253
480.50        60.16976
480.95        60.08567
481.39        59.92264
481.83        60.50772
482.27        60.36156
482.72        60.31537
483.16        60.33694
483.60        60.67031
484.04        60.64745
484.48        60.30495
484.93        60.10273
485.37        59.94973
485.81        60.51567
486.25         59.7954
486.69        61.14446
487.14        61.07073
487.58         60.1801
488.02         59.8689
488.46        60.07901
488.90        59.97164
489.34        59.95767
489.79        59.50144
490.23        60.10478
490.67        60.12214
491.11           59.98
491.55        59.87001
491.99        59.84222
492.43        59.83769
492.88        59.85217
493.32        59.94003
493.76        60.02903
494.20        60.09296
494.64        60.13693
495.08        59.84401
495.52          59.807
495.96        59.76621
496.41        59.83627
496.85        59.80685
497.29        59.64013
497.73        59.63055
498.17        59.46046
498.61         59.4613
499.05        59.50882
499.49        59.33036
499.93        59.04272
500.37        59.18982
500.82        59.66842
501.26        59.89224
501.70         59.7653
502.14        59.50439
502.58        59.14501
503.02         58.9846
503.46        58.99269
503.90        59.09724
504.34        59.22174
504.78        59.33028
505.22        59.40616
505.66        59.41318
506.10        59.35067
506.54        59.37238
506.98        59.51283
507.42        59.16304
507.86        59.33191
508.30        59.29404
508.74        59.22423
509.18        59.18941
509.62         59.1605
510.06        59.16561
510.50        59.17719
510.94        59.13427
511.38        59.04716
511.82        58.99545
512.26        58.98258
512.70        58.95849
513.14        58.92473
513.58        58.90435
514.02         58.8973
514.46        58.90158
514.90        58.88639
515.34        58.84258
515.78        58.77507
516.22        58.65458
516.66        58.37632
517.10        58.63017
517.54        58.49129
517.98        58.66516
518.42        58.82646
518.86        58.91787
519.30        58.91422
519.74         58.8132
520.18        58.67766
520.62        58.66178
521.06        58.74835
521.50        58.73221
521.93        58.61443
522.37        58.55621
522.81        58.56387
523.25        58.54939
523.69        58.50373
524.13        58.45569
524.57        58.40735
525.01        58.34886
525.45        58.30867
525.89        58.33272
526.32        58.42246
526.76        58.56701
527.20         58.7149
527.64        58.78661
528.08          58.764
528.52        58.67231
528.96        58.55955
529.40          58.495
529.83        58.49374
530.27        58.56052
530.71        58.64454
531.15        58.66284
531.59        58.60036
532.03        58.49279
532.46        58.37331
532.90        58.30563
533.34        58.30067
533.78        58.33545
534.22        58.38639
534.66        58.41866
535.09         58.4128
535.53        58.40165
535.97        58.37597
536.41        58.33629
536.85        58.28725
537.28        58.22674
537.72         58.1735
538.16        58.16156
538.60        58.19257
539.04        58.25406
539.47        58.30354
539.91        58.32398
540.35        58.29265
540.79         58.2268
541.22        58.13935
541.66        58.06514
542.10        58.01254
542.54        57.97188
542.97        57.94556
543.41        57.96626
543.85        58.02921
544.29        58.13856
544.72        58.24743
545.16        58.32612
545.60        58.35143
546.04         58.2821
546.47        58.18726
546.91        58.26046
547.35        58.45549
547.79        58.59505
548.22        58.60778
548.66        58.42459
549.10        58.15239
549.53        58.15748
549.97        58.40758
550.41        58.46935
550.84        58.32631
551.28        58.23274
551.72        58.21278
552.15        58.23177
552.59        58.31573
553.03        58.24504
553.46         58.4085
553.90        58.40883
554.34        58.33823
554.77         58.3113
555.21        58.40015
555.65        58.09739
556.08        58.36491
556.52        58.41565
556.96        58.48723
557.39        58.55159
557.83         58.5841
558.27        58.44674
558.70        58.20744
559.14        58.10612
559.57        58.15865
560.01        58.35075
560.45        58.54677
560.88        58.48851
561.32        58.26501
561.75        58.01392
562.19        57.87467
562.63         58.1154
563.06        58.56538
563.50        58.50679
563.93        57.99852
564.37        57.76421
564.80        57.85328
565.24        58.04247
565.68        58.25945
566.11        58.39234
566.55        58.42849
566.98        58.50431
567.42        58.62493
567.85        58.54646
568.29        58.37177
568.72        58.39917
569.16        58.64273
569.60        58.68673
570.03        58.82138
570.47          58.849
570.90        58.79004
571.34        59.08686
571.77        59.34968
572.21        58.87456
572.64        59.09041
573.08        58.78366
573.51        59.08305
573.95        59.18984
574.38        59.09798
574.82        59.67649
