SpectraSmart Spectrum 2.9.0.0
--------- Device Information -----------
Spectrum Name :  反射率_0
Saving Time :  2024/04/21 00:42:56
Spectro-Module Model Name : SE2030-DUVN
Spectro-Module Serial Number : OS361AC55029948
Wavelength Start : 200
Wavelength End : 1025
Wavelength Unit : Wavelength(nm)
Spectrum Unit : Reflectance(%)
-----------Spectrum Setting ------------
Integration Time : 20ms
Average : 10
Boxcar : 0
Background removal :  enabled
linearity correction :  enabled
SC :  disabled
Intensity correction :  disabled
DWT denoise :  enabled
savitzky-golay :  disabled
FFT :  disabled
Running average :  disabled
Kalman :  disabled
High pass :  disabled
---------------BEGIN--------------------
Wavelength(nm)             Reflectance(%)
200.29               0
200.75        -65.2421
201.21       -18.78896
201.67        6.456352
202.13        15.69897
202.58        15.67458
203.04         10.4214
203.50        2.708956
203.96      -0.5962284
204.42        3.124549
204.88        9.977645
205.34        16.88742
205.80        19.85233
206.26        17.86562
206.72        13.93504
207.18        5.088003
207.64        -14.3579
208.10       -41.76857
208.55       -74.01597
209.01       -84.93157
209.47       -49.67541
209.93       -3.604614
210.39        32.34335
210.85        54.68201
211.31        63.77962
211.77        63.19336
212.23         53.8885
212.69        31.32327
213.14       -9.269876
213.60       -77.48487
214.06       -260.1563
214.52       -640.2271
214.98       -257.6742
215.44       -49.65578
215.90        17.74978
216.36        39.07159
216.81        39.49579
217.27        21.36897
217.73       -70.73211
218.19        1039.779
218.65        449.8982
219.11       -943.2903
219.57       -28.20604
220.02        29.34157
220.48        38.21163
220.94        29.72552
221.40       0.9177312
221.86       -68.08161
222.32       -116.7334
222.77       -58.91441
223.23       -5.832533
223.69        21.83725
224.15        32.21238
224.61        33.85445
225.06        31.69904
225.52        27.43392
225.98        22.90256
226.44        19.20411
226.90        14.88088
227.36        12.41476
227.81        16.10219
228.27        23.24324
228.73        30.60304
229.19        35.29758
229.65        35.60507
230.10        32.16684
230.56        26.36069
231.02        19.07595
231.48        13.89187
231.93        13.72677
232.39        17.41906
232.85        21.98485
233.31        24.75969
233.77        25.84039
234.22        26.48229
234.68         26.6247
235.14        26.07197
235.60        25.12784
236.05        23.00232
236.51        20.21103
236.97        23.88264
237.43        34.65066
237.88        41.92486
238.34        41.52174
238.80        62.65926
239.26        52.27798
239.71        49.04636
240.17        39.02678
240.63        28.80997
241.08         23.3592
241.54        26.44615
242.00        37.95633
242.46        46.24141
242.91        48.37406
243.37        45.34916
243.83        39.10493
244.28        37.21683
244.74        43.09617
245.20        51.88519
245.66         57.4116
246.11        53.49326
246.57        39.80592
247.03        18.76967
247.48       -6.691461
247.94       -32.03078
248.40       -59.76055
248.85       -112.2565
249.31       -244.5268
249.77       -285.8617
250.22       -62.62849
250.68        12.40997
251.14         32.8163
251.59        37.27412
252.05        35.54556
252.51        28.95671
252.96        17.73334
253.42        9.040083
253.88         9.48614
254.33        16.89854
254.79        28.88651
255.25        40.99023
255.70         50.2816
256.16        57.02184
256.62        61.21844
257.07        63.03179
257.53        63.67094
257.99        63.46784
258.44         62.5889
258.90        61.88694
259.35        60.91567
259.81        60.00078
260.27         58.9567
260.72        57.70657
261.18        56.63376
261.63        55.50758
262.09        54.45259
262.55         53.1386
263.00        51.50658
263.46        49.84919
263.91        48.22019
264.37        47.11765
264.83        46.47231
265.28        46.07766
265.74        45.78583
266.19        45.20418
266.65        44.33665
267.11        43.24554
267.56         42.0485
268.02        41.01491
268.47        40.16003
268.93        39.44556
269.38        38.73228
269.84        37.87233
270.30        36.83384
270.75        35.68948
271.21        34.60419
271.66        33.75822
272.12        33.20636
272.57        32.84018
273.03         32.5517
273.48        32.14241
273.94        31.58958
274.39        30.93586
274.85        30.25253
275.31        29.57708
275.76        28.93249
276.22        28.33335
276.67        27.81147
277.13        27.49291
277.58        27.32951
278.04        27.29547
278.49        27.23513
278.95        27.00504
279.40         26.5431
279.86        25.94813
280.31        25.27492
280.77        24.68931
281.22        24.20638
281.68        23.84328
282.13        23.53961
282.59        23.28242
283.04        23.03608
283.50        22.82571
283.95        22.68602
284.41        22.69207
284.86        22.82831
285.32        23.07255
285.77        23.29597
286.22        23.33349
286.68        23.18702
287.13        22.87979
287.59        22.60592
288.04        22.55289
288.50        22.73113
288.95        23.18876
289.41        23.80762
289.86        23.92542
290.32        23.42933
290.77         24.3148
291.22        23.44598
291.68        23.60773
292.13        23.89749
292.59        24.36851
293.04         24.9861
293.50        25.76891
293.95        26.72525
294.40        27.83219
294.86        29.07056
295.31        30.39178
295.77        31.77156
296.22        33.19156
296.68        34.64953
297.13        36.14433
297.58        37.69154
298.04        39.29119
298.49        40.95467
298.95        42.71857
299.40         44.5697
299.85        46.51517
300.31         48.5099
300.76        50.45573
301.21        52.35043
301.67        54.23979
302.12        56.18893
302.58        58.41011
303.03        60.89014
303.48        63.59648
303.94        66.38457
304.39        68.97213
304.84        71.29899
305.30         73.4539
305.75        75.50393
306.20        77.67624
306.66        80.01342
307.11        82.37371
307.57        84.69288
308.02        86.79175
308.47        88.66462
308.93        90.41547
309.38        92.03995
309.83        93.60735
310.29         95.1785
310.74        96.68547
311.19        98.17512
311.65        99.69831
312.10        101.2326
312.55        102.7632
313.00        104.2228
313.46        105.5035
313.91        106.5619
314.36        107.4441
314.82        108.2064
315.27        108.9298
315.72        109.6593
316.18        110.3742
316.63        111.0847
317.08        111.8066
317.53        112.5287
317.99        113.2453
318.44        113.9095
318.89        114.4243
319.35        114.7733
319.80        114.9994
320.25        115.1644
320.70        115.3794
321.16        115.6703
321.61        116.0237
322.06        116.4149
322.51        116.8111
322.97        117.1758
323.42        117.5586
323.87        117.9161
324.32        118.1955
324.78        118.3671
325.23        118.4812
325.68        118.5691
326.13        118.7234
326.59        118.9413
327.04        119.2644
327.49        119.6215
327.94        119.9261
328.39        120.1591
328.85        120.3182
329.30        120.5236
329.75        120.8242
330.20        121.2382
330.66        121.6883
331.11        122.2132
331.56        122.7229
332.01        123.1939
332.46        123.6485
332.92         124.014
333.37        124.3326
333.82         124.564
334.27        124.7251
334.72        124.9167
335.17        125.3086
335.63         125.902
336.08        126.7125
336.53         127.592
336.98        128.3443
337.43        128.8958
337.88        129.2813
338.34        129.5288
338.79        129.7667
339.24         130.013
339.69        130.2581
340.14        130.4887
340.59        130.6868
341.05        130.8654
341.50          131.06
341.95        131.3454
342.40        131.8341
342.85        132.5296
343.30        133.3728
343.75         134.226
344.20        134.8813
344.66        135.2862
345.11        135.4668
345.56         135.514
346.01        135.5828
346.46        135.7359
346.91        135.9089
347.36        136.0397
347.81        136.1488
348.26        136.2417
348.72        135.9118
349.17         135.991
349.62        135.9943
350.07        136.1659
350.52        136.4422
350.97        136.6824
351.42        136.6476
351.87         136.284
352.32        135.6756
352.77        134.9964
353.22         134.511
353.67         134.277
354.13        134.2273
354.58        134.1843
355.03        133.9223
355.48        133.3825
355.93        132.6413
356.38        131.8296
356.83          131.14
357.28        130.6075
357.73        130.1595
358.18        129.6765
358.63         128.978
359.08        128.0383
359.53        126.9459
359.98        125.8202
360.43        124.8281
360.88        124.0107
361.33        123.3084
361.78        122.6687
362.23        122.0109
362.68        121.3029
363.13        120.5725
363.58        119.8013
364.03        118.9566
364.48        118.0366
364.93         117.039
365.38        116.0197
365.83        115.0798
366.28          114.24
366.73        113.4723
367.18        112.7139
367.63        111.8609
368.08        110.8948
368.53        109.8638
368.98        108.8083
369.43        107.7755
369.88        106.7791
370.33        105.7972
370.78         104.846
371.23        103.9752
371.68        103.2004
372.13        102.5132
372.58        101.8793
373.03        101.2223
373.48        100.5151
373.93        99.78232
374.38        99.02348
374.83        98.25566
375.28        97.50269
375.72        96.73647
376.17        96.04852
376.62        95.48673
377.07        95.03361
377.52        94.65401
377.97        94.24758
378.42        93.66332
378.87         92.8921
379.32        92.01035
379.77        91.12316
380.22        90.36195
380.67        89.74661
381.11        89.23472
381.56         88.7825
382.01        88.34514
382.46        87.91045
382.91        87.50185
383.36        87.09663
383.81        86.65411
384.26        86.16371
384.71        85.62259
385.15        85.05977
385.60        84.59589
386.05        84.22174
386.50        83.91319
386.95        83.59959
387.40        83.17749
387.85        82.64542
388.29        82.00488
388.74        81.44089
389.19        80.99224
389.64        80.65992
390.09        80.39616
390.54        80.15622
390.98        79.85905
391.43        79.53167
391.88        79.19369
392.33        78.85819
392.78        78.52145
393.23        78.18941
393.67        77.84126
394.12        77.59864
394.57        77.26411
395.02        77.23405
395.47        76.95116
395.91        76.58074
396.36        76.31377
396.81        76.18103
397.26        76.07971
397.71        75.94487
398.15        75.71244
398.60        75.46091
399.05        75.09729
399.50         74.7219
399.95        74.61362
400.39         74.7239
400.84        74.64381
401.29        74.34994
401.74        74.04969
402.18         73.7839
402.63        73.51968
403.08        73.23472
403.53        72.86686
403.97        72.42066
404.42        71.97456
404.87        71.61849
405.32        71.42467
405.76        71.37988
406.21        71.61861
406.66        71.95625
407.11        71.72794
407.55        71.05679
408.00        70.88019
408.45        71.19621
408.90         71.0405
409.34        70.44569
409.79        70.19746
410.24        70.28377
410.68        70.25775
411.13        70.10904
411.58        70.03345
412.03        70.03362
412.47        70.05672
412.92        70.06833
413.37        70.08012
413.81        70.07285
414.26        70.08567
414.71        70.09766
415.15        70.10895
415.60         70.0741
416.05        69.98447
416.49         69.8446
416.94        69.66333
417.39        69.46729
417.83        69.28156
418.28         69.1239
418.73        68.99168
419.17        68.89267
419.62         68.8458
420.07        68.84467
420.51        68.86922
420.96        68.92521
421.41         68.9506
421.85        68.90336
422.30         68.8938
422.74        68.88297
423.19        68.80184
423.64         68.6909
424.08        68.85052
424.53        69.15951
424.98        69.28678
425.42        69.20638
425.87        69.01627
426.31        68.83313
426.76        68.87378
427.21        69.11984
427.65        69.29062
428.10        69.27622
428.54        69.27991
428.99        69.34383
429.44         69.1493
429.88        68.79693
430.33        69.02714
430.77        69.56808
431.22        69.50185
431.66        68.90949
432.11        68.81465
432.56        69.27102
433.00        69.26293
433.45        68.59833
433.89        68.47578
434.34        69.08971
434.78         68.0791
435.23        68.50152
435.67        69.34426
436.12        69.29562
436.57         69.5288
437.01        69.50644
437.46        69.38435
437.90        69.59996
438.35        69.91275
438.79        69.72904
439.24        69.71027
439.68         69.6596
440.13        69.61022
440.57        69.56007
441.02        69.57101
441.46        69.64893
441.91        69.71203
442.35        69.74007
442.80        70.18021
443.24         70.8524
443.69        71.06707
444.13        70.77741
444.58        70.48416
445.02        70.26762
445.47        70.18811
445.91        70.23301
446.36        70.21709
446.80        70.12401
447.24        70.15525
447.69        70.28459
448.13        70.36437
448.58        70.22206
449.02        70.20675
449.47         70.2666
449.91         70.2743
450.36        70.25021
450.80        70.18296
451.25        70.12241
451.69        70.19982
452.13        70.36005
452.58        70.27225
453.02        69.96226
453.47        69.78464
453.91        69.74896
454.36        69.67376
454.80         69.5184
455.24        69.35953
455.69        69.22734
456.13         68.9642
456.58        68.65147
457.02        68.73502
457.46        68.75945
457.91        68.61147
458.35        68.33676
458.79        68.20404
459.24        68.27927
459.68        68.31644
460.13        68.28931
460.57        68.22818
461.01        68.17841
461.46        67.86599
461.90        67.50475
462.34        67.61241
462.79        67.47226
463.23        67.02726
463.68        67.47837
464.12         67.2819
464.56        66.93668
465.01        67.06309
465.45        67.48218
465.89        67.42766
466.34        66.98466
466.78        66.85571
467.22        67.08633
467.67        66.99373
468.11         66.9241
468.55        66.77698
468.99        66.66174
469.44        66.49586
469.88        66.28653
470.32        66.03143
470.77        65.77718
471.21        65.62126
471.65        65.57472
472.10        65.61015
472.54        65.66993
472.98        65.66418
473.42        65.57129
473.87        65.49312
474.31        65.41097
474.75        65.26071
475.20        65.09438
475.64        65.16174
476.08        65.41351
476.52        65.48181
476.97        65.31224
477.41        65.39792
477.85        65.43985
478.29         65.0695
478.74        64.92236
479.18        64.84933
479.62        65.06008
480.06        65.14852
480.50        65.14436
480.95         65.1503
481.39        65.09072
481.83        65.33427
482.27        65.52213
482.72        65.02349
483.16        65.32517
483.60        65.32381
484.04        65.31141
484.48        65.08967
484.93        65.22535
485.37        65.27997
485.81         65.5672
486.25        64.75625
486.69        66.81239
487.14         67.0826
487.58        66.07891
488.02        65.13528
488.46        65.15179
488.90         65.3446
489.34          64.911
489.79        64.58997
490.23        65.14832
490.67        65.19868
491.11        65.05656
491.55        64.89973
491.99        64.79369
492.43        64.69576
492.88         64.6132
493.32        64.59969
493.76        64.59775
494.20        64.58862
494.64        64.58163
495.08        64.31332
495.52        64.31001
495.96        64.30213
496.41        64.39043
496.85        64.46252
497.29        64.44997
497.73        64.51597
498.17        64.33617
498.61        64.43739
499.05        64.65242
499.49        64.49341
499.93        64.07967
500.37        64.12252
500.82        64.55425
501.26        64.69477
501.70        64.46301
502.14        64.23578
502.58        64.06112
503.02        63.69925
503.46        63.79742
503.90        63.78745
504.34        63.82141
504.78        63.87784
505.22         63.9639
505.66        63.99458
506.10        63.95856
506.54        64.03249
506.98        64.24785
507.42        63.69764
507.86        64.32057
508.30        63.71791
508.74        63.99577
509.18        63.85325
509.62        63.77229
510.06        63.75006
510.50        63.76177
510.94        63.73061
511.38        63.63329
511.82        63.54659
512.26        63.46968
512.70        63.36043
513.14        63.24215
513.58        63.17342
514.02        63.16209
514.46        63.19173
514.90        63.22362
515.34        63.22804
515.78        63.19818
516.22         63.1264
516.66        62.88358
517.10        63.08297
517.54        62.89472
517.98        62.95653
518.42        63.00781
518.86        63.05255
519.30        63.07946
519.74        63.05548
520.18        63.01057
520.62        63.06937
521.06        63.18951
521.50        63.13612
521.93        62.92995
522.37        62.80663
522.81        62.78679
523.25        62.74615
523.69        62.68126
524.13         62.6427
524.57        62.63159
525.01        62.63376
525.45        62.65826
525.89        62.71835
526.32        62.80644
526.76        62.91717
527.20        63.01865
527.64        63.06468
528.08        63.04488
528.52        62.97653
528.96        62.88553
529.40        62.80519
529.83        62.74744
530.27         62.7361
530.71        62.74888
531.15        62.74669
531.59        62.72286
532.03        62.69322
532.46        62.66819
532.90        62.67718
533.34        62.71605
533.78        62.77085
534.22        62.81343
534.66        62.80272
535.09        62.72454
535.53        62.61866
535.97        62.49885
536.41         62.4035
536.85        62.34705
537.28        62.31946
537.72         62.3238
538.16        62.36475
538.60        62.43373
539.04        62.52603
539.47        62.60118
539.91        62.65049
540.35        62.65139
540.79        62.61399
541.22        62.55301
541.66        62.50853
542.10        62.48808
542.54         62.4823
542.97           62.48
543.41        62.49406
543.85        62.51517
544.29        62.55418
544.72        62.58873
545.16        62.61528
545.60        62.61634
546.04        62.58549
546.47        62.55914
546.91        62.58814
547.35        62.66877
547.79        62.82927
548.22        62.96836
548.66        62.87028
549.10        62.58852
549.53        62.41547
549.97        62.39095
550.41        62.32998
550.84        62.24961
551.28        62.26453
551.72         62.3518
552.15        62.43222
552.59        62.50797
553.03         62.3654
553.46        62.59231
553.90        62.32607
554.34        62.47852
554.77         62.4239
555.21        62.40175
555.65        62.40469
556.08        62.42456
556.52        62.44946
556.96        62.46007
557.39        62.51343
557.83        62.59406
558.27          62.559
558.70        62.42994
559.14        62.38102
559.57        62.41348
560.01        62.45269
560.45        62.46672
560.88        62.49588
561.32        62.55442
561.75        62.45891
562.19          62.302
562.63        62.34857
563.06        62.53838
563.50        62.53897
563.93        62.34771
564.37        62.20603
564.80        62.15216
565.24        62.27995
565.68        62.52427
566.11        62.63393
566.55        62.60278
566.98        62.59606
567.42        62.65178
567.85        62.60361
568.29         62.5388
568.72        62.65562
569.16        62.94675
569.60        63.01681
570.03        63.14381
570.47        63.18896
570.90        63.04842
571.34        63.44339
571.77        63.38743
572.21         63.5988
572.64        63.52117
573.08        63.44707
573.51        63.45313
573.95        63.95242
574.38        63.87318
574.82        64.60935
