SpectraSmart Spectrum 2.9.0.0
--------- Device Information -----------
Spectrum Name :  反射率_0
Saving Time :  2024/04/21 00:49:59
Spectro-Module Model Name : SE2030-DUVN
Spectro-Module Serial Number : OS361AC55029948
Wavelength Start : 200
Wavelength End : 1025
Wavelength Unit : Wavelength(nm)
Spectrum Unit : Reflectance(%)
-----------Spectrum Setting ------------
Integration Time : 20ms
Average : 10
Boxcar : 0
Background removal :  enabled
linearity correction :  enabled
SC :  disabled
Intensity correction :  disabled
DWT denoise :  enabled
savitzky-golay :  disabled
FFT :  disabled
Running average :  disabled
Kalman :  disabled
High pass :  disabled
---------------BEGIN--------------------
Wavelength(nm)             Reflectance(%)
200.29               0
200.75       -7.754491
201.21        22.00339
201.67        35.73082
202.13        40.14129
202.58        39.33432
203.04        35.71295
203.50        29.10962
203.96        20.42578
204.42        11.62442
204.88        2.290788
205.34       -4.523748
205.80       -5.333947
206.26       0.9177661
206.72        17.56161
207.18         37.5788
207.64        40.93237
208.10        19.74374
208.55       -19.73163
209.01        -50.7802
209.47       -38.09465
209.93       -6.270592
210.39        21.27659
210.85        39.25962
211.31        46.82816
211.77        46.52184
212.23        39.85867
212.69        22.10233
213.14       -16.57294
213.60       -97.29933
214.06       -347.5499
214.52       -950.0266
214.98       -449.3535
215.44       -132.1212
215.90       -23.83938
216.36         12.3599
216.81        16.30725
217.27       -5.788557
217.73       -123.2421
218.19        1285.101
218.65        520.2098
219.11       -1082.359
219.57       -37.00924
220.02        28.34929
220.48        39.94864
220.94        33.97026
221.40        9.257514
221.86       -50.78391
222.32       -90.41489
222.77       -37.09598
223.23        9.718648
223.69        33.35369
224.15        41.28384
224.61        41.02213
225.06        37.05083
225.52        30.56911
225.98         22.8855
226.44        15.09566
226.90        5.499319
227.36       -1.306802
227.81        3.111374
228.27        14.69791
228.73        27.23834
229.19        35.30288
229.65        35.96354
230.10        30.19356
230.56        19.40467
231.02         5.61888
231.48       -2.752431
231.93      -0.3312322
232.39        9.192558
232.85         19.2184
233.31        24.38605
233.77        24.99449
234.22        23.28485
234.68        20.23541
235.14        17.61106
235.60        16.54735
236.05        15.63049
236.51        14.60814
236.97        19.43172
237.43        30.17971
237.88        36.24608
238.34        33.35145
238.80        56.38157
239.26        44.47799
239.71        42.35505
240.17        33.59116
240.63         24.0538
241.08        17.42874
241.54        17.50836
242.00        24.92903
242.46         28.0267
242.91        23.48719
243.37        12.14721
243.83       -2.733398
244.28       -8.068602
244.74        2.618001
245.20        20.72377
245.66         36.8167
246.11         42.4769
246.57        37.14156
247.03         23.9596
247.48         5.15232
247.94        -16.0223
248.40       -42.70693
248.85       -99.28055
249.31       -258.2431
249.77       -355.9732
250.22       -103.0585
250.68       -5.715072
251.14        25.27988
251.59        36.66611
252.05        41.83044
252.51         44.3901
252.96        43.18356
253.42        36.50271
253.88        26.18669
254.33        16.42271
254.79        13.87742
255.25        20.15635
255.70        29.85768
256.16        38.92119
256.62        45.62232
257.07        49.19414
257.53        50.79526
257.99        51.28982
258.44        50.83613
258.90        50.12091
259.35        48.93655
259.81        47.67629
260.27          46.437
260.72        45.43671
261.18        44.89507
261.63        44.45121
262.09        44.02337
262.55         43.2043
263.00        41.95745
263.46        40.60041
263.91        39.22411
264.37        38.29755
264.83        37.77155
265.28        37.44877
265.74        37.20753
266.19        36.73613
266.65        36.03845
267.11        35.18578
267.56        34.23674
268.02        33.35698
268.47        32.55227
268.93        31.79467
269.38         31.0643
269.84        30.39222
270.30        29.76001
270.75        29.17108
271.21        28.58802
271.66        27.88731
272.12         27.0854
272.57        26.21241
273.03        25.38034
273.48        24.72526
273.94        24.28468
274.39        23.98338
274.85        23.76024
275.31        23.46403
275.76        23.05758
276.22        22.61968
276.67        22.18888
277.13        21.87928
277.58         21.6746
278.04        21.54051
278.49        21.41028
278.95        21.25618
279.40        21.02985
279.86        20.77623
280.31        20.45709
280.77        20.08354
281.22        19.64682
281.68        19.20697
282.13        18.78113
282.59        18.45784
283.04        18.23005
283.50        18.08295
283.95         18.0115
284.41        18.02234
284.86        18.09644
285.32        18.24399
285.77        18.38129
286.22        18.39219
286.68        18.29177
287.13        18.09053
287.59        17.95891
288.04        18.05572
288.50        18.36944
288.95        18.95694
289.41        19.70474
289.86        19.94329
290.32        19.54841
290.77        20.60154
291.22        19.76726
291.68         19.9088
292.13        20.07241
292.59        20.32787
293.04         20.6901
293.50         21.2582
293.95         22.0591
294.40        23.04457
294.86        24.14327
295.31        25.22181
295.77        26.24254
296.22         27.2304
296.68        28.23212
297.13        29.32007
297.58        30.52893
298.04        31.83161
298.49        33.22396
298.95        34.72009
299.40        36.28727
299.85        37.92131
300.31         39.5565
300.76        41.07328
301.21         42.4609
301.67        43.77456
302.12        45.07937
302.58         46.5677
303.03        48.25185
303.48        50.12215
303.94        52.09468
304.39        53.99171
304.84        55.77098
305.30        57.48069
305.75        59.15638
306.20        60.95163
306.66        62.87195
307.11        64.80323
307.57        66.64876
308.02        68.20897
308.47        69.47436
308.93        70.56493
309.38        71.53361
309.83        72.49003
310.29        73.57702
310.74        74.65682
311.19        75.77085
311.65        76.92436
312.10        78.08542
312.55        79.26189
313.00        80.36795
313.46         81.2654
313.91        81.91795
314.36        82.37073
314.82        82.74698
315.27        83.24381
315.72        83.91245
316.18        84.69697
316.63        85.49123
317.08        86.12328
317.53        86.54419
317.99        86.80884
318.44        86.99413
318.89        87.20695
319.35        87.48451
319.80        87.80113
320.25         88.1257
320.70        88.41589
321.16        88.64999
321.61        88.85944
322.06        89.06458
322.51        89.30051
322.97        89.55938
323.42        89.85328
323.87        90.13113
324.32         90.3291
324.78        90.41781
325.23        90.45303
325.68        90.46874
326.13        90.54715
326.59        90.69008
327.04        90.91988
327.49         91.1861
327.94        91.43168
328.39        91.63919
328.85        91.80648
329.30        91.99567
329.75        92.19473
330.20        92.41099
330.66        92.60179
331.11        92.84496
331.56        93.15595
332.01        93.53838
332.46        93.98354
332.92        94.39244
333.37        94.72118
333.82        94.90934
334.27        94.98863
334.72        95.04846
335.17        95.24145
335.63        95.58259
336.08        96.08087
336.53        96.63573
336.98        97.11789
337.43        97.48193
337.88        97.76041
338.34        97.97237
338.79        98.20213
339.24        98.45216
339.69        98.69787
340.14        98.92767
340.59        99.13095
341.05         99.3127
341.50        99.50079
341.95        99.70342
342.40        99.93008
342.85        100.1888
343.30        100.4748
343.75        100.7953
344.20        101.1681
344.66        101.5879
345.11        102.0119
345.56        102.4046
346.01          102.71
346.46        102.9121
346.91        103.0303
347.36        103.0579
347.81        102.9993
348.26        102.8752
348.72        102.6734
349.17        102.5013
349.62        102.4421
350.07        102.5272
350.52        102.7148
350.97         102.901
351.42        102.9111
351.87        102.7002
352.32         102.325
352.77        101.8646
353.22        101.4397
353.67        101.0908
354.13        100.8002
354.58         100.523
355.03        100.2409
355.48        99.94272
355.93          99.638
356.38        99.33478
356.83        99.03801
357.28        98.73409
357.73        98.40275
358.18        98.00447
358.63        97.48856
359.08        96.85449
359.53        96.13187
359.98        95.36512
360.43        94.61637
360.88        93.90441
361.33        93.21473
361.78        92.54865
362.23          91.904
362.68        91.27997
363.13        90.68872
363.58        90.09624
364.03        89.44551
364.48        88.72441
364.93        87.93574
365.38        87.14768
365.83        86.47639
366.28        85.93894
366.73        85.49812
367.18        85.04577
367.63          84.411
368.08        83.56587
368.53        82.57637
368.98        81.55756
369.43        80.67658
369.88        79.97326
370.33        79.39724
370.78        78.88042
371.23        78.31748
371.68        77.68454
372.13        77.02647
372.58        76.39698
373.03        75.86204
373.48        75.43218
373.93        75.07809
374.38        74.75052
374.83        74.38381
375.28        73.96115
375.72        73.48367
376.17        73.01735
376.62        72.60595
377.07        72.24452
377.52        71.90273
377.97        71.51958
378.42        71.01216
378.87        70.38448
379.32        69.69088
379.77         69.0029
380.22        68.40334
380.67        67.90054
381.11        67.46585
381.56        67.06843
382.01        66.67316
382.46        66.27713
382.91        65.90646
383.36        65.54707
383.81        65.17201
384.26        64.77738
384.71         64.3585
385.15        63.95279
385.60        63.68168
386.05        63.53079
386.50        63.46257
386.95        63.37828
387.40        63.12875
387.85        62.69999
388.29        62.12326
388.74        61.57571
389.19        61.13802
389.64        60.82855
390.09        60.60173
390.54        60.42748
390.98        60.24811
391.43        60.07975
391.88         59.9327
392.33        59.79583
392.78        59.65701
393.23        59.51619
393.67        59.31661
394.12        59.14731
394.57        59.05943
395.02        59.02287
395.47        58.88979
395.91        58.67633
396.36        58.50429
396.81        58.40196
397.26         58.3275
397.71        58.22369
398.15        58.04541
398.60        57.85481
399.05        57.48556
399.50        57.09555
399.95         57.1672
400.39        57.57149
400.84         57.6559
401.29        57.35475
401.74        56.84308
402.18        56.31468
402.63        56.24831
403.08        56.55621
403.53         56.5145
403.97        56.08508
404.42        55.76297
404.87        55.60639
405.32        55.49884
405.76        55.44049
406.21        55.44244
406.66        55.46608
407.11        55.47773
407.55         55.4356
408.00        55.30498
408.45        55.11351
408.90        54.73042
409.34          54.322
409.79        54.45919
410.24        54.98608
410.68        55.16248
411.13        54.93249
411.58        54.69572
412.03        54.53926
412.47        54.44631
412.92        54.43496
413.37        54.51805
413.81        54.62435
414.26        54.69302
414.71        54.69117
415.15         54.6468
415.60        54.57853
416.05        54.56722
416.49        54.62966
416.94        54.72453
417.39        54.80349
417.83        54.79076
418.28        54.67488
418.73        54.48404
419.17        54.26607
419.62         54.1098
420.07        54.04488
420.51        54.04436
420.96        54.10112
421.41        54.17471
421.85        54.22762
422.30         54.2647
422.74        54.27949
423.19         54.4312
423.64        54.67411
424.08        54.82283
424.53        54.80757
424.98        54.82487
425.42        54.89622
425.87        54.81316
426.31        54.66981
426.76        54.83701
427.21        55.26084
427.65        55.50291
428.10        55.48318
428.54        55.48527
428.99        55.53625
429.44        55.47525
429.88        55.32359
430.33        55.23261
430.77        55.19939
431.22        55.33228
431.66        55.58223
432.11        55.82055
432.56        55.99191
433.00        56.02571
433.45        55.82424
433.89        55.58658
434.34        55.45402
434.78        55.09154
435.23          55.353
435.67        55.49826
436.12        56.15927
436.57        56.15415
437.01        55.80235
437.46         55.5233
437.90        55.91772
438.35        56.47036
438.79        56.40429
439.24         56.5808
439.68        56.73853
440.13        56.81227
440.57          56.799
441.02        56.93008
441.46        57.14191
441.91        57.00655
442.35        56.64167
442.80        56.85571
443.24        57.50404
443.69        57.77175
444.13        57.58343
444.58        57.43069
445.02        57.36817
445.47        57.41247
445.91        57.52737
446.36        57.56669
446.80        57.52066
447.24        57.47428
447.69        57.47357
448.13        57.68105
448.58        57.88331
449.02          57.932
449.47        57.79538
449.91        57.73452
450.36        57.77761
450.80          57.703
451.25        57.55313
451.69        57.54023
452.13        57.62825
452.58        57.51744
453.02        57.25192
453.47        57.15418
453.91        57.23278
454.36        57.33784
454.80        57.39337
455.24        57.35773
455.69        57.23046
456.13        56.95868
456.58        56.68819
457.02        56.58645
457.46        56.85331
457.91        56.82196
458.35        56.65015
458.79        56.53688
459.24        56.52866
459.68        56.42072
460.13        56.27353
460.57        56.14008
461.01         56.0395
461.46        55.96998
461.90        56.18859
462.34        55.76068
462.79        55.97579
463.23        55.96745
463.68        56.06094
464.12        55.89928
464.56        55.58445
465.01        55.80875
465.45        56.34118
465.89        56.35927
466.34        55.94434
466.78        55.79143
467.22        55.88805
467.67        55.94361
468.11        55.32148
468.55        55.25652
468.99        55.50779
469.44        55.57491
469.88        55.42973
470.32        55.32921
470.77        55.30537
471.21        55.27752
471.65        55.24928
472.10        55.24104
472.54        55.21553
472.98         55.1457
473.42        55.03794
473.87         54.8866
474.31        54.71516
474.75        54.72628
475.20        54.87203
475.64        54.88647
476.08         54.7878
476.52        54.79527
476.97        54.89355
477.41         55.0925
477.85        55.13068
478.29         55.0612
478.74        54.59851
479.18        54.41171
479.62        54.68832
480.06        54.75626
480.50        54.74514
480.95        54.69233
481.39        54.50723
481.83        55.19477
482.27        55.30012
482.72        54.91517
483.16        55.25057
483.60         55.5326
484.04        55.52608
484.48        55.11797
484.93        54.81803
485.37        54.89078
485.81        54.89077
486.25        54.59607
486.69        55.35031
487.14        55.03216
487.58        54.65963
488.02        54.79721
488.46        54.74171
488.90        54.53011
489.34        54.77419
489.79        54.41027
490.23        54.92269
490.67        54.88007
491.11        54.71113
491.55        54.67254
491.99        54.77378
492.43        54.80308
492.88        54.74321
493.32        54.73185
493.76        54.72491
494.20        54.71749
494.64         54.7326
495.08        54.39241
495.52         54.3685
495.96        54.38743
496.41        54.55349
496.85         54.5727
497.29        54.42663
497.73        54.39485
498.17        54.24908
498.61        54.53975
499.05        55.01329
499.49        54.91708
499.93        54.37985
500.37        54.20916
500.82        54.42666
501.26        54.69951
501.70        54.88298
502.14        54.48456
502.58        54.08585
503.02        53.75984
503.46         53.9732
503.90         54.1142
504.34          54.184
504.78        54.22757
505.22         54.2374
505.66        54.12536
506.10        53.93341
506.54        53.94029
506.98        54.20538
507.42        53.78957
507.86        54.44961
508.30         54.1685
508.74        54.36817
509.18        54.27822
509.62         54.2075
510.06        54.18613
510.50        54.19898
510.94        54.17598
511.38        54.10134
511.82        54.03992
512.26        53.99131
512.70        53.92127
513.14        53.84513
513.58        53.80314
514.02        53.79936
514.46        53.81994
514.90         53.8291
515.34        53.81843
515.78        53.78922
516.22        53.69719
516.66        53.42629
517.10        53.69012
517.54        53.46034
517.98        53.54032
518.42        53.61666
518.86        53.70696
519.30        53.79839
519.74        53.86229
520.18         53.9125
520.62        54.03144
521.06        54.17688
521.50        54.14691
521.93        53.97341
522.37        53.88354
522.81        53.89827
523.25        53.90324
523.69        53.86937
524.13        53.79925
524.57        53.69137
525.01        53.55416
525.45        53.43414
525.89        53.40197
526.32        53.46793
526.76        53.61108
527.20        53.77942
527.64        53.89202
528.08        53.92454
528.52        53.90033
528.96        53.84708
529.40        53.80421
529.83        53.78169
530.27         53.7881
530.71        53.80051
531.15        53.78194
531.59         53.7287
532.03        53.66673
532.46        53.60112
532.90        53.54788
533.34        53.51048
533.78        53.48318
534.22        53.47746
534.66        53.51192
535.09        53.57519
535.53        53.67435
535.97        53.76519
536.41        53.79383
536.85        53.74958
537.28        53.64834
537.72        53.52644
538.16        53.44609
538.60        53.42415
539.04        53.44431
539.47        53.46896
539.91        53.48482
540.35        53.46991
540.79        53.43591
541.22        53.38725
541.66         53.3723
542.10        53.40005
542.54        53.40211
542.97        53.34884
543.41        53.52305
543.85        53.43819
544.29        53.48936
544.72        53.52687
545.16        53.58432
545.60         53.6424
546.04        53.67231
546.47        53.69813
546.91        53.75959
547.35        53.82915
547.79        53.91157
548.22        53.93429
548.66        53.69989
549.10        53.31845
549.53        53.21684
549.97        53.40047
550.41        53.48026
550.84        53.43978
551.28        53.51778
551.72        53.68297
552.15        53.77585
552.59        53.79343
553.03        53.70988
553.46        53.65094
553.90        53.55827
554.34        53.47383
554.77        53.38454
555.21        53.32978
555.65        53.35909
556.08        53.46685
556.52        53.63754
556.96        53.81484
557.39        53.95369
557.83        54.02857
558.27        53.96742
558.70        53.81456
559.14        53.71712
559.57        53.69022
560.01        53.72357
560.45        53.74924
560.88        53.67092
561.32        53.54541
561.75         53.3516
562.19        53.20288
562.63        53.37886
563.06        53.76638
563.50        53.80585
563.93        53.51744
564.37        53.44068
564.80        53.57494
565.24        53.67736
565.68        53.71896
566.11        53.73958
566.55        53.74639
566.98        53.76853
567.42        53.82764
567.85        53.73338
568.29        53.70815
568.72        53.72753
569.16        53.85704
569.60        53.84844
570.03        53.86921
570.47        53.85006
570.90        53.80913
571.34        53.85354
571.77        54.04344
572.21        53.90765
572.64        53.84827
573.08         53.9287
573.51        54.03529
573.95        54.34891
574.38        54.00798
574.82        54.23236
