SpectraSmart Spectrum 2.9.0.0
--------- Device Information -----------
Spectrum Name :  反射率_0
Saving Time :  2024/04/21 00:22:41
Spectro-Module Model Name : SE2030-DUVN
Spectro-Module Serial Number : OS361AC55029948
Wavelength Start : 200
Wavelength End : 1025
Wavelength Unit : Wavelength(nm)
Spectrum Unit : Reflectance(%)
-----------Spectrum Setting ------------
Integration Time : 20ms
Average : 10
Boxcar : 0
Background removal :  enabled
linearity correction :  enabled
SC :  disabled
Intensity correction :  disabled
DWT denoise :  enabled
savitzky-golay :  disabled
FFT :  disabled
Running average :  disabled
Kalman :  disabled
High pass :  disabled
---------------BEGIN--------------------
Wavelength(nm)             Reflectance(%)
200.29               0
200.75       -61.65666
201.21       -10.53534
201.67        18.67854
202.13        31.17937
202.58        34.44137
203.04        33.42594
203.50        29.47909
203.96        25.42397
204.42        22.85478
204.88        19.66081
205.34        16.98675
205.80        16.26877
206.26        17.98952
206.72        25.43365
207.18        33.06218
207.64        26.11492
208.10       0.9849246
208.55        -37.1944
209.01       -59.96954
209.47       -34.90403
209.93         6.44723
210.39        40.45527
210.85        62.06519
211.31         70.8613
211.77        70.04366
212.23        60.56277
212.69        38.22349
213.14      -0.6170042
213.60       -62.75709
214.06       -220.0529
214.52       -531.4185
214.98       -201.5918
215.44        -29.6303
215.90        25.04175
216.36        42.78873
216.81         45.1271
217.27        35.80147
217.73       -15.97593
218.19        618.1713
218.65        284.7001
219.11       -538.3216
219.57        3.711739
220.02        38.56403
220.48        45.19043
220.94        42.92541
221.40        31.85689
221.86        5.106328
222.32       -10.26244
222.77         16.0231
223.23        37.56634
223.69        47.80729
224.15        50.42644
224.61        48.92076
225.06        45.37175
225.52        40.64329
225.98        35.78403
226.44        31.59853
226.90        27.07257
227.36        24.81716
227.81        29.00348
228.27        36.69092
228.73        44.31168
229.19        49.06733
229.65        49.45583
230.10        46.11355
230.56        40.20629
231.02        32.54659
231.48        26.94145
231.93        26.46125
232.39        29.88478
232.85        34.37778
233.31        37.45469
233.77        39.16474
234.22        40.70697
234.68        41.80153
235.14        41.78077
235.60         40.7228
236.05         38.0323
236.51        34.55703
236.97        37.15778
237.43        46.62854
237.88        53.98894
238.34        55.63883
238.80        72.43614
239.26        64.31285
239.71        60.02698
240.17        49.11686
240.63         37.8344
241.08        31.52636
241.54        33.77374
242.00        44.53242
242.46        52.55376
242.91        54.92664
243.37        53.09277
243.83        48.75752
244.28        47.93786
244.74        53.29487
245.20        60.44432
245.66        65.12282
246.11        63.62326
246.57        55.72107
247.03        42.89933
247.48        26.93717
247.94        10.55873
248.40       -8.382443
248.85       -45.41935
249.31       -146.7032
249.77       -216.5391
250.22       -59.19703
250.68        4.442093
251.14        25.36838
251.59        33.21591
252.05        37.03822
252.51        39.35384
252.96        40.93315
253.42        43.82634
253.88        48.00386
254.33        52.27992
254.79        56.42441
255.25        59.07458
255.70        60.33567
256.16        61.10575
256.62        61.97274
257.07        63.34758
257.53        65.30194
257.99         67.1382
258.44        67.96669
258.90        67.74225
259.35        66.20976
259.81        64.32924
260.27        62.41776
260.72        60.90522
261.18        60.13123
261.63        59.52836
262.09        59.02566
262.55        58.10276
263.00        56.69451
263.46         55.2016
263.91        53.72013
264.37        52.82597
264.83        52.43538
265.28        52.28514
265.74        52.20879
266.19        51.76329
266.65        50.96399
267.11        49.89739
267.56        48.67711
268.02        47.57682
268.47        46.61021
268.93        45.72467
269.38        44.83342
269.84        43.87973
270.30        42.83207
270.75        41.73994
271.21        40.64442
271.66        39.52306
272.12        38.43023
272.57        37.35853
273.03        36.38851
273.48        35.58192
273.94         34.9673
274.39        34.48206
274.85        34.08628
275.31        33.64376
275.76        33.11276
276.22        32.55973
276.67        32.01049
277.13        31.59626
277.58        31.28001
278.04        31.03889
278.49        30.76354
278.95        30.39636
279.40        29.88031
279.86        29.29551
280.31        28.64341
280.77        28.01695
281.22        27.41372
281.68        26.88254
282.13        26.39549
282.59        25.99334
283.04         25.6491
283.50        25.37293
283.95        25.17597
284.41        25.10563
284.86        25.13864
285.32        25.26688
285.77        25.37587
286.22        25.32416
286.68        25.11466
287.13        24.75516
287.59        24.42387
288.04        24.28391
288.50         24.3434
288.95        24.65768
289.41        25.11682
289.86        25.07374
290.32        24.42132
290.77        25.12828
291.22        24.10439
291.68        24.11839
292.13        24.27257
292.59        24.60793
293.04        25.07046
293.50        25.65002
293.95        26.34496
294.40        27.13752
294.86        28.01074
295.31        28.92448
295.77        29.86082
296.22        30.80147
296.68        31.75634
297.13        32.73942
297.58         33.7684
298.04        34.84542
298.49        35.96313
298.95         37.1302
299.40        38.33134
299.85         39.5734
300.31        40.85418
300.76        42.14789
301.21        43.45776
301.67        44.81263
302.12        46.20386
302.58        47.70945
303.03        49.32048
303.48        51.06979
303.94        52.93776
304.39        54.84371
304.84        56.77378
305.30        58.74831
305.75        60.76765
306.20        62.93399
306.66        65.23911
307.11        67.58347
307.57        69.89323
308.02        71.99874
308.47        73.89642
308.93        75.68931
309.38        77.40085
309.83        79.11102
310.29        80.93229
310.74        82.75245
311.19        84.62125
311.65        86.57172
312.10        88.56935
312.55        90.59441
313.00        92.54833
313.46        94.27631
313.91        95.72314
314.36        96.93774
314.82        98.00922
315.27         99.0808
315.72        100.2113
316.18        101.3661
316.63        102.5168
317.08         103.615
317.53        104.6313
317.99         105.574
318.44        106.4368
318.89        107.1901
319.35        107.8296
319.80        108.3734
320.25        108.8269
320.70        109.2105
321.16        109.5341
321.61        109.8191
322.06        110.1058
322.51        110.4641
322.97        110.8885
323.42        111.3979
323.87        111.9122
324.32         112.313
324.78        112.5482
325.23        112.6911
325.68        112.7857
326.13        112.9405
326.59        113.1675
327.04        113.5021
327.49         113.885
327.94        114.2541
328.39        114.5884
328.85        114.8678
329.30        115.2031
329.75        115.6314
330.20        116.1603
330.66        116.7264
331.11        117.3098
331.56        117.7321
332.01        117.9651
332.46         118.056
332.92        118.0775
333.37        118.3121
333.82        118.7764
334.27        119.4195
334.72        120.1558
335.17        120.8383
335.63        121.3776
336.08        121.8708
336.53        122.3251
336.98        122.8078
337.43        123.3362
337.88         123.881
338.34        124.3717
338.79        124.7677
339.24        125.0375
339.69        125.2213
340.14        125.4007
340.59        125.7015
341.05         126.153
341.50        126.7201
341.95         127.339
342.40        127.9075
342.85        128.3825
343.30        128.7859
343.75         129.117
344.20        129.3812
344.66        129.6008
345.11         129.758
345.56        129.8863
346.01        130.0428
346.46        130.2515
346.91        130.4757
347.36        130.6856
347.81        130.9287
348.26        131.2083
348.72         131.155
349.17         131.421
349.62        131.4966
350.07        131.5837
350.52        131.6567
350.97        131.6878
351.42        131.6264
351.87        131.4533
352.32        131.1805
352.77        130.8582
353.22        130.5604
353.67           130.3
354.13         130.081
354.58        129.7956
355.03        129.3285
355.48        128.6706
355.93        127.8707
356.38        127.0709
356.83        126.4809
357.28        126.1284
357.73        125.9383
358.18        125.7468
358.63        125.2937
359.08        124.5241
359.53        123.5324
359.98        122.4612
360.43        121.5256
360.88        120.7785
361.33        120.1439
361.78        119.5524
362.23        118.8963
362.68        118.1449
363.13        117.3521
363.58        116.5202
364.03        115.6449
364.48        114.7334
364.93        113.7684
365.38        112.8162
365.83        111.9935
366.28        111.3128
366.73        110.7408
367.18        110.1552
367.63        109.3577
368.08        108.3195
368.53        107.1208
368.98        105.8918
369.43        104.8213
369.88        103.9553
370.33         103.232
370.78        102.5913
371.23        101.9448
371.68        101.2622
372.13         100.573
372.58        99.89185
373.03        99.22332
373.48        98.56276
373.93        97.90073
374.38        97.21684
374.83        96.49861
375.28        95.76198
375.72        95.00455
376.17        94.31401
376.62        93.72746
377.07        93.23512
377.52        92.80482
377.97         92.3776
378.42        91.87231
378.87        91.28067
379.32        90.64051
379.77        89.99152
380.22        89.37479
380.67        88.79163
381.11        88.22978
381.56        87.67338
382.01        87.12688
382.46        86.60613
382.91         86.1283
383.36        85.68916
383.81        85.27354
384.26        84.87183
384.71        84.47568
385.15        84.08481
385.60        83.77014
386.05        83.50502
386.50        83.26941
386.95         83.0034
387.40        82.62421
387.85        82.13565
388.29        81.53343
388.74        80.99183
389.19        80.53799
389.64        80.17465
390.09        79.86165
390.54        79.57964
390.98        79.28476
391.43        79.01118
391.88        78.76908
392.33        78.53342
392.78        78.25182
393.23        77.92418
393.67        77.53417
394.12        77.24402
394.57        76.97682
395.02         77.0292
395.47        76.93904
395.91        76.77079
396.36        76.58517
396.81        76.39242
397.26        76.15228
397.71        75.86306
398.15         75.5472
398.60        75.30028
399.05        74.98045
399.50        74.68111
399.95        74.67608
400.39         74.8924
400.84        74.95131
401.29          74.782
401.74        74.38786
402.18        73.88593
402.63        73.62489
403.08        73.59061
403.53        73.38285
403.97        72.99252
404.42        72.71891
404.87        72.57826
405.32        72.46091
405.76        72.35324
406.21        72.32471
406.66        72.31251
407.11        72.18389
407.55        71.96246
408.00        71.71582
408.45        71.51792
408.90        71.39135
409.34        71.31834
409.79        71.32536
410.24        71.23482
410.68        71.14047
411.13        70.99701
411.58        70.77466
412.03        70.54859
412.47        70.50531
412.92        70.64831
413.37        70.92061
413.81        71.20193
414.26        71.37799
414.71        71.39449
415.15        71.30298
415.60        71.12473
416.05        70.96569
416.49        70.86531
416.94        70.78928
417.39        70.71778
417.83        70.60902
418.28        70.46103
418.73        70.29823
419.17        70.14355
419.62        70.03626
420.07        69.98542
420.51        69.96698
420.96        69.99577
421.41        70.03251
421.85         70.0349
422.30        70.08275
422.74        70.13151
423.19        70.15399
423.64        70.16537
424.08        70.35706
424.53         70.6068
424.98        70.70265
425.42        70.63359
425.87        70.40525
426.31        70.15376
426.76        70.22196
427.21         70.5621
427.65        70.71667
428.10        70.60229
428.54        70.56557
428.99        70.62822
429.44        70.51041
429.88        70.28465
430.33        70.28078
430.77        70.40164
431.22        70.66628
431.66        70.92525
432.11        70.74637
432.56        70.28331
433.00        70.10977
433.45        70.11592
433.89        70.36008
434.34        70.85304
434.78        69.75707
435.23        69.82719
435.67        70.43185
436.12        70.81504
436.57         71.1475
437.01        70.55626
437.46        70.29163
437.90        70.95241
438.35        71.06091
438.79        71.25082
439.24        71.22099
439.68        71.12083
440.13        70.87351
440.57        70.60806
441.02        70.63269
441.46        70.90582
441.91        71.22735
442.35        71.39747
442.80        71.56319
443.24         71.6872
443.69        71.70351
444.13        71.55863
444.58        71.74084
445.02        71.17805
445.47        71.29191
445.91         71.6425
446.36         71.7422
446.80        71.54648
447.24          71.283
447.69        71.07194
448.13        71.17799
448.58        71.36485
449.02        71.41508
449.47        71.28076
449.91        71.28455
450.36        71.44252
450.80         71.4726
451.25        71.39399
451.69        71.41661
452.13        71.49024
452.58        71.27131
453.02        70.82792
453.47        70.58472
453.91        70.55869
454.36        70.54544
454.80        70.50787
455.24        70.45637
455.69        70.36479
456.13        70.31424
456.58        70.32782
457.02        70.17161
457.46        69.45776
457.91        70.02959
458.35        69.71494
458.79        69.83597
459.24        69.79398
459.68        69.83376
460.13        69.94568
460.57        69.82828
461.01        69.42158
461.46         69.4556
461.90        68.92043
462.34        68.69242
462.79        68.62057
463.23        68.75332
463.68        68.99866
464.12        68.74941
464.56        68.16534
465.01        68.34492
465.45        69.01157
465.89        69.00758
466.34        68.44851
466.78         68.1643
467.22        68.19373
467.67         68.4502
468.11        68.12971
468.55        67.98452
468.99        67.81195
469.44        67.68646
469.88        67.61132
470.32        67.51639
470.77        67.40852
471.21        67.32462
471.65        67.26483
472.10        67.22166
472.54        67.16975
472.98        67.10007
473.42        67.02743
473.87        66.93441
474.31        66.79898
474.75        66.81529
475.20        67.01196
475.64        66.75352
476.08        67.07749
476.52        67.01558
476.97        66.85134
477.41        66.73381
477.85        66.68984
478.29         66.2598
478.74        66.09387
479.18        66.03267
479.62        66.33984
480.06        66.45003
480.50        66.36733
480.95        66.42506
481.39        66.60009
481.83        66.41656
482.27        66.70834
482.72        66.64034
483.16        66.50771
483.60        66.83573
484.04        66.75013
484.48         66.4898
484.93        66.61001
485.37        66.05084
485.81        66.73335
486.25        66.36976
486.69        67.88668
487.14        68.02905
487.58        67.03419
488.02        66.33743
488.46        66.04416
488.90        66.19193
489.34        65.92881
489.79        65.36122
490.23        66.02668
490.67        66.19892
491.11        66.33224
491.55        66.23064
491.99        65.98618
492.43        65.82581
492.88        65.74879
493.32        65.90433
493.76        65.74036
494.20        65.71416
494.64        65.69366
495.08        65.39452
495.52        65.34655
495.96        65.35627
496.41          65.511
496.85        65.63267
497.29        65.62232
497.73        65.63117
498.17        65.34942
498.61        65.36723
499.05         65.5462
499.49         65.4304
499.93         65.1275
500.37        65.21132
500.82        65.58686
501.26        65.79999
501.70        65.76535
502.14        65.24249
502.58        64.90157
503.02         64.6881
503.46        64.75155
503.90         64.9464
504.34        65.15514
504.78        65.28586
505.22        65.29728
505.66        65.18835
506.10        65.01522
506.54        64.93487
506.98        64.98168
507.42        64.74165
507.86        65.10254
508.30        64.76553
508.74        64.96412
509.18        64.88663
509.62        64.82946
510.06        64.78944
510.50        64.74815
510.94        64.62512
511.38         64.4421
511.82         64.3343
512.26         64.3125
512.70        64.31676
513.14        64.32539
513.58        64.32249
514.02         64.2972
514.46        64.25587
514.90        64.19833
515.34        64.15694
515.78         64.1417
516.22         64.1265
516.66        63.95514
517.10          64.189
517.54        64.00966
517.98        64.05093
518.42        64.07057
518.86        64.08848
519.30        64.10052
519.74        64.06617
520.18        64.01668
520.62         64.0817
521.06        64.21855
521.50        64.19159
521.93        64.01458
522.37        63.91416
522.81        63.90778
523.25        63.86783
523.69        63.80368
524.13        63.78904
524.57        63.82588
525.01        63.89075
525.45        63.96751
525.89        64.03017
526.32        64.06653
526.76        64.08746
527.20        64.09048
527.64         64.0841
528.08        64.07283
528.52         64.0337
528.96        63.97802
529.40        63.97437
529.83        63.99601
530.27        63.94247
530.71        63.82578
531.15         63.7767
531.59         63.8014
532.03        63.82372
532.46        63.82828
532.90        63.83953
533.34        63.84814
533.78         63.8527
534.22        63.83903
534.66        63.78627
535.09        63.68661
535.53        63.56742
535.97        63.45559
536.41        63.41085
536.85        63.44249
537.28        63.53313
537.72        63.63396
538.16        63.66517
538.60        63.60923
539.04        63.49631
539.47        63.35767
539.91        63.29367
540.35        63.30625
540.79         63.3705
541.22        63.45578
541.66         63.5288
542.10        63.56823
542.54        63.58177
542.97        63.57008
543.41        63.56552
543.85        63.57191
544.29        63.59599
544.72        63.60727
545.16        63.61777
545.60        63.61442
546.04         63.5178
546.47        63.40176
546.91        63.53317
547.35        63.82726
547.79        63.94857
548.22        63.83284
548.66        63.57323
549.10         63.2753
549.53        63.17871
549.97         63.2819
550.41         63.2834
550.84        63.17122
551.28         63.1664
551.72         63.2748
552.15        63.36092
552.59        63.40496
553.03        63.56588
553.46        63.50164
553.90        63.50716
554.34        63.47718
554.77        63.39131
555.21        63.29506
555.65        63.25873
556.08        63.28587
556.52         63.3882
556.96        63.51226
557.39        63.54136
557.83        63.49679
558.27        63.48326
558.70        63.50106
559.14        63.48491
559.57        63.43063
560.01        63.41454
560.45         63.4157
560.88        63.41564
561.32        63.45098
561.75        63.37438
562.19        63.27134
562.63        63.41971
563.06        63.71195
563.50        63.66753
563.93        63.31852
564.37        63.10242
564.80        63.06982
565.24        63.20889
565.68        63.44068
566.11        63.53924
566.55         63.5006
566.98        63.47475
567.42        63.47548
567.85        63.42657
568.29        63.42115
568.72        63.40163
569.16        63.36818
569.60         63.9076
570.03        63.61286
570.47        63.82625
570.90        64.08638
571.34        63.86295
571.77        64.04657
572.21        63.94348
572.64        64.12494
573.08        64.06895
573.51        64.22749
573.95        64.37851
574.38        64.23603
574.82        64.67679
