SpectraSmart Spectrum 2.9.0.0
--------- Device Information -----------
Spectrum Name :  反射率_0
Saving Time :  2024/04/21 00:08:16
Spectro-Module Model Name : SE2030-DUVN
Spectro-Module Serial Number : OS361AC55029948
Wavelength Start : 200
Wavelength End : 1025
Wavelength Unit : Wavelength(nm)
Spectrum Unit : Reflectance(%)
-----------Spectrum Setting ------------
Integration Time : 20ms
Average : 10
Boxcar : 0
Background removal :  enabled
linearity correction :  enabled
SC :  disabled
Intensity correction :  disabled
DWT denoise :  enabled
savitzky-golay :  disabled
FFT :  disabled
Running average :  disabled
Kalman :  disabled
High pass :  disabled
---------------BEGIN--------------------
Wavelength(nm)             Reflectance(%)
200.29               0
200.75       -127.9692
201.21       -42.46994
201.67        3.440713
202.13         21.3908
202.58        23.96612
203.04        17.98918
203.50        6.406366
203.96       -3.070893
204.42       -6.239321
204.88       -7.053023
205.34       -6.582329
205.80       -6.700387
206.26       -8.166345
206.72       -6.454835
207.18       -7.853094
207.64       -27.86029
208.10       -67.40668
208.55       -120.0484
209.01       -146.1811
209.47       -104.2121
209.93       -41.95618
210.39        8.082258
210.85        39.92246
211.31        53.85215
211.77        55.07063
212.23        45.91533
212.69        21.53197
213.14       -23.65208
213.60       -100.9627
214.06       -314.3752
214.52       -770.9569
214.98         -324.03
215.44       -75.45775
215.90        5.692898
216.36        31.52498
216.81        32.13597
217.27        10.39263
217.73       -99.41813
218.19        1223.847
218.65        521.7294
219.11       -1143.298
219.57       -49.18732
220.02        20.30612
220.48        32.57568
220.94        25.84615
221.40       -1.187857
221.86       -66.58011
222.32        -109.569
222.77        -51.2295
223.23     -0.09475827
223.69         25.6644
224.15        34.26134
224.61        33.89822
225.06        29.37847
225.52        22.31816
225.98        14.70221
226.44        7.874993
226.90        0.112591
227.36       -4.695918
227.81       0.2612698
228.27        11.00777
228.73        22.32856
229.19        29.71284
229.65        30.77541
230.10        26.53844
230.56        18.60207
231.02        8.569066
231.48        2.511374
231.93        4.420962
232.39         11.6799
232.85        19.42902
233.31        23.71514
233.77        24.82435
234.22        24.54229
234.68        23.35394
235.14        22.06625
235.60        21.40558
236.05        20.28776
236.51         18.9057
236.97         23.7367
237.43        35.00113
237.88        42.41687
238.34        42.12268
238.80        63.32821
239.26        53.94305
239.71        51.90465
240.17        43.72372
240.63        35.65909
241.08        32.08767
241.54        36.03793
242.00        46.64008
242.46        52.67714
242.91        51.02817
243.37        42.12279
243.83        27.82446
244.28        18.04624
244.74        19.61067
245.20         27.4278
245.66         35.1772
246.11        36.72936
246.57        31.22329
247.03        21.01772
247.48        7.542176
247.94       -6.950066
248.40       -24.57729
248.85       -61.84561
249.31       -164.7559
249.77       -222.1881
250.22       -56.70239
250.68        4.907993
251.14        23.76245
251.59        29.80613
252.05        31.48961
252.51        31.48123
252.96        29.24493
253.42        25.45488
253.88        22.69957
254.33        22.53276
254.79        28.55379
255.25        40.50627
255.70        53.08189
256.16        63.35762
256.62        70.32003
257.07        73.71992
257.53        75.07915
257.99        75.13204
258.44        74.06711
258.90        72.79282
259.35        70.98633
259.81        69.22971
260.27        67.48632
260.72        65.85635
261.18        64.75446
261.63        63.76619
262.09        63.01926
262.55        62.13131
263.00        60.98253
263.46        59.87702
263.91        58.74176
264.37        57.97007
264.83        57.46947
265.28        57.07309
265.74        56.74569
266.19        56.18763
266.65        55.43809
267.11        54.50524
267.56        53.44831
268.02        52.46861
268.47        51.54801
268.93         50.6716
269.38        49.72595
269.84        48.61457
270.30        47.31686
270.75        45.89857
271.21        44.49828
271.66        43.24142
272.12        42.20683
272.57        41.33343
273.03        40.59272
273.48        39.87654
273.94        39.17761
274.39        38.47458
274.85        37.81426
275.31        37.18405
275.76        36.57135
276.22        36.01331
276.67        35.45842
277.13        34.93955
277.58        34.41003
278.04         33.8978
278.49        33.38603
278.95        32.95295
279.40        32.54427
279.86        32.18064
280.31        31.75171
280.77        31.19981
281.22        30.49325
281.68        29.74406
282.13        29.00299
282.59        28.43113
283.04        28.02807
283.50         27.7689
283.95        27.62659
284.41         27.5961
284.86        27.64119
285.32        27.78543
285.77        27.92763
286.22        27.94623
286.68        27.84926
287.13        27.62501
287.59        27.45392
288.04        27.50413
288.50        27.77502
288.95        28.29897
289.41         28.9354
289.86        29.01125
290.32        28.42542
290.77        29.06914
291.22        28.05277
291.68        28.05256
292.13         28.2412
292.59        28.65623
293.04        29.25754
293.50        30.05194
293.95        31.03271
294.40        32.17504
294.86        33.43864
295.31        34.74076
295.77        36.04847
296.22        37.34818
296.68        38.64499
297.13        39.95062
297.58         41.2864
298.04         42.6436
298.49        44.04457
298.95        45.54865
299.40        47.13947
299.85        48.81271
300.31        50.49439
300.76        52.03853
301.21        53.43975
301.67        54.77197
302.12        56.12492
302.58         57.7436
303.03        59.63363
303.48        61.76253
303.94        64.00694
304.39        66.11842
304.84        68.04205
305.30        69.85694
305.75        71.60796
306.20        73.48016
306.66        75.50215
307.11        77.54601
307.57        79.55114
308.02        81.35138
308.47        82.94475
308.93        84.43544
309.38        85.82555
309.83           87.18
310.29        88.57986
310.74        89.93672
311.19        91.30726
311.65        92.74879
312.10        94.23177
312.55        95.73053
313.00        97.14464
313.46        98.31578
313.91        99.19489
314.36        99.84863
314.82        100.3683
315.27        100.8916
315.72        101.4821
316.18        102.1082
316.63         102.773
317.08        103.4779
317.53        104.2031
317.99         104.945
318.44        105.6484
318.89        106.2026
319.35        106.5844
319.80        106.8308
320.25        106.9999
320.70        107.2029
321.16        107.4663
321.61        107.7754
322.06        108.1135
322.51        108.4574
322.97        108.7813
323.42        109.1439
323.87         109.499
324.32        109.7844
324.78        109.9717
325.23        110.1048
325.68        110.2487
326.13        110.5501
326.59        111.0055
327.04        111.6253
327.49        112.2554
327.94        112.6713
328.39        112.8197
328.85        112.7403
329.30         112.631
329.75        112.6874
330.20         112.979
330.66        113.3957
331.11        113.9382
331.56        114.4572
332.01         114.902
332.46        115.3194
332.92        115.6328
333.37         115.861
333.82        115.9701
334.27        115.9799
334.72        116.0145
335.17         116.292
335.63        116.8272
336.08        117.6143
336.53        118.5066
336.98        119.2972
337.43        119.9086
337.88        120.3956
338.34          120.74
338.79        120.9877
339.24        121.1486
339.69        121.2184
340.14        121.3076
340.59        121.5981
341.05        122.1261
341.50        122.8611
341.95        123.6688
342.40        124.3194
342.85        124.7428
343.30        124.9879
343.75        125.1554
344.20        125.4182
344.66        125.8277
345.11        126.3098
345.56        126.7668
346.01        127.0505
346.46        127.1429
346.91        127.0813
347.36        126.9683
347.81        127.0408
348.26        127.3465
348.72        127.4974
349.17        127.9658
349.62        128.1503
350.07        128.1882
350.52        128.1082
350.97        127.9523
351.42        127.7795
351.87        127.6073
352.32        127.4139
352.77        127.1983
353.22        126.9606
353.67        126.6947
354.13        126.4238
354.58        126.0967
355.03        125.6814
355.48        125.1829
355.93        124.6243
356.38        124.0565
356.83        123.5559
357.28        123.1257
357.73        122.7215
358.18        122.3043
358.63        121.8156
359.08         121.239
359.53        120.6091
359.98        119.8992
360.43        119.0622
360.88        118.1059
361.33        117.0444
361.78        116.0015
362.23        115.1754
362.68        114.6048
363.13        114.2415
363.58        113.9099
364.03        113.3258
364.48        112.4232
364.93        111.2731
365.38        110.0689
365.83        109.1318
366.28         108.529
366.73        108.1514
367.18        107.7939
367.63         107.131
368.08        106.1033
368.53        104.8549
368.98        103.5589
369.43        102.4618
369.88        101.6344
370.33        100.9865
370.78        100.4791
371.23         100.063
371.68         99.6927
372.13        99.37318
372.58        99.02996
373.03        98.53212
373.48         97.8495
373.93        97.01357
374.38        96.08484
374.83        95.19067
375.28        94.39629
375.72        93.66732
376.17        93.05701
376.62        92.54985
377.07        92.11552
377.52        91.73643
377.97        91.35851
378.42        90.90164
378.87        90.35505
379.32        89.75161
379.77        89.11055
380.22        88.44926
380.67        87.77046
381.11        87.06931
381.56        86.37963
382.01        85.78807
382.46        85.32572
382.91        84.98435
383.36        84.69041
383.81        84.31995
384.26        83.84375
384.71         83.2921
385.15        82.72905
385.60        82.32552
386.05        82.07969
386.50        81.93463
386.95        81.79243
387.40        81.50968
387.85        81.06822
388.29        80.48602
388.74         79.9423
389.19        79.47144
389.64        79.08418
390.09        78.73861
390.54        78.42976
390.98         78.1406
391.43        77.90848
391.88        77.73167
392.33        77.56659
392.78        77.35151
393.23        77.08241
393.67        76.71834
394.12        76.41035
394.57        76.24424
395.02        76.20518
395.47        76.15173
395.91        76.04796
396.36        75.90824
396.81        75.73434
397.26        75.51584
397.71        75.26151
398.15        74.97727
398.60        74.75679
399.05        74.49053
399.50        74.24256
399.95        74.18929
400.39        74.28474
400.84        74.28098
401.29        74.11866
401.74        73.74134
402.18        73.23483
402.63        72.89436
403.08        72.71075
403.53        72.37969
403.97        71.91126
404.42        71.54285
404.87        71.32054
405.32        71.22148
405.76        71.22385
406.21        71.34496
406.66        71.49432
407.11        71.46131
407.55        71.23788
408.00        71.04321
408.45         70.9006
408.90        70.42573
409.34        69.79708
409.79        69.78217
410.24        70.25961
410.68        70.43692
411.13        70.26012
411.58        70.15938
412.03        70.14928
412.47        70.07214
412.92        69.90941
413.37           69.72
413.81        69.53164
414.26        69.44257
414.71        69.44701
415.15        69.53376
415.60        69.62701
416.05        69.65927
416.49        69.60607
416.94        69.47593
417.39        69.30964
417.83        69.16021
418.28        69.04884
418.73        68.96308
419.17        68.87154
419.62         68.7354
420.07        68.54691
420.51        68.31613
420.96        68.12914
421.41        68.03198
421.85        68.00213
422.30        68.14227
422.74         68.3253
423.19        68.29147
423.64        68.07936
424.08        68.16367
424.53        68.46671
424.98        68.57666
425.42        68.48112
425.87         68.3934
426.31        68.37323
426.76        68.40825
427.21        68.49656
427.65        68.63159
428.10        68.72246
428.54        68.70285
428.99        68.60182
429.44        68.43934
429.88        68.23366
430.33        68.09562
430.77        67.99837
431.22        68.00418
431.66        68.06673
432.11        68.19563
432.56        68.36082
433.00        68.26402
433.45        67.78431
433.89        67.65127
434.34        67.99523
434.78        67.34431
435.23        67.28522
435.67        68.13564
436.12        68.06593
436.57        68.30748
437.01        68.26093
437.46        68.17298
437.90        68.78939
438.35        68.65489
438.79        68.96023
439.24        68.91835
439.68        68.85637
440.13        68.59274
440.57        68.24017
441.02        68.43371
441.46        68.99087
441.91        68.87995
442.35        68.24045
442.80        68.43245
443.24        69.28825
443.69        69.56492
444.13        69.18222
444.58        69.10077
445.02        69.03571
445.47        69.05268
445.91        69.04797
446.36        69.04945
446.80        69.04907
447.24        69.08265
447.69        69.16511
448.13        69.37634
448.58        69.49371
449.02        69.55716
449.47        69.51251
449.91        69.47134
450.36        69.45801
450.80        69.31734
451.25        69.12125
451.69        69.10419
452.13        69.22873
452.58         69.1415
453.02        68.84351
453.47        68.67002
453.91        68.62969
454.36        68.44167
454.80        68.32377
455.24        68.20094
455.69        68.15907
456.13        68.10804
456.58         68.0909
457.02        68.07576
457.46        68.19852
457.91          68.066
458.35        67.86287
458.79        67.66136
459.24        67.53579
459.68        67.36958
460.13        67.21811
460.57        67.04805
461.01        66.87114
461.46        66.76995
461.90        66.90538
462.34        66.46934
462.79        66.69021
463.23        66.74826
463.68        66.90565
464.12        66.56055
464.56        65.90108
465.01        66.04449
465.45        66.66936
465.89        66.58904
466.34        65.95066
466.78         65.5444
467.22        65.45972
467.67        66.03907
468.11        66.10246
468.55        66.01526
468.99        65.52223
469.44        65.28358
469.88        65.32314
470.32        65.22131
470.77         64.9976
471.21        64.87958
471.65        64.87614
472.10        64.92397
472.54        64.95754
472.98         64.9072
473.42        64.76601
473.87        64.55895
474.31        64.32123
474.75        64.26334
475.20        64.34445
475.64         64.3391
476.08        64.27396
476.52        64.24899
476.97        64.22239
477.41        64.52128
477.85        64.67456
478.29        64.24918
478.74         64.0713
479.18           63.87
479.62        64.22777
480.06        64.28531
480.50        64.21361
480.95        64.14986
481.39         63.9822
481.83        64.55998
482.27         64.7067
482.72         64.0322
483.16         64.4406
483.60        64.57225
484.04        64.63725
484.48        64.09277
484.93        63.63493
485.37        63.99468
485.81        64.37286
486.25        63.96645
486.69         64.7392
487.14         64.5931
487.58        64.12926
488.02        64.03156
488.46        63.81155
488.90        63.85143
489.34         63.9605
489.79        63.44492
490.23        64.03188
490.67        64.17677
491.11        64.31311
491.55        64.05614
491.99        63.55117
492.43        63.32802
492.88        63.42531
493.32        63.59657
493.76        63.69667
494.20        63.75218
494.64        63.76196
495.08        63.32456
495.52        63.07555
495.96        63.19879
496.41        63.69969
496.85        63.69382
497.29        63.20603
497.73        63.21405
498.17        63.34985
498.61        63.59401
499.05         63.4077
499.49        63.20474
499.93        62.98959
500.37         62.9906
500.82        63.17408
501.26        63.41226
501.70        63.61698
502.14        63.32481
502.58        63.13457
503.02        63.02016
503.46        63.10854
503.90        63.21708
504.34        63.26593
504.78        63.26321
505.22        63.20741
505.66        63.04795
506.10        62.82709
506.54        62.81219
506.98        63.06081
507.42        62.73195
507.86         63.2042
508.30        63.23558
508.74         63.2933
509.18        63.29102
509.62         63.2608
510.06        63.22298
510.50         63.1446
510.94        62.98839
511.38        62.80478
511.82        62.65015
512.26        62.52161
512.70        62.75861
513.14        62.64164
513.58         62.6715
514.02        62.62989
514.46        62.54807
514.90        62.44864
515.34        62.41753
515.78        62.47934
516.22        62.57703
516.66        62.52068
517.10        62.82944
517.54        62.64094
517.98        62.62872
518.42        62.57548
518.86         62.5571
519.30         62.5842
519.74        62.60195
520.18        62.61176
520.62        62.69403
521.06         62.7975
521.50        62.70804
521.93        62.46825
522.37         62.3452
522.81        62.36406
523.25        62.37984
523.69         62.3747
524.13        62.37938
524.57         62.3868
525.01         62.3942
525.45        62.39605
525.89         62.3812
526.32         62.3485
526.76        62.30569
527.20        62.27263
527.64        62.28541
528.08         62.3457
528.52        62.43916
528.96        62.53465
529.40        62.57562
529.83         62.5491
530.27        62.50598
530.71        62.44617
531.15        62.36926
531.59        62.28464
532.03        62.19335
532.46        62.11903
532.90        62.11265
533.34        62.17238
533.78        62.28653
534.22        62.39325
534.66        62.39571
535.09        62.27071
535.53        62.06973
535.97        61.85649
536.41        61.74979
536.85        61.77708
537.28        61.90246
537.72        62.06221
538.16        62.15303
538.60         62.1459
539.04        62.07598
539.47        61.97457
539.91        61.94056
540.35        61.97472
540.79         62.0483
541.22        62.12727
541.66        62.17433
542.10        62.17292
542.54        62.14038
542.97        62.08408
543.41        62.04759
543.85        62.03519
544.29        62.03975
544.72        62.04731
545.16        62.09372
545.60        62.16935
546.04        62.19796
546.47        62.18677
546.91        62.31937
547.35        62.50846
547.79        62.37686
548.22        61.99113
548.66         61.8156
549.10        61.88784
549.53        61.98057
549.97        62.05046
550.41        62.08158
550.84        62.05244
551.28        61.97403
551.72        61.88143
552.15        61.84184
552.59        61.88549
553.03        61.90384
553.46         62.0238
553.90        62.03053
554.34        61.93909
554.77        61.87837
555.21        61.94505
555.65        61.67228
556.08        62.00743
556.52        62.17892
556.96        62.37457
557.39        62.44723
557.83        62.38764
558.27        62.19792
558.70        61.95017
559.14        61.79386
559.57         61.7464
560.01        61.85001
560.45        62.00286
560.88        61.93738
561.32        61.74879
561.75        61.66187
562.19        61.72599
562.63        61.91093
563.06        62.10408
563.50        61.92899
563.93        61.48613
564.37        61.38161
564.80        61.59345
565.24        61.77862
565.68        61.89355
566.11        61.89405
566.55        62.01113
566.98        62.07594
567.42         62.1552
567.85        61.97276
568.29        61.68032
568.72        61.74836
569.16        62.15802
569.60        62.22935
570.03        62.24863
570.47        62.21827
570.90        62.19396
571.34         62.2506
571.77        62.60355
572.21        62.14295
572.64        62.29885
573.08         62.1661
573.51        61.98831
573.95        62.55778
574.38        62.68528
574.82        63.19413
