SpectraSmart Spectrum 2.9.0.0
--------- Device Information -----------
Spectrum Name :  反射率_0
Saving Time :  2024/04/21 00:56:06
Spectro-Module Model Name : SE2030-DUVN
Spectro-Module Serial Number : OS361AC55029948
Wavelength Start : 200
Wavelength End : 1025
Wavelength Unit : Wavelength(nm)
Spectrum Unit : Reflectance(%)
-----------Spectrum Setting ------------
Integration Time : 20ms
Average : 10
Boxcar : 0
Background removal :  enabled
linearity correction :  enabled
SC :  disabled
Intensity correction :  disabled
DWT denoise :  enabled
savitzky-golay :  disabled
FFT :  disabled
Running average :  disabled
Kalman :  disabled
High pass :  disabled
---------------BEGIN--------------------
Wavelength(nm)             Reflectance(%)
200.29               0
200.75        53.98344
201.21        51.51553
201.67        46.52251
202.13         41.5262
202.58          35.999
203.04        29.02902
203.50        21.56419
203.96        18.15033
204.42        20.63136
204.88        26.66412
205.34        34.33431
205.80         41.2144
206.26        47.10808
206.72        54.26354
207.18        58.51628
207.64        50.60353
208.10        28.91971
208.55       -2.709974
209.01       -23.04698
209.47       -6.782046
209.93        22.88406
210.39        47.76052
210.85        63.70814
211.31        70.14456
211.77        69.23915
212.23         61.5658
212.69        42.63892
213.14        5.091263
213.60       -66.72174
214.06       -271.5225
214.52       -738.7458
214.98       -331.4677
215.44       -83.96294
215.90      -0.6734719
216.36        28.04926
216.81        34.55232
217.27          26.562
217.73       -26.95537
218.19        636.5145
218.65        282.5325
219.11       -529.4625
219.57        2.516849
220.02        35.58455
220.48        39.89922
220.94          33.419
221.40        13.35822
221.86       -34.04118
222.32       -67.68729
222.77       -28.47388
223.23        7.702886
223.69         26.4057
224.15        32.91404
224.61        33.14497
225.06        30.64546
225.52        26.61517
225.98        22.41217
226.44        18.89797
226.90        14.70234
227.36        12.50091
227.81        16.74233
228.27        24.42442
228.73         32.0875
229.19        36.67464
229.65        36.27489
230.10        31.46416
230.56        23.52459
231.02        13.54499
231.48        6.513581
231.93        6.341283
232.39        11.20305
232.85        17.32819
233.31        21.45736
233.77        23.66187
234.22        25.48111
234.68        26.50875
235.14        25.79896
235.60        23.50363
236.05        18.94276
236.51        13.40086
236.97        16.25306
237.43        28.75627
237.88        38.75901
238.34        41.83334
238.80        65.08715
239.26        57.13261
239.71        54.85248
240.17        45.45319
240.63        35.44296
241.08        29.83663
241.54        31.46185
242.00        40.74418
242.46        47.80774
242.91        50.22441
243.37        49.79385
243.83        47.61791
244.28        46.82578
244.74        48.89096
245.20        51.07722
245.66        50.91574
246.11        46.16129
246.57        36.59312
247.03        23.47844
247.48        7.708588
247.94       -9.617172
248.40       -31.95592
248.85       -79.21908
249.31       -208.1632
249.77       -270.0132
250.22       -58.23914
250.68        17.77704
251.14        40.20705
251.59        47.14819
252.05         48.7207
252.51         46.9618
252.96        41.45955
253.42        34.44289
253.88        29.68555
254.33        28.49505
254.79        32.23423
255.25        39.12229
255.70        45.97485
256.16        51.46665
256.62        55.48132
257.07        58.13179
257.53         59.9917
257.99        61.08508
258.44        60.79668
258.90        59.22131
259.35        56.37088
259.81        53.24603
260.27        50.44431
260.72        48.70865
261.18        48.17073
261.63        48.07152
262.09        48.06829
262.55        47.49236
263.00        46.29227
263.46        44.92199
263.91        43.50365
264.37        42.56741
264.83        42.07261
265.28         41.7757
265.74        41.59336
266.19        41.25649
266.65        40.76001
267.11        40.13983
267.56        39.37093
268.02        38.49714
268.47        37.49958
268.93        36.40173
269.38        35.25365
269.84        34.19978
270.30        33.26886
270.75        32.45417
271.21        31.71244
271.66        30.89971
272.12        30.02707
272.57        29.12758
273.03        28.32529
273.48        27.76315
273.94        27.46583
274.39        27.33131
274.85        27.24507
275.31        26.97988
275.76        26.48615
276.22        25.87285
276.67        25.23425
277.13        24.77395
277.58        24.49207
278.04        24.33864
278.49        24.20354
278.95         24.0049
279.40        23.68311
279.86        23.30904
280.31          22.884
280.77        22.48055
281.22        22.09324
281.68        21.76057
282.13        21.44456
282.59        21.16364
283.04        20.89573
283.50        20.65003
283.95        20.46984
284.41         20.4412
284.86        20.55164
285.32        20.77937
285.77        20.98269
286.22        20.96813
286.68         20.7375
287.13        20.33127
287.59        19.96766
288.04        19.87202
288.50         20.0617
288.95        20.58115
289.41        21.29407
289.86        21.50221
290.32        21.07572
290.77        22.06343
291.22         21.2336
291.68        21.45627
292.13        21.79576
292.59        22.29778
293.04        22.89523
293.50        23.56084
293.95        24.29951
294.40        25.10399
294.86        26.00721
295.31         27.0438
295.77        28.21116
296.22        29.47566
296.68        30.78716
297.13         32.0663
297.58        33.31315
298.04        34.55747
298.49         35.8595
298.95        37.33224
299.40        38.97899
299.85        40.77001
300.31        42.62248
300.76        44.38836
301.21         46.0462
301.67        47.66068
302.12        49.29747
302.58         51.1562
303.03        53.23789
303.48        55.51414
303.94         57.8825
304.39        60.13659
304.84        62.22747
305.30        64.22075
305.75        66.15099
306.20        68.17524
306.66        70.32554
307.11        72.50813
307.57        74.66971
308.02        76.66179
308.47        78.48641
308.93        80.22884
309.38        81.92855
309.83        83.69957
310.29        85.62011
310.74        87.56406
311.19        89.47505
311.65        91.22928
312.10        92.77526
312.55        94.15948
313.00        95.41595
313.46         96.6052
313.91        97.73506
314.36        98.79325
314.82        99.80698
315.27        100.8131
315.72        101.8249
316.18        102.8386
316.63        103.8064
317.08        104.6458
317.53        105.3349
317.99        105.8947
318.44        106.3751
318.89        106.8425
319.35        107.3235
319.80        107.8195
320.25         108.315
320.70        108.7874
321.16        109.2241
321.61        109.6524
322.06        110.0969
322.51        110.6035
322.97        111.1586
323.42        111.7761
323.87         112.383
324.32        112.8809
324.78        113.2232
325.23         113.476
325.68        113.6767
326.13        113.9269
326.59        114.2281
327.04        114.6047
327.49        115.0002
327.94        115.3562
328.39        115.6543
328.85        115.8921
329.30        116.1413
329.75        116.3694
330.20        116.5899
330.66        116.7685
331.11        117.0232
331.56         117.402
332.01         117.922
332.46        118.5631
332.92         119.214
333.37        119.8369
333.82        120.3489
334.27        120.7817
334.72        121.1872
335.17        121.6607
335.63        122.1979
336.08        122.8268
336.53        123.4967
336.98        124.1823
337.43        124.8575
337.88        125.5213
338.34        126.1132
338.79        126.5977
339.24         126.944
339.69        127.1881
340.14        127.3799
340.59        127.6053
341.05        127.9013
341.50        128.2564
341.95        128.6987
342.40        129.2718
342.85        129.9568
343.30        130.7237
343.75        131.4546
344.20        131.9675
344.66        132.2316
345.11        132.2785
345.56        132.2165
346.01        132.2267
346.46        132.3754
346.91         132.591
347.36        132.8138
347.81        133.0507
348.26        133.2999
348.72        133.1961
349.17        133.4612
349.62        133.5837
350.07        133.7785
350.52        133.9866
350.97        134.1652
351.42        134.2402
351.87        134.1784
352.32        134.0083
352.77        133.7377
353.22        133.3752
353.67        132.9422
354.13        132.4684
354.58        131.9678
355.03        131.5189
355.48        131.1407
355.93        130.8108
356.38        130.5147
356.83        130.2236
357.28        129.9041
357.73        129.5419
358.18        129.0827
358.63        128.4505
359.08        127.6457
359.53        126.7121
359.98        125.7103
360.43        124.7281
360.88         123.799
361.33        122.9071
361.78        122.0758
362.23        121.3374
362.68        120.6857
363.13          120.11
363.58        119.5313
364.03        118.8203
364.48        117.9462
364.93        116.9382
365.38        115.8763
365.83        114.9005
366.28        114.0501
366.73        113.2837
367.18        112.5467
367.63        111.7515
368.08        110.8766
368.53        109.9627
368.98        109.0346
369.43        108.1114
369.88        107.2007
370.33        106.2949
370.78        105.4018
371.23        104.5593
371.68        103.7856
372.13        103.0686
372.58         102.423
373.03        101.8523
373.48        101.3351
373.93        100.8679
374.38        100.3595
374.83         99.6761
375.28        98.81453
375.72        97.80616
376.17        96.84155
376.62         96.1109
377.07          95.635
377.52        95.33782
377.97        95.07825
378.42        94.63331
378.87        93.96078
379.32        93.15439
379.77        92.32448
380.22        91.60949
380.67        91.03374
381.11        90.54913
381.56        90.10368
382.01        89.64659
382.46        89.16885
382.91        88.69935
383.36        88.24424
383.81         87.8036
384.26        87.37171
384.71        86.93423
385.15        86.47865
385.60        86.05936
386.05        85.65633
386.50        85.26934
386.95        84.87031
387.40        84.42591
387.85        83.94492
388.29        83.39348
388.74        82.93245
389.19        82.56042
389.64        82.27503
390.09        82.06261
390.54        81.85197
390.98         81.5163
391.43        81.07523
391.88        80.54639
392.33        80.04711
392.78        79.68719
393.23        79.46938
393.67        79.47188
394.12        79.59921
394.57        79.15774
395.02        78.27817
395.47        77.88441
395.91        77.99757
396.36        77.84441
396.81        77.43256
397.26        77.25667
397.71        77.27309
398.15        77.13194
398.60        76.89301
399.05        76.62059
399.50        76.39423
399.95        76.20854
400.39        76.10804
400.84        76.31053
401.29        76.64668
401.74         76.3205
402.18        75.44064
402.63        74.98579
403.08        74.96726
403.53        74.63425
403.97        74.00239
404.42        73.56091
404.87        73.34248
405.32        73.23373
405.76        73.21918
406.21        73.24423
406.66        73.26255
407.11        73.38668
407.55        73.51352
408.00        73.23158
408.45        72.62333
408.90        72.06133
409.34         71.7073
409.79        71.70905
410.24        71.94695
410.68        72.01026
411.13        71.85307
411.58        71.71625
412.03         71.6391
412.47        71.58491
412.92        71.53847
413.37        71.52202
413.81        71.49556
414.26         71.4578
414.71        71.38528
415.15        71.29932
415.60        71.18896
416.05        71.10207
416.49        71.05109
416.94        71.01196
417.39        70.96912
417.83        70.89043
418.28        70.77068
418.73        70.61668
419.17        70.43855
419.62        70.26357
420.07        70.10849
420.51        69.96733
420.96        69.86606
421.41        69.80283
421.85         69.7472
422.30        69.70405
422.74        69.66044
423.19        69.77457
423.64        69.99929
424.08        70.18829
424.53        70.22111
424.98        70.22379
425.42        70.21122
425.87        69.93688
426.31        69.57449
426.76        69.73739
427.21        70.32575
427.65        70.55125
428.10        70.31807
428.54        70.18046
428.99        70.16135
429.44        69.95185
429.88         69.5983
430.33          69.291
430.77        69.05007
431.22        69.20871
431.66        69.61654
432.11        69.59863
432.56        69.24339
433.00        69.26589
433.45        69.48153
433.89        69.61164
434.34        69.77547
434.78        68.74662
435.23         68.8653
435.67        69.73985
436.12        69.60483
436.57        69.74783
437.01        69.49991
437.46        69.37708
437.90        70.18909
438.35        69.27116
438.79        69.86801
439.24        69.63965
439.68        69.49818
440.13        69.25381
440.57        68.98704
441.02        69.02682
441.46        69.26986
441.91        69.28534
442.35        69.08183
442.80         69.3494
443.24        69.94936
443.69         70.2272
444.13         70.1143
444.58        69.96352
445.02        69.84683
445.47        69.93032
445.91        70.13742
446.36        70.15945
446.80        69.97742
447.24        69.74461
447.69        69.55929
448.13        69.68187
448.58        69.87105
449.02         69.9252
449.47        69.78689
449.91        69.74587
450.36        69.81849
450.80        69.74055
451.25        69.55173
451.69        69.49076
452.13        69.51483
452.58        69.27442
453.02        68.83319
453.47        68.59772
453.91        68.58547
454.36        68.60664
454.80        68.59203
455.24        68.53678
455.69         68.4446
456.13        68.22866
456.58        67.97764
457.02        67.99093
457.46        67.96126
457.91        67.93924
458.35        67.92051
458.79        67.85236
459.24        67.76373
459.68        67.63133
460.13        67.54945
460.57        67.35331
461.01        67.02474
461.46        67.30801
461.90        67.23305
462.34        66.69385
462.79        66.42918
463.23        66.39508
463.68        66.74679
464.12        66.53893
464.56        65.92309
465.01        65.97749
465.45        66.46931
465.89        66.68278
466.34        66.62324
466.78        66.28008
467.22        65.69067
467.67        66.35841
468.11        65.86552
468.55        65.72597
468.99        65.27747
469.44         65.0046
469.88        64.92004
470.32        64.82417
470.77          64.711
471.21        64.59934
471.65        64.48325
472.10        64.36238
472.54        64.25617
472.98        64.20858
473.42        64.22134
473.87        64.30532
474.31        64.39024
474.75        64.42043
475.20        64.38983
475.64        64.38128
476.08        64.39697
476.52        64.32362
476.97        64.14321
477.41        64.05677
477.85        64.12749
478.29        63.59794
478.74         64.0114
479.18         63.7501
479.62        63.88377
480.06        63.83224
480.50        63.75373
480.95        63.85445
481.39        64.15993
481.83        63.61683
482.27        64.12595
482.72        64.03485
483.16        64.33765
483.60        63.96494
484.04        64.43955
484.48        64.03256
484.93        63.89911
485.37        63.60711
485.81        64.21502
486.25        63.37577
486.69        65.55861
487.14        65.44154
487.58        64.59292
488.02        63.94026
488.46        64.16819
488.90        63.73347
489.34        63.75064
489.79         63.0671
490.23        63.09524
490.67        63.12842
491.11        63.38418
491.55        63.31224
491.99        62.95971
492.43        62.85396
492.88        63.00639
493.32        63.14444
493.76        63.17286
494.20        63.19465
494.64        63.22058
495.08        62.87132
495.52        62.73101
495.96        62.74913
496.41        62.96523
496.85        62.86868
497.29        62.47507
497.73        62.35187
498.17        62.21156
498.61        62.42492
499.05         62.7449
499.49        62.56903
499.93        62.05584
500.37        62.02092
500.82        62.43052
501.26        62.81648
501.70        63.02423
502.14        62.59768
502.58        62.17976
503.02        61.93465
503.46        62.01032
503.90        62.09619
504.34        62.11617
504.78        62.15255
505.22        62.20262
505.66         62.1702
506.10        62.06234
506.54        62.07889
506.98        62.26117
507.42        61.63454
507.86        62.29541
508.30        61.65715
508.74        62.02196
509.18        61.96263
509.62        61.96489
510.06        61.94673
510.50        61.87319
510.94        61.69086
511.38        61.44756
511.82        61.33591
512.26        61.37545
512.70        61.48633
513.14        61.61103
513.58         61.6748
514.02         61.6522
514.46        61.57082
514.90        61.45074
515.34        61.36293
515.78        61.33031
516.22        61.29901
516.66        61.12204
517.10        61.40047
517.54        61.25187
517.98         61.3595
518.42        61.42746
518.86        61.41625
519.30        61.31559
519.74        61.11035
520.18        60.88885
520.62        60.86332
521.06        61.01127
521.50        61.07769
521.93        61.02895
522.37        61.00418
522.81         60.9951
523.25        60.90457
523.69        60.75729
524.13        60.64652
524.57        60.58985
525.01        60.56335
525.45        60.56462
525.89         60.5908
526.32        60.63359
526.76        60.69698
527.20        60.77381
527.64        60.85282
528.08        60.92475
528.52         60.9888
528.96        61.03046
529.40        61.02301
529.83        60.96542
530.27        60.89933
530.71        60.83436
531.15        60.78414
531.59        60.75738
532.03        60.75321
532.46        60.76739
532.90        60.80534
533.34        60.85445
533.78        60.91045
534.22        60.94632
534.66        60.92067
535.09        60.82155
535.53        60.68679
535.97         60.5369
536.41        60.42159
536.85        60.35835
537.28        60.33633
537.72        60.35196
538.16        60.39791
538.60         60.4627
539.04        60.54379
539.47        60.60942
539.91        60.66318
540.35        60.68337
540.79        60.67284
541.22        60.63325
541.66        60.58533
542.10        60.53262
542.54        60.47244
542.97        60.40662
543.41        60.36955
543.85        60.36129
544.29        60.38523
544.72        60.41468
545.16        60.46052
545.60        60.51057
546.04        60.49276
546.47        60.44367
546.91         60.5905
547.35        60.85472
547.79        60.85292
548.22        60.60207
548.66        60.48204
549.10        60.51893
549.53        60.51788
549.97        60.47951
550.41        60.46228
550.84        60.47314
551.28        60.46933
551.72        60.43414
552.15        60.45296
552.59        60.56089
553.03        60.26979
553.46        60.43529
553.90        60.34306
554.34        60.23151
554.77        60.18038
555.21        60.12064
555.65        60.09232
556.08        60.25795
556.52        60.47065
556.96        60.68504
557.39        60.69837
557.83         60.5245
558.27        60.28778
558.70        60.07682
559.14        59.96344
559.57          59.967
560.01        60.14661
560.45         60.3839
560.88        60.42453
561.32        60.30968
561.75        60.14011
562.19        60.02489
562.63        60.07407
563.06        60.21755
563.50        60.18811
563.93        60.00602
564.37        59.78803
564.80        59.87101
565.24        59.98484
565.68        60.17656
566.11        60.27952
566.55        60.28839
566.98        60.36776
567.42         60.5073
567.85        60.37578
568.29        60.11543
568.72        60.20552
569.16        60.63425
569.60        60.74921
570.03         60.8161
570.47        60.84757
570.90        60.88747
571.34        61.03081
571.77        61.15749
572.21        61.10988
572.64        61.23721
573.08        61.28597
573.51        61.06603
573.95        61.45417
574.38        61.32257
574.82        62.14121
