SpectraSmart Spectrum 2.9.0.0
--------- Device Information -----------
Spectrum Name :  反射率_0
Saving Time :  2024/04/21 00:40:51
Spectro-Module Model Name : SE2030-DUVN
Spectro-Module Serial Number : OS361AC55029948
Wavelength Start : 200
Wavelength End : 1025
Wavelength Unit : Wavelength(nm)
Spectrum Unit : Reflectance(%)
-----------Spectrum Setting ------------
Integration Time : 20ms
Average : 10
Boxcar : 0
Background removal :  enabled
linearity correction :  enabled
SC :  disabled
Intensity correction :  disabled
DWT denoise :  enabled
savitzky-golay :  disabled
FFT :  disabled
Running average :  disabled
Kalman :  disabled
High pass :  disabled
---------------BEGIN--------------------
Wavelength(nm)             Reflectance(%)
200.29               0
200.75       -23.50844
201.21         11.4198
201.67         30.4318
202.13         36.7235
202.58        35.25782
203.04        29.33658
203.50        21.10854
203.96        16.56795
204.42         18.3779
204.88        23.21952
205.34        28.75438
205.80         31.9953
206.26        32.19355
206.72        31.97359
207.18        28.02831
207.64        13.36002
208.10       -11.29968
208.55       -42.81157
209.01       -57.69587
209.47       -31.48497
209.93        6.546584
210.39        37.26989
210.85        56.55914
211.31        64.08472
211.77        62.75083
212.23         53.0436
212.69        31.28568
213.14       -3.670895
213.60       -53.19125
214.06       -166.8242
214.52       -361.5277
214.98       -114.2809
215.44       -2.043761
215.90        32.04859
216.36        41.66979
216.81        39.24686
217.27        23.99776
217.73       -48.09537
218.19        812.0835
218.65        353.1113
219.11       -708.9667
219.57       -11.91392
220.02        32.34694
220.48        40.09176
220.94        35.83744
221.40        19.12778
221.86       -21.60674
222.32       -49.82402
222.77       -15.01489
223.23        15.80773
223.69        32.13575
224.15        39.38428
224.61        42.38454
225.06        44.08057
225.52        43.93732
225.98        39.97751
226.44        32.10416
226.90        19.96557
227.36        8.979204
227.81        10.14481
228.27        20.70668
228.73        33.12756
229.19        41.71212
229.65        43.66019
230.10        40.01099
230.56        32.49367
231.02        22.42267
231.48         15.3932
231.93        15.53451
232.39        20.73169
232.85        26.84964
233.31        30.38337
233.77        31.44005
234.22        31.59969
234.68        31.14292
235.14        30.44829
235.60        30.00722
236.05        28.88641
236.51         27.2785
236.97        31.13663
237.43        40.83101
237.88        47.05107
238.34        46.07171
238.80        65.33804
239.26        55.89353
239.71        53.43766
240.17        45.22704
240.63        37.54659
241.08         34.9484
241.54        40.81789
242.00        53.20542
242.46        59.62021
242.91         56.6032
243.37        43.87059
243.83        25.48581
244.28        18.67857
244.74        31.93497
245.20        55.23073
245.66        76.39655
246.11        83.90982
246.57        77.03217
247.03        59.73463
247.48        35.28361
247.94        8.154727
248.40       -25.29548
248.85       -94.55827
249.31       -293.5396
249.77       -440.4857
250.22        -133.935
250.68        -7.77973
251.14        34.39207
251.59        50.76524
252.05        59.19584
252.51        64.69508
252.96        66.60055
253.42         62.4399
253.88        52.84954
254.33        42.26997
254.79        37.69426
255.25        41.15722
255.70        48.28443
256.16        55.59331
256.62        61.59741
257.07        65.66225
257.53         68.5138
257.99        70.34581
258.44        70.76662
258.90        70.17105
259.35        68.33495
259.81        66.10088
260.27        63.73906
260.72        61.66435
261.18         60.3001
261.63        59.18062
262.09        58.26604
262.55        57.03748
263.00        55.42854
263.46        53.82207
263.91          52.332
264.37        51.55537
264.83         51.3866
265.28        51.51746
265.74         51.7356
266.19        51.55343
266.65        50.96289
267.11        50.04792
267.56        48.90957
268.02        47.80353
268.47        46.75159
268.93        45.72862
269.38        44.66224
269.84        43.51691
270.30         42.2871
270.75        41.02849
271.21        39.84568
271.66        38.80922
272.12        37.96379
272.57        37.24656
273.03        36.62633
273.48        36.00092
273.94        35.37193
274.39         34.7444
274.85        34.13918
275.31         33.5147
275.76         32.8706
276.22        32.24382
276.67        31.69833
277.13        31.41856
277.58        31.35078
278.04        31.44321
278.49        31.48422
278.95        31.27024
279.40        30.72604
279.86        29.98394
280.31        29.13853
280.77        28.42396
281.22        27.86592
281.68        27.46626
282.13        27.13284
282.59        26.81644
283.04        26.46944
283.50        26.13623
283.95        25.87156
284.41        25.78407
284.86        25.86539
285.32        26.09118
285.77        26.30675
286.22        26.31667
286.68        26.11755
287.13        25.73385
287.59        25.39916
288.04        25.35766
288.50        25.62489
288.95        26.21762
289.41        26.94857
289.86        27.06754
290.32        26.45712
290.77        27.07967
291.22        26.00348
291.68        26.04008
292.13          26.343
292.59        26.91651
293.04        27.66773
293.50        28.52403
293.95        29.46052
294.40        30.48233
294.86        31.58175
295.31        32.72859
295.77        33.91395
296.22        35.11565
296.68        36.35117
297.13        37.64812
297.58        39.03115
298.04        40.50045
298.49        42.05162
298.95        43.69415
299.40        45.40142
299.85        47.17324
300.31        48.97823
300.76        50.74197
301.21        52.45829
301.67        54.16194
302.12        55.86698
302.58         57.7107
303.03        59.67714
303.48        61.76669
303.94        63.91892
304.39        65.98392
304.84        67.93203
305.30        69.81575
305.75        71.63857
306.20        73.51857
306.66        75.48082
307.11        77.43991
307.57        79.37201
308.02        81.16236
308.47         82.8165
308.93        84.39994
309.38        85.91191
309.83        87.41966
310.29        88.97976
310.74        90.49297
311.19        91.94144
311.65        93.26462
312.10        94.43094
312.55        95.47849
313.00        96.41413
313.46        97.25189
313.91         97.9958
314.36        98.65784
314.82        99.30733
315.27          100.04
315.72        100.8795
316.18         101.801
316.63         102.712
317.08        103.4612
317.53        104.0049
317.99        104.3744
318.44        104.6516
318.89         104.962
319.35        105.3379
319.80         105.745
320.25        106.1218
320.70         106.397
321.16        106.5094
321.61         106.551
322.06        106.5685
322.51         106.656
322.97        106.8276
323.42         107.091
323.87        107.4014
324.32        107.7031
324.78        107.9526
325.23        108.2011
325.68        108.4374
326.13        108.6757
326.59        108.8941
327.04        109.1393
327.49        109.3755
327.94        109.5867
328.39        109.7723
328.85        109.9067
329.30        110.0845
329.75        110.3252
330.20        110.6346
330.66        110.9585
331.11        111.3189
331.56        111.6068
332.01        111.8056
332.46        111.9489
332.92        112.0214
333.37        112.1497
333.82        112.3184
334.27        112.5152
334.72        112.7855
335.17        113.2016
335.63        113.7341
336.08        114.4225
336.53        115.1339
336.98        115.6937
337.43        116.0532
337.88        116.2492
338.34        116.3568
338.79        116.5758
339.24        116.9343
339.69        117.3851
340.14         117.862
340.59        118.2643
341.05        118.5662
341.50        118.8121
341.95        119.0494
342.40        119.3523
342.85        119.7393
343.30        120.1835
343.75        120.6246
344.20        120.9774
344.66        121.2271
345.11        121.3715
345.56        121.4797
346.01        121.6595
346.46        121.9332
346.91        122.2467
347.36        122.4919
347.81        122.5761
348.26        122.4935
348.72        122.0426
349.17        121.8087
349.62        121.6314
350.07        121.6997
350.52        121.9365
350.97        122.2231
351.42        122.3565
351.87         122.268
352.32        122.0121
352.77        121.6704
353.22        121.3679
353.67        121.1343
354.13        120.9428
354.58        120.6928
355.03        120.2863
355.48         119.713
355.93        119.0255
356.38        118.3279
356.83        117.7685
357.28        117.3645
357.73        117.0504
358.18        116.7235
358.63         116.225
359.08        115.5175
359.53         114.665
359.98        113.7214
360.43        112.7624
360.88        111.8212
361.33        110.8763
361.78        109.9615
362.23        109.1332
362.68        108.3996
363.13        107.7568
363.58        107.1342
364.03        106.4092
364.48        105.5555
364.93        104.6043
365.38        103.6362
365.83        102.7906
366.28        102.0947
366.73        101.4897
367.18        100.9042
367.63        100.2288
368.08        99.43288
368.53        98.56622
368.98        97.63837
369.43        96.64762
369.88        95.60803
370.33           94.52
370.78        93.45866
371.23        92.57265
371.68        91.90758
372.13        91.42801
372.58        91.05102
373.03        90.62473
373.48        90.08982
373.93        89.47588
374.38        88.79813
374.83        88.09867
375.28        87.41051
375.72        86.71228
376.17        86.05067
376.62        85.42272
377.07        84.81611
377.52        84.21589
377.97        83.63384
378.42        83.09995
378.87        82.62617
379.32        82.21589
379.77        81.80254
380.22        81.27455
380.67        80.60655
381.11        79.82507
381.56        79.02764
382.01        78.40793
382.46        78.02279
382.91          77.825
383.36        77.67952
383.81        77.37176
384.26        76.85552
384.71        76.19828
385.15        75.51921
385.60        75.06734
386.05        74.86165
386.50        74.81485
386.95        74.79267
387.40        74.59585
387.85        74.18461
388.29         73.5965
388.74        73.01688
389.19        72.50243
389.64        72.07323
390.09        71.69022
390.54         71.3372
390.98        70.98411
391.43        70.66723
391.88        70.39075
392.33        70.15575
392.78        69.95193
393.23        69.76918
393.67        69.57272
394.12        69.42153
394.57        69.21882
395.02        68.95953
395.47        68.69348
395.91        68.43345
396.36        68.12781
396.81        67.81059
397.26        67.55565
397.71        67.32903
398.15        67.05547
398.60        66.80978
399.05        66.43739
399.50        66.07198
399.95        66.14366
400.39        66.52934
400.84         66.6055
401.29        66.31017
401.74        65.83446
402.18        65.34151
402.63        65.20096
403.08        65.34553
403.53        65.18791
403.97        64.71025
404.42        64.34676
404.87        64.12583
405.32        63.93993
405.76         63.7916
406.21        63.63035
406.66         63.4883
407.11        63.59464
407.55        63.85809
408.00        63.85528
408.45        63.57689
408.90        63.16975
409.34        62.78778
409.79        62.79451
410.24        63.08613
410.68        63.12199
411.13         62.8713
411.58        62.67168
412.03        62.56958
412.47        62.48834
412.92        62.42326
413.37        62.41395
413.81        62.43366
414.26        62.48923
414.71        62.55474
415.15         62.6349
415.60        62.69293
416.05        62.72294
416.49        62.72151
416.94        62.68478
417.39        62.61217
417.83        62.49792
418.28        62.35325
418.73        62.18098
419.17         62.0246
419.62        61.96386
420.07        62.01241
420.51         62.1413
420.96        62.30786
421.41        62.40688
421.85          62.393
422.30        62.30561
422.74        62.17986
423.19        62.23475
423.64        62.43759
424.08        62.61105
424.53        62.65386
424.98         62.6716
425.42        62.66492
425.87        62.51604
426.31        62.30154
426.76        62.23593
427.21        62.31081
427.65        62.36822
428.10        62.36614
428.54         62.3814
428.99        62.43589
429.44        62.52908
429.88        62.62254
430.33        62.60011
430.77        62.48439
431.22        62.69048
431.66        63.12189
432.11        63.33227
432.56         63.2949
433.00        63.15742
433.45        62.81769
433.89           62.64
434.34        62.79086
434.78        62.09312
435.23        62.07994
435.67         63.0006
436.12        63.64867
436.57        63.73552
437.01        62.98152
437.46        62.64821
437.90        63.48846
438.35        63.18879
438.79        63.55173
439.24        63.47589
439.68        63.45787
440.13        63.44724
440.57        63.45801
441.02        63.48108
441.46        63.52682
441.91         63.6594
442.35        63.82109
442.80        64.30151
443.24        64.93063
443.69        65.11006
444.13        64.81359
444.58         64.5295
445.02         64.3334
445.47        64.25816
445.91         64.2886
446.36        64.25132
446.80        64.12976
447.24        64.13892
447.69        64.24104
448.13        64.22646
448.58        63.96389
449.02        63.89122
449.47        63.97802
449.91        64.03166
450.36        64.06596
450.80        64.11897
451.25        64.18963
451.69        64.29427
452.13        64.37057
452.58        64.15388
453.02        63.71347
453.47        63.44085
453.91        63.36212
454.36        63.29459
454.80        63.20584
455.24        63.10342
455.69          62.989
456.13        62.88021
456.58        62.82961
457.02        62.65326
457.46        62.64802
457.91        62.59308
458.35        62.65009
458.79        62.61493
459.24        62.51022
459.68        62.42307
460.13        62.42354
460.57        62.23957
461.01        61.84764
461.46        62.27826
461.90        61.89632
462.34        61.61668
462.79        61.66766
463.23        61.41227
463.68        61.60673
464.12        61.44224
464.56        61.19093
465.01        61.29671
465.45        61.61618
465.89        61.79371
466.34        61.75378
466.78        61.48645
467.22        61.12441
467.67        60.75257
468.11        60.74879
468.55         60.6695
468.99        60.57903
469.44        60.49586
469.88         60.4079
470.32        60.30024
470.77        60.18121
471.21        60.07022
471.65        59.97502
472.10        59.90039
472.54        59.82762
472.98        59.77219
473.42        59.74987
473.87        59.67818
474.31          59.547
474.75        59.68089
475.20        60.00817
475.64        59.71709
476.08        59.52822
476.52        59.36171
476.97         59.4246
477.41        59.48892
477.85        59.45215
478.29        59.50979
478.74        58.94867
479.18        59.02598
479.62        59.45105
480.06        59.59295
480.50        59.42191
480.95        59.34872
481.39        59.38562
481.83        59.34266
482.27        59.54961
482.72        59.51854
483.16        59.51024
483.60        59.83419
484.04         59.8066
484.48        59.44994
484.93        59.21855
485.37        59.22455
485.81        59.30849
486.25        59.28859
486.69        61.35216
487.14        61.80449
487.58        60.12541
488.02        59.23836
488.46        59.34482
488.90        59.42005
489.34        59.14039
489.79        58.48096
490.23         59.0014
490.67        59.19112
491.11        59.41331
491.55        59.18645
491.99        58.63321
492.43        58.36183
492.88        58.41459
493.32        58.48377
493.76        58.47606
494.20        58.49925
494.64        58.55125
495.08        58.26508
495.52         58.2535
495.96        58.23597
496.41        58.32553
496.85        58.31573
497.29         58.1497
497.73        58.08848
498.17        57.85515
498.61        57.80005
499.05        57.83284
499.49        57.86721
499.93        57.83825
500.37        57.99977
500.82        58.24949
501.26        58.43478
501.70        58.50465
502.14        58.15964
502.58        57.95631
503.02        57.76572
503.46        57.71627
503.90         57.7281
504.34        57.76085
504.78        57.80975
505.22        57.85525
505.66        57.89063
506.10        57.91768
506.54         57.9052
506.98        57.84024
507.42        57.62587
507.86         57.9099
508.30        57.26458
508.74        57.64387
509.18        57.58327
509.62        57.59173
510.06         57.6147
510.50         57.6286
510.94        57.55908
511.38        57.41323
511.82        57.31693
512.26        57.28042
512.70        57.24026
513.14        57.18231
513.58        57.12841
514.02        57.08162
514.46        56.94717
514.90        56.89568
515.34        56.82207
515.78        56.79031
516.22        56.74347
516.66        56.54526
517.10        56.84642
517.54        56.67057
517.98        56.77615
518.42        56.85504
518.86        56.90097
519.30        56.90218
519.74        56.83232
520.18         56.7439
520.62        56.78529
521.06        56.92571
521.50        56.94362
521.93        56.82827
522.37        56.74394
522.81        56.69719
523.25        56.58847
523.69        56.44357
524.13        56.35341
524.57        56.32938
525.01        56.34645
525.45        56.38617
525.89        56.41665
526.32        56.42674
526.76        56.43513
527.20        56.44534
527.64        56.46498
528.08        56.49503
528.52         56.5263
528.96        56.56577
529.40        56.62055
529.83        56.68487
530.27        56.78197
530.71        56.86688
531.15        56.86556
531.59        56.77126
532.03        56.61497
532.46         56.4473
532.90        56.36233
533.34        56.37529
533.78        56.45448
534.22        56.55493
534.66        56.60628
535.09         56.5807
535.53        56.52222
535.97        56.43377
536.41        56.33435
536.85        56.23778
537.28        56.13979
537.72          56.062
538.16        56.04266
538.60        56.08405
539.04        56.17262
539.47        56.26438
539.91        56.33772
540.35        56.36499
540.79        56.35885
541.22        56.32352
541.66        56.27962
542.10        56.23426
542.54        56.18689
542.97        56.14231
543.41        56.13224
543.85        56.14203
544.29        56.19852
544.72        56.28995
545.16        56.32203
545.60        56.25372
546.04        56.49988
546.47        56.37675
546.91        56.38853
547.35        56.34853
547.79        56.39603
548.22        56.47846
548.66        56.42541
549.10        56.28136
549.53         56.2543
549.97         56.3482
550.41        56.37691
550.84        56.33683
551.28        56.31791
551.72        56.30924
552.15          56.308
552.59         56.3367
553.03        56.15438
553.46        56.22087
553.90        56.18646
554.34        56.17091
554.77        56.28348
555.21        56.29549
555.65        56.38874
556.08        56.47346
556.52        56.55673
556.96        56.60529
557.39        56.63585
557.83        56.63205
558.27        56.46778
558.70          56.217
559.14        56.09316
559.57        56.10805
560.01        56.26892
560.45         56.4634
560.88        56.39136
561.32        56.15275
561.75        56.06945
562.19        56.19426
562.63        56.35026
563.06        56.46189
563.50        56.44453
563.93        56.30035
564.37         56.1701
564.80         56.0902
565.24        56.15596
565.68        56.32671
566.11         56.4135
566.55        56.42002
566.98        56.47703
567.42        56.58007
567.85        56.58916
568.29        56.58221
568.72        56.61938
569.16        56.72465
569.60        57.09706
570.03        57.02103
570.47        57.24521
570.90        57.53483
571.34        57.42692
571.77        57.66985
572.21        57.82925
572.64        57.41749
573.08        57.54882
573.51        57.52952
573.95        57.94656
574.38           57.71
574.82         58.3732
