SpectraSmart Spectrum 2.9.0.0
--------- Device Information -----------
Spectrum Name :  反射率_0
Saving Time :  2024/04/20 23:58:30
Spectro-Module Model Name : SE2030-DUVN
Spectro-Module Serial Number : OS361AC55029948
Wavelength Start : 200
Wavelength End : 1025
Wavelength Unit : Wavelength(nm)
Spectrum Unit : Reflectance(%)
-----------Spectrum Setting ------------
Integration Time : 20ms
Average : 10
Boxcar : 0
Background removal :  enabled
linearity correction :  enabled
SC :  disabled
Intensity correction :  disabled
DWT denoise :  enabled
savitzky-golay :  disabled
FFT :  disabled
Running average :  disabled
Kalman :  disabled
High pass :  disabled
---------------BEGIN--------------------
Wavelength(nm)             Reflectance(%)
200.29               0
200.75       -92.10468
201.21       -24.32004
201.67        13.74058
202.13        29.06592
202.58         31.3977
203.04        26.85008
203.50        16.94891
203.96        6.044156
204.42       -2.443745
204.88       -10.64949
205.34        -17.8161
205.80        -23.9182
206.26       -29.41504
206.72        -30.0755
207.18       -30.37154
207.64       -42.84658
208.10       -68.54693
208.55       -103.2374
209.01       -116.6594
209.47       -78.48913
209.93       -27.26407
210.39        12.72418
210.85        37.68589
211.31        48.33146
211.77        48.71994
212.23         40.1848
212.69          18.649
213.14       -19.82105
213.60       -82.82437
214.06       -247.9333
214.52        -591.034
214.98       -252.6272
215.44       -66.03714
215.90       -4.186565
216.36         15.9613
216.81        17.34328
217.27        2.688502
217.73       -75.40175
218.19        860.0759
218.65        349.5656
219.11       -694.7839
219.57        -13.6363
220.02        27.67606
220.48        31.34799
220.94         19.6679
221.40       -13.73717
221.86       -89.94154
222.32       -136.8102
222.77        -66.3045
223.23        -5.28687
223.69        25.21108
224.15        34.95699
224.61        33.83212
225.06        27.35494
225.52        18.01795
225.98        9.461553
226.44        3.650158
226.90       -1.599379
227.36       -3.018956
227.81        4.238834
228.27        15.48287
228.73        26.36094
229.19        33.20364
229.65        34.13012
230.10        30.14986
230.56        22.71796
231.02        13.11996
231.48         6.67016
231.93        7.239827
232.39        12.82954
232.85        19.30614
233.31        23.14972
233.77        24.50162
234.22        24.92994
234.68        24.56779
235.14        23.54046
235.60        22.30577
236.05         19.9552
236.51         16.8429
236.97        20.09104
237.43        30.45942
237.88        36.94503
238.34         35.0748
238.80        58.07774
239.26         46.9187
239.71        44.89242
240.17        36.47673
240.63        27.99284
241.08        23.56378
241.54        26.42769
242.00        36.13431
242.46        41.01479
242.91         37.8314
243.37        27.28294
243.83        11.61271
244.28        2.055941
244.74        5.697266
245.20        15.78948
245.66        25.87944
246.11        30.14494
246.57        27.75734
247.03        21.61201
247.48        10.96843
247.94       -6.579496
248.40       -38.56823
248.85       -122.3314
249.31       -388.6215
249.77       -611.8912
250.22       -206.4663
250.68       -34.12586
251.14        20.91147
251.59         34.2025
252.05        29.36153
252.51        12.13642
252.96       -16.06193
253.42       -38.26801
253.88       -38.71026
254.33       -24.23413
254.79       -2.804667
255.25        16.70503
255.70        30.37656
256.16        39.69505
256.62        45.10434
257.07        46.90889
257.53        46.82636
257.99        45.76681
258.44        44.35101
258.90        43.70689
259.35        43.40467
259.81        43.34669
260.27        43.35493
260.72        43.30666
261.18        43.37168
261.63        43.39776
262.09        43.23505
262.55        42.41293
263.00        40.99144
263.46        39.34066
263.91        37.83218
264.37        37.30076
264.83        37.64634
265.28        38.45551
265.74        39.26132
266.19        39.30708
266.65        38.55574
267.11        37.24513
267.56        35.67361
268.02        34.37033
268.47        33.44184
268.93        32.76527
269.38          32.184
269.84        31.51482
270.30        30.70213
270.75         29.8485
271.21        29.05709
271.66         28.4023
272.12        27.92222
272.57        27.53568
273.03        27.21301
273.48        26.89703
273.94        26.57405
274.39        26.22729
274.85        25.84888
275.31        25.36494
275.76        24.77735
276.22         24.1555
276.67        23.55614
277.13         23.1234
277.58        22.84535
278.04        22.69105
278.49        22.57709
278.95        22.44921
279.40        22.24471
279.86        22.00695
280.31        21.69706
280.77        21.33071
281.22        20.89719
281.68        20.45825
282.13        20.01372
282.59        19.63283
283.04        19.30898
283.50        19.03498
283.95        18.84394
284.41        18.80145
284.86        18.89119
285.32        19.09983
285.77        19.28483
286.22        19.24655
286.68        18.98466
287.13        18.53523
287.59        18.12512
288.04         17.9983
288.50        18.16768
288.95        18.67398
289.41        19.35494
289.86         19.4648
290.32        18.86507
290.77        19.67933
291.22        18.60066
291.68        18.61982
292.13        18.77669
292.59        19.09666
293.04        19.50072
293.50        19.94464
293.95         20.4246
294.40        20.93793
294.86        21.49337
295.31        22.09065
295.77        22.72693
296.22        23.38194
296.68        24.05687
297.13        24.75272
297.58        25.47967
298.04        26.24426
298.49        27.04416
298.95        27.89278
299.40        28.77655
299.85        29.69335
300.31           30.63
300.76        31.55617
301.21        32.46796
301.67         33.3907
302.12        34.31887
302.58        35.31612
303.03        36.37725
303.48        37.52837
303.94        38.75626
304.39        40.00687
304.84        41.27191
305.30        42.56892
305.75        43.90071
306.20        45.34646
306.66        46.89635
307.11        48.48287
307.57        50.03693
308.02        51.42371
308.47        52.62656
308.93        53.72717
309.38         54.7543
309.83        55.73899
310.29        56.85352
310.74        57.94006
311.19        59.02715
311.65        60.08044
312.10        61.07681
312.55        62.03439
313.00        62.94998
313.46        63.81661
313.91        64.62296
314.36        65.37399
314.82        66.08321
315.27        66.78127
315.72        67.47428
316.18        68.14854
316.63        68.79188
317.08        69.38817
317.53        69.92681
317.99        70.41545
318.44        70.83233
318.89        71.13111
319.35        71.31649
319.80        71.41271
320.25        71.49669
320.70        71.69611
321.16        72.02925
321.61        72.46886
322.06         72.9305
322.51           73.28
322.97        73.47014
323.42         73.5654
323.87        73.60031
324.32        73.64983
324.78        73.73154
325.23        73.84917
325.68        73.99571
326.13        74.18311
326.59        74.38933
327.04        74.65371
327.49         74.9296
327.94        75.15763
328.39        75.32339
328.85        75.41956
329.30        75.51791
329.75        75.65182
330.20        75.83712
330.66        76.03048
331.11        76.27121
331.56        76.52528
332.01        76.78852
332.46        77.07901
332.92        77.33851
333.37        77.56954
333.82        77.73701
334.27        77.84775
334.72        77.99078
335.17        78.31615
335.63           78.83
336.08        79.53655
336.53        80.27602
336.98         80.8148
337.43         81.0904
337.88        81.15897
338.34        81.15636
338.79        81.35259
339.24        81.80077
339.69        82.42538
340.14        83.08059
340.59        83.54386
341.05        83.76773
341.50        83.83119
341.95        83.86738
342.40        84.09072
342.85        84.55703
343.30        85.19712
343.75        85.87561
344.20         86.3872
344.66        86.68452
345.11        86.81071
345.56        86.89246
346.01        87.12066
346.46        87.53123
346.91        88.07378
347.36        88.60896
347.81        88.89372
348.26        88.89067
348.72        88.82862
349.17        88.60249
349.62        88.66836
350.07        89.00522
350.52        89.52831
350.97        90.07859
351.42        90.40136
351.87        90.42686
352.32        90.23909
352.77         89.9454
353.22        89.70841
353.67        89.58237
354.13        89.53001
354.58        89.49792
355.03        89.45412
355.48        89.37784
355.93        89.28255
356.38        89.17042
356.83        89.03648
357.28        88.87165
357.73        88.66549
358.18        88.39105
358.63        88.01582
359.08        87.54681
359.53        87.01056
359.98        86.45668
360.43        85.95504
360.88        85.52126
361.33        85.13264
361.78        84.76745
362.23        84.38965
362.68        83.98178
363.13         83.5528
363.58        83.08531
364.03        82.54955
364.48        81.94829
364.93        81.29809
365.38        80.63634
365.83        80.02779
366.28        79.49132
366.73        79.00348
367.18        78.56015
367.63        78.15237
368.08        77.76309
368.53        77.39291
368.98        76.98502
369.43        76.44266
369.88        75.75297
370.33        74.94769
370.78        74.11347
371.23        73.41676
371.68        72.91664
372.13        72.56897
372.58        72.32852
373.03         72.1073
373.48        71.86125
373.93        71.61399
374.38        71.32621
374.83        70.93982
375.28        70.46086
375.72        69.89577
376.17        69.34666
376.62        68.92267
377.07        68.63351
377.52         68.4315
377.97        68.24758
378.42        67.97247
378.87        67.58112
379.32        67.12209
379.77        66.62236
380.22        66.10546
380.67        65.58143
381.11        65.04505
381.56        64.52232
382.01        64.07899
382.46        63.73729
382.91         63.4842
383.36        63.28025
383.81        63.05576
384.26        62.78671
384.71        62.48939
385.15        62.16023
385.60        61.85378
386.05        61.56102
386.50         61.2701
386.95        60.98727
387.40        60.73145
387.85         60.5115
388.29        60.29181
388.74        60.13008
389.19        59.95312
389.64        59.74732
390.09        59.51077
390.54        59.27405
390.98        59.07922
391.43        58.97082
391.88        58.92425
392.33        58.87999
392.78        58.77731
393.23        58.61006
393.67         58.3007
394.12        57.99526
394.57        57.92518
395.02        58.02376
395.47        57.88842
395.91        57.53124
396.36        57.28227
396.81        57.18026
397.26        57.06563
397.71        56.90533
398.15        56.74516
398.60        56.64559
399.05        56.40993
399.50        56.17545
399.95        56.38418
400.39        56.90846
400.84        57.14464
401.29        56.98978
401.74        56.52388
402.18        55.92897
402.63        55.71581
403.08        55.86174
403.53        55.75263
403.97        55.38059
404.42        55.20813
404.87        55.22701
405.32        55.22482
405.76        55.17849
406.21        55.10287
406.66        55.02055
407.11        55.05344
407.55        55.15601
408.00        55.12731
408.45         54.9633
408.90        54.61564
409.34        54.24262
409.79        54.35302
410.24        54.83245
410.68        55.03994
411.13        54.93427
411.58        54.88782
412.03         54.9455
412.47        55.01048
412.92        55.07205
413.37        55.16363
413.81        55.25953
414.26        55.37035
414.71        55.47817
415.15        55.58847
415.60        55.67511
416.05        55.74069
416.49        55.78594
416.94        55.80623
417.39        55.79776
417.83        55.75366
418.28        55.67802
418.73        55.56298
419.17        55.45555
419.62        55.44373
420.07        55.54892
420.51        55.75036
420.96        55.96619
421.41        56.08563
421.85         56.0737
422.30        55.83685
422.74        55.52547
423.19         55.8182
423.64        56.58073
424.08        56.90314
424.53        56.68588
424.98        56.74099
425.42        57.13085
425.87        57.13149
426.31        56.88786
426.76        57.27698
427.21        58.16675
427.65         58.4812
428.10        58.17744
428.54        58.13479
428.99        58.39845
429.44        58.45966
429.88        58.32821
430.33        58.31673
430.77        58.38924
431.22        58.55994
431.66        58.78029
432.11        58.99223
432.56        59.22957
433.00        59.28235
433.45        58.96573
433.89         59.1279
434.34         59.9689
434.78        58.54625
435.23        58.84762
435.67        60.14376
436.12        60.46183
436.57         60.7883
437.01        60.40924
437.46        60.17874
437.90        60.70963
438.35        61.34977
438.79        61.25091
439.24        61.37205
439.68        61.45086
440.13         61.2936
440.57        61.03999
441.02        61.40735
441.46        62.21473
441.91        62.37925
442.35        61.96457
442.80        62.15655
443.24        62.84949
443.69         63.0746
444.13        62.78635
444.58        62.66873
445.02        62.82816
445.47        62.71898
445.91        63.32316
446.36        63.47672
446.80        63.45135
447.24        63.44861
447.69        63.51445
448.13        63.59242
448.58        63.54593
449.02        63.68968
449.47        63.91579
449.91         64.0013
450.36        63.94604
450.80        63.78154
451.25        63.61555
451.69        63.65331
452.13        63.86901
452.58        63.94072
453.02        63.83728
453.47        63.79557
453.91        63.80468
454.36         63.7355
454.80        63.63416
455.24        63.58539
455.69        63.60482
456.13        63.72408
456.58        63.98822
457.02        63.71263
457.46        64.16657
457.91        63.94346
458.35        63.61409
458.79        63.39768
459.24        63.38474
459.68        63.34521
460.13         63.2868
460.57        63.23385
461.01        63.19339
461.46        63.09927
461.90         63.2584
462.34        63.02853
462.79         62.8185
463.23        63.05399
463.68        63.65249
464.12        63.59837
464.56        63.00555
465.01        63.08372
465.45        63.64122
465.89        63.71721
466.34        63.36068
466.78         63.1324
467.22        63.09196
467.67        63.14739
468.11        62.92965
468.55        62.93448
468.99        63.00146
469.44         62.9723
469.88        62.83187
470.32        62.63992
470.77        62.45368
471.21        62.34052
471.65        62.31897
472.10        62.36695
472.54         62.4323
472.98        62.45944
473.42        62.44269
473.87        62.38868
474.31        62.27742
474.75        62.26362
475.20        62.33935
475.64        62.09419
476.08        62.20896
476.52        62.11078
476.97        61.90194
477.41        62.29566
477.85        62.67788
478.29        61.95784
478.74        61.65585
479.18        62.24347
479.62         62.0941
480.06        62.19341
480.50         62.2692
480.95        62.28464
481.39        62.25116
481.83        62.43193
482.27        62.69473
482.72        62.17788
483.16        62.51888
483.60        62.47698
484.04        62.66751
484.48        62.23423
484.93        62.01003
485.37        62.14869
485.81         62.6946
486.25        62.42045
486.69        63.34093
487.14        63.29959
487.58        62.71693
488.02        62.68514
488.46        62.21676
488.90        62.31475
489.34        62.07373
489.79        62.09816
490.23        62.35643
490.67        62.46444
491.11        62.46029
491.55        62.33604
491.99        62.16216
492.43         62.0623
492.88        62.06044
493.32        62.11237
493.76        62.14726
494.20        62.19866
494.64         62.2839
495.08        62.02079
495.52         61.9824
495.96        62.14583
496.41        62.53548
496.85         62.4377
497.29        61.91724
497.73        61.93925
498.17        62.13793
498.61        62.26273
499.05        62.13563
499.49        61.84195
499.93         61.5327
500.37        61.55516
500.82        61.85051
501.26        62.11723
501.70        62.24511
502.14        61.87036
502.58        61.59351
503.02        61.38662
503.46          61.387
503.90        61.41307
504.34        61.41386
504.78        61.45267
505.22        61.53507
505.66        61.55602
506.10        61.51161
506.54        61.65165
506.98        62.02338
507.42        61.51556
507.86         62.1265
508.30        61.83908
508.74        61.81395
509.18        61.55815
509.62        61.32312
510.06        61.22553
510.50        61.26063
510.94        61.33524
511.38        61.39516
511.82        61.43774
512.26        61.44033
512.70        61.38226
513.14        61.29082
513.58        61.23025
514.02        61.21604
514.46        61.22841
514.90        61.24066
515.34        61.25007
515.78        61.25583
516.22        61.23569
516.66        61.05608
517.10        61.33559
517.54        61.19756
517.98        61.30996
518.42        61.39094
518.86        61.42876
519.30        61.41365
519.74        61.32709
520.18        61.21286
520.62        61.21265
521.06        61.29546
521.50        61.22805
521.93        61.04522
522.37        60.99714
522.81        61.09712
523.25        61.20852
523.69        61.28444
524.13         61.3081
524.57        61.26807
525.01        61.17388
525.45        61.06707
525.89        61.01495
526.32        61.03294
526.76        61.10448
527.20        61.20287
527.64        61.28775
528.08        61.34165
528.52        61.37654
528.96        61.39412
529.40        61.38822
529.83        61.36072
530.27         61.3445
530.71        61.32681
531.15        61.28806
531.59        61.23108
532.03        61.16618
532.46        61.11609
532.90        61.12949
533.34        61.20208
533.78        61.31367
534.22        61.41257
534.66        61.41895
535.09        61.31267
535.53        61.14834
535.97        60.95895
536.41        60.81363
536.85        60.73697
537.28        60.70789
537.72        60.72991
538.16        60.80835
538.60        60.92765
539.04        61.07987
539.47        61.20424
539.91        61.25975
540.35        61.22006
540.79        61.10551
541.22        60.95176
541.66        60.83593
542.10         60.7764
542.54        60.75121
542.97        60.74449
543.41        60.76159
543.85        60.79079
544.29        60.84633
544.72        60.89378
545.16        60.93116
545.60          60.949
546.04        60.87864
546.47        60.78205
546.91        60.92984
547.35        61.24953
547.79        61.34023
548.22        61.19193
548.66        61.14228
549.10        61.20858
549.53        61.21845
549.97        61.17659
550.41        61.13558
550.84        61.10579
551.28        61.06604
551.72        61.02117
552.15        61.02836
552.59        61.11301
553.03        60.97828
553.46        61.18153
553.90         61.0678
554.34        61.09261
554.77        61.03888
555.21        60.97444
555.65        60.98301
556.08        61.04332
556.52        61.14368
556.96        61.23371
557.39        61.31314
557.83        61.35519
558.27        61.22897
558.70        61.01292
559.14        60.94568
559.57        61.03689
560.01        61.25594
560.45        61.47807
560.88        61.44434
561.32        61.23146
561.75        61.04808
562.19        60.99445
562.63        61.07236
563.06        61.22269
563.50        61.24586
563.93        61.12491
564.37        61.06369
564.80        61.06428
565.24        61.11694
565.68        61.21251
566.11        61.28361
566.55         61.3364
566.98         61.4741
567.42        61.66415
567.85        61.58404
568.29        61.34254
568.72        61.34884
569.16        61.64654
569.60        61.64686
570.03        61.63691
570.47        61.69726
570.90        61.89294
571.34        61.58023
571.77        62.39003
572.21        61.82443
572.64        61.92319
573.08        62.05738
573.51        61.57581
573.95        62.02376
574.38        61.97122
574.82        62.62657
