SpectraSmart Spectrum 2.9.0.0
--------- Device Information -----------
Spectrum Name :  反射率_0
Saving Time :  2024/04/21 00:49:46
Spectro-Module Model Name : SE2030-DUVN
Spectro-Module Serial Number : OS361AC55029948
Wavelength Start : 200
Wavelength End : 1025
Wavelength Unit : Wavelength(nm)
Spectrum Unit : Reflectance(%)
-----------Spectrum Setting ------------
Integration Time : 20ms
Average : 10
Boxcar : 0
Background removal :  enabled
linearity correction :  enabled
SC :  disabled
Intensity correction :  disabled
DWT denoise :  enabled
savitzky-golay :  disabled
FFT :  disabled
Running average :  disabled
Kalman :  disabled
High pass :  disabled
---------------BEGIN--------------------
Wavelength(nm)             Reflectance(%)
200.29               0
200.75       -73.83664
201.21       -29.74306
201.67       -7.350895
202.13        1.138621
202.58        2.006171
203.04       -1.247679
203.50       -7.482347
203.96       -13.61673
204.42       -17.56157
204.88       -21.02314
205.34       -23.03803
205.80       -22.70432
206.26       -19.55095
206.72       -9.984266
207.18       0.5136532
207.64       -3.095707
208.10       -24.86869
208.55       -59.73498
209.01       -80.94082
209.47       -57.45744
209.93       -18.73778
210.39        12.74697
210.85         32.9481
211.31        41.95942
211.77        43.06087
212.23        38.25085
212.69        23.82639
213.14         -7.6001
213.60        -72.5819
214.06        -276.072
214.52        -765.121
214.98        -352.649
215.44       -94.43758
215.90       -6.997378
216.36        21.34525
216.81        21.93259
217.27       -2.426928
217.73       -123.7029
218.19        1334.333
218.65        560.4859
219.11       -1272.692
219.57       -68.66177
220.02        8.234133
220.48         22.8658
220.94        17.87956
221.40       -6.214181
221.86       -66.01497
222.32       -106.8641
222.77        -54.6263
223.23       -8.440029
223.69        15.49972
224.15        24.94294
224.61        27.29523
225.06        26.99136
225.52        24.69143
225.98         20.4131
226.44        14.75245
226.90        6.693232
227.36       0.6422629
227.81        4.686384
228.27        15.35509
228.73        26.75937
229.19        34.32751
229.65        35.78974
230.10        32.15241
230.56         25.0165
231.02        15.70433
231.48        9.442741
231.93        9.998887
232.39        15.41895
232.85        21.42494
233.31        24.30919
233.77        24.21132
234.22        22.70813
234.68        20.42694
235.14        18.52728
235.60        17.83832
236.05        17.21935
236.51        16.31035
236.97        20.66835
237.43         30.4739
237.88        35.27479
238.34        30.73493
238.80        54.01497
239.26        41.59062
239.71        40.49471
240.17        33.62917
240.63        26.60704
241.08        22.54416
241.54        24.94265
242.00        33.46161
242.46        36.66077
242.91        31.32108
243.37        17.17819
243.83       -1.635481
244.28       -8.091252
244.74        6.081328
245.20         30.9188
245.66        53.14357
246.11         60.0579
246.57        50.95997
247.03        29.83967
247.48        1.557378
247.94       -25.75256
248.40       -52.66866
248.85       -99.59493
249.31       -215.7003
249.77       -267.3501
250.22       -79.29977
250.68       -11.24737
251.14        9.297353
251.59        15.83239
252.05        17.46346
252.51        16.39589
252.96        11.40432
253.42        3.269701
253.88       -4.050711
254.33       -7.625788
254.79       -3.010401
255.25        9.632471
255.70        23.95574
256.16        35.90778
256.62        44.28011
257.07        48.70934
257.53        50.69123
257.99        51.34283
258.44        50.90684
258.90        50.12453
259.35        48.85369
259.81        47.50716
260.27        46.27945
260.72        45.48648
261.18        45.27374
261.63        45.18053
262.09         45.0355
262.55        44.33788
263.00        43.08149
263.46        41.67393
263.91        40.23792
264.37         39.2864
264.83        38.78941
265.28        38.52084
265.74        38.40632
266.19         38.2065
266.65        37.89465
267.11        37.47195
267.56        36.88396
268.02        36.12517
268.47         35.1682
268.93        34.07195
269.38        32.85888
269.84        31.62957
270.30        30.43448
270.75        29.28828
271.21        28.29671
271.66        27.54496
272.12        27.05784
272.57        26.77914
273.03        26.61387
273.48        26.38562
273.94        26.06594
274.39         25.6715
274.85        25.25962
275.31        24.86682
275.76        24.50181
276.22        24.16419
276.67        23.86039
277.13         23.6707
277.58        23.55429
278.04        23.50198
278.49        23.40173
278.95        23.15969
279.40        22.73033
279.86        22.19026
280.31        21.58477
280.77        21.05132
281.22        20.60407
281.68        20.27175
282.13        19.99075
282.59        19.73274
283.04        19.46775
283.50        19.21527
283.95         19.0464
284.41        19.08502
284.86        19.31899
285.32        19.70255
285.77        20.05238
286.22        20.11556
286.68        19.88581
287.13        19.42669
287.59         18.9928
288.04        18.86787
288.50        19.07864
288.95        19.64654
289.41        20.41464
289.86        20.65004
290.32        20.21303
290.77         21.1926
291.22        20.30909
291.68        20.44548
292.13        20.65884
292.59        20.99609
293.04        21.43754
293.50        22.03194
293.95         22.7951
294.40        23.69788
294.86         24.6951
295.31        25.69659
295.77        26.67467
296.22        27.63269
296.68        28.60949
297.13        29.66534
297.58        30.82648
298.04        32.07507
298.49        33.38254
298.95        34.72281
299.40        36.06829
299.85          37.437
300.31        38.82412
300.76        40.20189
301.21        41.57585
301.67        42.96909
302.12        44.38898
302.58        45.94064
303.03        47.60759
303.48        49.39289
303.94        51.24267
304.39        53.02909
304.84        54.72164
305.30        56.35757
305.75        57.93627
306.20        59.55483
306.66        61.22613
307.11        62.87756
307.57        64.48116
308.02        65.93919
308.47        67.25191
308.93        68.48895
309.38        69.65211
309.83        70.76534
310.29        71.94494
310.74        73.07656
311.19        74.17776
311.65        75.21886
312.10        76.17648
312.55        77.06372
313.00        77.89348
313.46        78.68698
313.91        79.43717
314.36        80.15102
314.82         80.8171
315.27        81.41563
315.72        81.95452
316.18        82.44387
316.63        82.92268
317.08        83.45489
317.53        84.04729
317.99        84.67639
318.44        85.27782
318.89        85.73703
319.35        86.02687
319.80        86.18066
320.25        86.27641
320.70        86.44823
321.16        86.72212
321.61        87.07734
322.06        87.43055
322.51        87.65327
322.97        87.70695
323.42        87.66689
323.87        87.60903
324.32        87.67297
324.78        87.88197
325.23        88.22452
325.68          88.617
326.13        88.94795
326.59        89.16154
327.04        89.33723
327.49        89.49245
327.94         89.6875
328.39        89.94292
328.85        90.20578
329.30        90.51485
329.75        90.82954
330.20        91.13409
330.66         91.3993
331.11         91.6675
331.56        91.88976
332.01         92.0651
332.46        92.20911
332.92        92.28894
333.37         92.3748
333.82        92.44928
334.27        92.52303
334.72        92.66084
335.17        92.96217
335.63        93.41805
336.08        94.05198
336.53        94.74566
336.98        95.33938
337.43        95.78001
337.88        96.09253
338.34        96.32661
338.79         96.6264
339.24        97.00488
339.69        97.41832
340.14        97.80771
340.59        98.08829
341.05        98.24847
341.50        98.33738
341.95        98.40971
342.40        98.55105
342.85        98.79021
343.30        99.10137
343.75        99.44801
344.20        99.77798
344.66        100.0714
345.11        100.3124
345.56        100.5164
346.01        100.7016
346.46        100.8747
346.91         101.044
347.36        101.1577
347.81        101.1445
348.26        101.0099
348.72        100.7805
349.17        100.5876
349.62        100.6462
350.07        100.9884
350.52        101.5386
350.97        102.0846
351.42        102.2805
351.87        102.0402
352.32        101.4627
352.77         100.755
353.22         100.238
353.67        99.99245
354.13        99.94288
354.58         99.9086
355.03        99.65154
355.48        99.12261
355.93         98.4194
356.38        97.70126
356.83        97.19869
357.28        96.94741
357.73        96.84747
358.18        96.74942
358.63        96.42435
359.08        95.81718
359.53        95.02045
359.98        94.13006
360.43         93.2841
360.88          92.534
361.33        91.83903
361.78        91.20582
362.23        90.64861
362.68        90.15737
363.13        89.73199
363.58        89.31657
364.03        88.81289
364.48        88.19641
364.93        87.48734
365.38        86.73206
365.83        86.01754
366.28        85.36875
366.73        84.75542
367.18        84.16033
367.63        83.55626
368.08        82.93384
368.53        82.31496
368.98        81.67838
369.43        80.97636
369.88        80.20307
370.33        79.36805
370.78        78.53487
371.23        77.83006
371.68        77.29333
372.13        76.89146
372.58        76.55961
373.03        76.18073
373.48        75.71283
373.93        75.18645
374.38        74.61982
374.83        74.05438
375.28        73.51603
375.72        72.97971
376.17        72.48158
376.62        72.02228
377.07        71.58928
377.52        71.17355
377.97        70.75301
378.42        70.30182
378.87        69.82523
379.32        69.34064
379.77        68.86181
380.22        68.39541
380.67        67.93512
381.11        67.47842
381.56        67.02077
382.01        66.57408
382.46        66.15448
382.91        65.77046
383.36        65.41725
383.81        65.08302
384.26        64.75789
384.71        64.43354
385.15        64.10842
385.60        63.83848
386.05        63.60379
386.50        63.39619
386.95        63.16315
387.40        62.83229
387.85        62.40832
388.29        61.88974
388.74        61.43979
389.19        61.12032
389.64        60.93916
390.09        60.86367
390.54        60.81771
390.98        60.66573
391.43        60.41307
391.88        60.09259
392.33        59.78672
392.78        59.59532
393.23        59.52828
393.67        59.56013
394.12        59.66514
394.57        59.56255
395.02        59.26863
395.47        59.07838
395.91        58.97972
396.36        58.81941
396.81         58.6159
397.26        58.52631
397.71        58.47435
398.15        58.29747
398.60        58.05468
399.05        57.60871
399.50        57.14623
399.95        57.20948
400.39        57.65955
400.84        57.80512
401.29        57.41891
401.74        56.95447
402.18        56.51192
402.63        56.30768
403.08        56.32468
403.53        56.19356
403.97        55.91142
404.42        55.79345
404.87         55.8145
405.32        55.80611
405.76         55.7507
406.21        55.63612
406.66        55.49307
407.11        55.53964
407.55        55.71218
408.00        55.58739
408.45        55.22131
408.90        54.96936
409.34         54.9213
409.79        55.10252
410.24        55.38828
410.68        55.46738
411.13        55.30163
411.58        55.06269
412.03        54.83405
412.47        54.70092
412.92        54.68528
413.37        54.77406
413.81           54.89
414.26        54.95699
414.71        54.94106
415.15        54.88898
415.60        54.81301
416.05        54.77973
416.49        54.81024
416.94         54.8637
417.39        54.93528
417.83        55.01833
418.28         55.1014
418.73        55.17993
419.17        55.21754
419.62        55.16561
420.07         55.0244
420.51        54.81904
420.96        54.61387
421.41        54.47893
421.85        54.41325
422.30        54.39633
422.74        54.41478
423.19        54.59838
423.64        54.90435
424.08        55.20204
424.53        55.36531
424.98         55.4863
425.42        55.57424
425.87        55.34886
426.31        54.97162
426.76          55.237
427.21        56.03336
427.65        56.14686
428.10        55.51046
428.54        55.86339
428.99        55.75684
429.44        55.90417
429.88        55.80899
430.33        55.73151
430.77         55.6272
431.22        55.48251
431.66        55.38296
432.11        55.56438
432.56        56.02079
433.00        56.36742
433.45         56.3028
433.89        56.11444
434.34        56.10331
434.78        54.89971
435.23        55.54396
435.67        56.15637
436.12        56.64933
436.57        56.76616
437.01        56.41299
437.46        56.20308
437.90        56.73027
438.35        56.96752
438.79        56.93504
439.24        56.97115
439.68         57.0531
440.13        57.06978
440.57        57.02892
441.02        57.12429
441.46        57.29692
441.91        57.23186
442.35        56.96681
442.80        57.09849
443.24        57.55303
443.69        57.57289
444.13        57.64727
444.58        57.49132
445.02        57.31937
445.47        57.29855
445.91         57.4251
446.36        57.50348
446.80        57.51329
447.24        57.57415
447.69          57.692
448.13        57.83065
448.58        57.99611
449.02        57.88005
449.47        57.57635
449.91        57.43551
450.36        57.50824
450.80        57.53634
451.25        57.52238
451.69         57.6227
452.13        57.77979
452.58        57.71244
453.02        57.46028
453.47        57.34067
453.91        57.37318
454.36        57.40631
454.80        57.38972
455.24         57.3788
455.69        57.39048
456.13        57.23418
456.58        57.00659
457.02        57.25016
457.46        57.52595
457.91        57.45327
458.35        57.07597
458.79        56.87615
459.24         56.9052
459.68         56.8835
460.13        56.83587
460.57        56.74165
461.01        56.59388
461.46        56.89691
461.90        56.52359
462.34        56.85689
462.79        56.66515
463.23        56.83378
463.68        57.00945
464.12        56.72916
464.56        56.14373
465.01        56.23579
465.45        56.76536
465.89        56.63089
466.34        55.99003
466.78        55.79184
467.22        55.98473
467.67        56.46163
468.11        55.66034
468.55        55.84718
468.99        56.07068
469.44        56.18171
469.88        56.01672
470.32        55.82595
470.77        55.68348
471.21        55.58954
471.65         55.5733
472.10        55.62801
472.54        55.68593
472.98        55.67537
473.42        55.58785
473.87         55.4174
474.31        55.21097
474.75         55.2296
475.20         55.4396
475.64        55.47602
476.08        55.47641
476.52        55.46122
476.97        55.42458
477.41        55.43976
477.85        55.53604
478.29        55.15688
478.74         54.8341
479.18        55.34234
479.62        55.06973
480.06        55.20219
480.50        55.24159
480.95        55.23075
481.39        55.09317
481.83        55.37729
482.27        55.59826
482.72        55.18407
483.16         55.3993
483.60        55.65931
484.04        55.66489
484.48        55.40042
484.93        55.32815
485.37        55.21983
485.81        55.58063
486.25        54.91946
486.69        55.60073
487.14        55.43476
487.58        55.57212
488.02        55.80441
488.46        55.43465
488.90        55.33429
489.34        55.07721
489.79        54.84986
490.23        55.19894
490.67        55.23337
491.11         55.1358
491.55        55.03877
491.99        54.98977
492.43        54.98419
492.88        55.01788
493.32        55.06727
493.76        55.08282
494.20        55.12972
494.64        55.23204
495.08        54.99855
495.52        55.04465
495.96        55.07587
496.41        55.20864
496.85        55.02834
497.29        54.61624
497.73        54.76871
498.17         55.1082
498.61        55.19497
499.05        54.89695
499.49        54.67538
499.93        54.62632
500.37        54.58129
500.82        54.54478
501.26        54.79027
501.70        55.18325
502.14        54.88668
502.58        54.46141
503.02        54.27486
503.46        54.45562
503.90        54.64206
504.34        54.73344
504.78        54.77583
505.22        54.75394
505.66        54.61013
506.10        54.41455
506.54        54.40192
506.98        54.61935
507.42        54.41552
507.86         55.0276
508.30        54.74365
508.74        54.88606
509.18        54.67171
509.62        54.46681
510.06        54.37877
510.50        54.41675
510.94         54.4815
511.38        54.51756
511.82        54.52794
512.26         54.4939
512.70        54.39939
513.14        54.28418
513.58        54.22776
514.02        54.24606
514.46        54.31176
514.90        54.37186
515.34        54.39174
515.78        54.36463
516.22        54.25547
516.66        53.96349
517.10        54.22112
517.54        54.01455
517.98        54.12791
518.42        54.22754
518.86        54.29383
519.30        54.30864
519.74        54.25955
520.18        54.18891
520.62        54.22134
521.06        54.32709
521.50        54.29455
521.93        54.14221
522.37        54.07463
522.81        54.10398
523.25        54.12003
523.69        54.10057
524.13        54.05904
524.57         53.9943
525.01        53.90836
525.45         53.8329
525.89        53.81771
526.32        53.87082
526.76        53.97887
527.20        54.11061
527.64        54.22255
528.08        54.29771
528.52        54.33426
528.96         54.3408
529.40        54.35778
529.83        54.37307
530.27        54.33736
530.71        54.25739
531.15        54.20576
531.59        54.19004
532.03        54.17664
532.46        54.15647
532.90        54.14271
533.34        54.12982
533.78        54.11708
534.22        54.10248
534.66        54.08311
535.09        54.05041
535.53        54.02058
535.97        53.98904
536.41        53.96408
536.85        53.94741
537.28         53.9391
537.72         53.9313
538.16        53.91149
538.60        53.87901
539.04        53.84145
539.47        53.80088
539.91        53.80505
540.35        53.84357
540.79        53.90549
541.22        53.97182
541.66         54.0256
542.10        54.05309
542.54        54.05605
542.97        54.03204
543.41        54.00762
543.85        53.98576
544.29        53.97273
544.72        53.95214
545.16        53.94833
545.60        53.95555
546.04        53.90621
546.47        53.84467
546.91        53.98465
547.35        54.25586
547.79        54.32503
548.22        54.17393
548.66         54.0686
549.10        54.03731
549.53        53.96857
549.97        53.89777
550.41        53.88913
550.84        53.95737
551.28        54.08408
551.72        54.20491
552.15        54.27972
552.59        54.31714
553.03        54.00659
553.46        53.98239
553.90        53.87947
554.34        53.88119
554.77          53.942
555.21        54.03717
555.65        54.10315
556.08        54.11238
556.52        54.09142
556.96         54.0513
557.39        54.06903
557.83        54.13478
558.27        54.09683
558.70        53.98799
559.14        53.96365
559.57        54.02282
560.01        54.17331
560.45        54.30625
560.88        54.21224
561.32        53.98356
561.75        53.72805
562.19        53.58176
562.63        53.82215
563.06        54.29232
563.50        54.29435
563.93        53.87027
564.37        53.72197
564.80        53.86581
565.24        53.99236
565.68        54.05992
566.11        54.10528
566.55        54.13085
566.98        54.17645
567.42        54.24582
567.85        54.17287
568.29        54.03093
568.72        54.02349
569.16        54.18373
569.60         54.1581
570.03        54.20302
570.47        54.23196
570.90        54.28683
571.34        54.26508
571.77        54.68906
572.21        54.26648
572.64        54.42278
573.08        54.20762
573.51        54.53491
573.95        54.81798
574.38        54.40544
574.82        54.82053
