SpectraSmart Spectrum 2.9.0.0
--------- Device Information -----------
Spectrum Name :  反射率_0
Saving Time :  2024/04/21 00:42:09
Spectro-Module Model Name : SE2030-DUVN
Spectro-Module Serial Number : OS361AC55029948
Wavelength Start : 200
Wavelength End : 1025
Wavelength Unit : Wavelength(nm)
Spectrum Unit : Reflectance(%)
-----------Spectrum Setting ------------
Integration Time : 20ms
Average : 10
Boxcar : 0
Background removal :  enabled
linearity correction :  enabled
SC :  disabled
Intensity correction :  disabled
DWT denoise :  enabled
savitzky-golay :  disabled
FFT :  disabled
Running average :  disabled
Kalman :  disabled
High pass :  disabled
---------------BEGIN--------------------
Wavelength(nm)             Reflectance(%)
200.29               0
200.75       -129.7654
201.21        -51.1892
201.67       -9.590378
202.13        5.007646
202.58        3.970665
203.04       -6.663555
203.50       -23.61849
203.96       -37.06623
204.42       -41.15115
204.88       -39.91407
205.34       -36.20613
205.80       -34.40392
206.26       -35.72472
206.72       -35.51428
207.18       -36.97107
207.64       -48.72702
208.10       -70.18377
208.55       -98.37725
209.01       -108.2332
209.47       -74.62572
209.93       -30.85715
210.39        2.571321
210.85        23.32468
211.31        32.36123
211.77         33.1038
212.23        27.28877
212.69        9.631555
213.14       -32.46832
213.60       -125.9132
214.06        -422.909
214.52       -1148.112
214.98       -553.4694
215.44        -171.989
215.90       -42.05088
216.36        2.277673
216.81        10.15929
217.27       -8.316294
217.73       -114.8634
218.19         1176.28
218.65         477.501
219.11       -1010.438
219.57       -39.39775
220.02         21.6969
220.48        33.12402
220.94         28.8952
221.40        8.928753
221.86       -40.40715
222.32       -73.63146
222.77       -30.46342
223.23        7.393278
223.69        26.35804
224.15        32.37269
224.61        31.55939
225.06         27.8562
225.52         21.9973
225.98        14.58321
226.44        6.624324
226.90       -3.241775
227.36       -9.584113
227.81       -2.967304
228.27        11.49533
228.73        26.35044
229.19        36.09155
229.65        38.23679
230.10        34.14108
230.56        25.52708
231.02        14.00017
231.48        6.293959
231.93        7.110181
232.39        13.77217
232.85        21.30442
233.31         25.5365
233.77        26.61921
234.22        26.38996
234.68        25.21111
235.14        23.62234
235.60        22.25652
236.05         20.0415
236.51        17.21335
236.97        20.64337
237.43        30.96815
237.88        37.38758
238.34        35.40961
238.80        58.06391
239.26        46.38855
239.71        43.54202
240.17        33.98148
240.63        24.69011
241.08        20.46038
241.54        24.97506
242.00        36.96831
242.46        42.99403
242.91        39.08215
243.37        25.36298
243.83        4.427446
244.28       -9.414468
244.74       -6.473599
245.20        5.897792
245.66        18.48792
246.11        22.37633
246.57        16.28909
247.03        3.447583
247.48       -14.45615
247.94       -35.11479
248.40       -62.63469
248.85       -124.4531
249.31       -308.2795
249.77       -456.3473
250.22       -176.0147
250.68         -57.832
251.14       -18.78309
251.59       -5.963696
252.05       -2.861406
252.51        -4.29808
252.96       -8.895238
253.42       -10.44806
253.88       -4.619076
254.33        6.223283
254.79        19.54398
255.25        31.83406
255.70        41.18966
256.16        47.76681
256.62        52.70957
257.07        56.96065
257.53         60.8982
257.99        64.08537
258.44        65.70135
258.90        65.70177
259.35        63.99814
259.81        61.72858
260.27        59.33172
260.72        57.35774
261.18        56.19683
261.63        55.30727
262.09        54.62122
262.55        53.65508
263.00        52.31923
263.46        50.95594
263.91        49.62901
264.37        48.84015
264.83        48.49716
265.28        48.36207
265.74        48.25988
266.19        47.75978
266.65        46.87633
267.11        45.69516
267.56        44.36485
268.02        43.20532
268.47        42.24673
268.93        41.43758
269.38        40.64286
269.84        39.72116
270.30        38.63353
270.75          37.453
271.21        36.31306
271.66        35.33876
272.12         34.5885
272.57        33.98672
273.03        33.47274
273.48        32.91391
273.94        32.30382
274.39        31.65643
274.85        31.03677
275.31        30.47136
275.76        29.96195
276.22        29.51734
276.67         29.1225
277.13        28.84007
277.58        28.62128
278.04        28.47394
278.49        28.29281
278.95        28.01251
279.40        27.58254
279.86        27.06932
280.31        26.50651
280.77         26.0328
281.22         25.6432
281.68        25.36139
282.13        25.09935
282.59        24.80709
283.04        24.45086
283.50        24.07733
283.95        23.76491
284.41        23.65774
284.86        23.75815
285.32         24.0288
285.77        24.31586
286.22        24.41687
286.68        24.32114
287.13        24.05763
287.59        23.82874
288.04        23.83358
288.50        24.08098
288.95        24.60281
289.41        25.26296
289.86        25.38215
290.32        24.85088
290.77        25.64593
291.22        24.70986
291.68        24.81006
292.13        25.06934
292.59        25.53052
293.04        26.16508
293.50        26.99881
293.95        28.03595
294.40        29.25471
294.86        30.60276
295.31        31.97807
295.77        33.34835
296.22         34.7078
296.68        36.10639
297.13        37.62361
297.58        39.29076
298.04         41.0836
298.49        42.94772
298.95        44.81867
299.40        46.65329
299.85        48.47562
300.31        50.30817
300.76        52.15715
301.21          54.036
301.67        55.95802
302.12         57.8934
302.58        59.91423
303.03        61.99562
303.48        64.17004
303.94        66.41707
304.39        68.64388
304.84        70.82687
305.30        72.98139
305.75        75.08089
306.20        77.20811
306.66        79.36904
307.11        81.48216
307.57        83.50426
308.02        85.28606
308.47        86.84208
308.93        88.25736
309.38        89.58418
309.83        90.98045
310.29        92.51958
310.74        94.10004
311.19        95.66582
311.65        97.09542
312.10        98.33627
312.55        99.43297
313.00         100.426
313.46        101.3844
313.91         102.311
314.36        103.1895
314.82        104.0147
315.27        104.7701
315.72        105.4666
316.18         106.124
316.63        106.7434
317.08        107.3241
317.53         107.863
317.99        108.3473
318.44        108.7994
318.89         109.241
319.35         109.672
319.80        110.1027
320.25        110.4817
320.70        110.7325
321.16        110.8396
321.61        110.8447
322.06        110.8436
322.51        110.9995
322.97        111.3302
323.42        111.8291
323.87        112.3594
324.32         112.708
324.78        112.8029
325.23        112.7509
325.68        112.6594
326.13        112.7407
326.59        113.0237
327.04        113.4916
327.49        114.0279
327.94        114.4764
328.39        114.7823
328.85        114.9659
329.30        115.1237
329.75        115.2717
330.20        115.4363
330.66        115.5582
331.11        115.7413
331.56        116.0152
332.01        116.3926
332.46        116.8722
332.92        117.3397
333.37        117.7457
333.82        118.0145
334.27        118.1802
334.72        118.3413
335.17        118.6686
335.63        119.1695
336.08        119.8489
336.53        120.5817
336.98        121.2106
337.43        121.6835
337.88        122.0499
338.34        122.3285
338.79        122.6173
339.24        122.9294
339.69        123.2505
340.14         123.606
340.59        124.0452
341.05        124.5701
341.50        125.1685
341.95        125.8049
342.40        126.4168
342.85        126.9739
343.30        127.4886
343.75        127.9209
344.20         128.221
344.66        128.3993
345.11         128.444
345.56        128.4599
346.01        128.6166
346.46        128.9471
346.91        129.3761
347.36        129.7512
347.81        129.9251
348.26        129.8791
348.72        129.3457
349.17        129.0872
349.62        128.8515
350.07        128.8851
350.52        129.0861
350.97        129.3488
351.42        129.4925
351.87        129.4406
352.32        129.2417
352.77        128.9269
353.22        128.5383
353.67        128.1022
354.13        127.6354
354.58        127.1021
355.03        126.5111
355.48        125.8833
355.93        125.2301
356.38        124.6417
356.83        124.2437
357.28        124.0272
357.73        123.9281
358.18        123.7733
358.63         123.291
359.08        122.4293
359.53        121.2884
359.98        120.0279
360.43         118.891
360.88        117.9525
361.33        117.1486
361.78        116.4328
362.23         115.728
362.68         115.002
363.13         114.284
363.58        113.5591
364.03        112.7939
364.48        111.9762
364.93        111.0962
365.38        110.1698
365.83        109.2384
366.28        108.3175
366.73         107.404
367.18        106.4919
367.63        105.5694
368.08        104.6419
368.53        103.7279
368.98        102.8374
369.43        101.9677
369.88        101.1138
370.33        100.2728
370.78        99.44862
371.23        98.66644
371.68        97.94204
372.13        97.26871
372.58        96.64996
373.03        96.07877
373.48        95.53372
373.93        95.00388
374.38        94.44637
374.83        93.80576
375.28        93.08289
375.72        92.28594
376.17        91.49976
376.62        90.76302
377.07        90.07973
377.52        89.42952
377.97            88.8
378.42        88.18705
378.87        87.60305
379.32        87.06319
379.77         86.5627
380.22        86.07723
380.67        85.58363
381.11        85.07497
381.56        84.54372
382.01        84.00909
382.46        83.49194
382.91        83.00809
383.36        82.53319
383.81        82.02535
384.26        81.47907
384.71        80.89967
385.15        80.35149
385.60        79.99789
386.05        79.82732
386.50        79.79362
386.95        79.74426
387.40        79.44868
387.85        78.88056
388.29        78.08244
388.74        77.32895
389.19        76.79385
389.64        76.50234
390.09        76.37163
390.54         76.2769
390.98        76.00625
391.43        75.56217
391.88        75.01701
392.33        74.47121
392.78        74.06258
393.23        73.81467
393.67        73.62694
394.12         73.5269
394.57        73.37621
395.02        73.12751
395.47        72.81699
395.91        72.50497
396.36        72.01138
396.81        71.83521
397.26        71.60029
397.71        71.39758
398.15        71.12476
398.60        70.85399
399.05        70.51512
399.50        70.20002
399.95        70.11224
400.39        70.21654
400.84        70.29395
401.29        70.25513
401.74        69.92576
402.18        69.39873
402.63        69.10679
403.08        69.03806
403.53        68.77485
403.97        68.31739
404.42        67.95888
404.87        67.74564
405.32        67.62546
405.76        67.58553
406.21        67.66622
406.66        67.76486
407.11        67.67744
407.55        67.41261
408.00        67.08835
408.45        66.78166
408.90        66.50018
409.34        66.27254
409.79        66.13485
410.24        66.07052
410.68        66.04817
411.13        66.05219
411.58        66.08496
412.03        66.11228
412.47        66.09261
412.92        65.98866
413.37        65.82108
413.81        65.62762
414.26        65.52042
414.71        65.49773
415.15         65.5479
415.60        65.59203
416.05        65.55058
416.49        65.40754
416.94        65.19023
417.39        64.95506
417.83        64.77707
418.28        64.67607
418.73        64.61709
419.17        64.57729
419.62        64.53164
420.07        64.47064
420.51        64.40726
420.96        64.34512
421.41        64.25439
421.85        64.11807
422.30        63.93948
422.74        63.75909
423.19        63.84542
423.64        64.14014
424.08        64.37038
424.53         64.4218
424.98        64.46911
425.42         64.5079
425.87         64.3598
426.31        64.10565
426.76        64.00158
427.21        64.04305
427.65         64.0593
428.10         64.0102
428.54         63.9818
428.99        63.99552
429.44         64.0309
429.88         64.0543
430.33        63.98758
430.77        63.81907
431.22        63.91587
431.66        64.19427
432.11        64.16995
432.56        63.93088
433.00        63.92883
433.45        63.94389
433.89        63.88268
434.34        63.96577
434.78        62.49653
435.23        63.11137
435.67        63.61238
436.12         63.5801
436.57        63.78941
437.01         63.8528
437.46        63.75468
437.90        64.14445
438.35        63.87727
438.79        63.88624
439.24        63.76545
439.68        63.75319
440.13        63.78576
440.57        63.84635
441.02        63.97801
441.46        64.13332
441.91        64.21284
442.35        64.18427
442.80        64.44189
443.24        64.84444
443.69        64.87391
444.13        64.53315
444.58        64.21944
445.02        64.01237
445.47        64.02977
445.91        64.22195
446.36        64.31574
446.80        64.27055
447.24        64.29584
447.69        64.38181
448.13        64.40535
448.58        64.22133
449.02        64.16552
449.47        64.17113
449.91        64.06882
450.36        63.87853
450.80        63.62712
451.25         63.3963
451.69         63.3448
452.13        63.43523
452.58         63.3588
453.02        63.11681
453.47        62.99081
453.91        62.97397
454.36        62.91481
454.80        62.79377
455.24        62.65265
455.69        62.51187
456.13        62.34159
456.58        62.22279
457.02        62.08717
457.46         62.2382
457.91        62.17218
458.35        62.10083
458.79        62.07551
459.24        62.13817
459.68        62.17754
460.13        62.20471
460.57        62.10439
461.01        61.87059
461.46        61.82507
461.90        61.63658
462.34         61.2699
462.79        60.95425
463.23        61.00774
463.68        61.38666
464.12        61.19762
464.56          60.573
465.01        60.73237
465.45        61.39897
465.89        61.37033
466.34        60.76966
466.78        60.47453
467.22        60.46933
467.67        60.78362
468.11         60.0066
468.55        59.99402
468.99        60.23964
469.44        60.22441
469.88        59.91035
470.32        59.56351
470.77         59.2844
471.21        59.09789
471.65        59.03654
472.10        59.08442
472.54        59.17825
472.98        59.24205
473.42        59.25127
473.87        59.23404
474.31        59.17979
474.75        59.17389
475.20        59.20257
475.64        59.18185
476.08        59.12136
476.52        59.06304
476.97        58.99385
477.41        59.01101
477.85        59.08825
478.29        58.76826
478.74        58.70071
479.18        58.51634
479.62         58.7933
480.06        58.87126
480.50        58.87572
480.95        58.98646
481.39        59.13169
481.83        59.08755
482.27         59.5726
482.72         58.9194
483.16        59.14537
483.60        59.28467
484.04        59.07858
484.48        58.87487
484.93        59.18367
485.37        58.33746
485.81        59.40136
486.25         59.0263
486.69        60.85842
487.14          61.328
487.58        60.03177
488.02        59.11957
488.46        58.82396
488.90        58.86621
489.34        58.42746
489.79        57.84639
490.23        58.42422
490.67        58.50334
491.11        58.51086
491.55        58.31369
491.99        57.99355
492.43        58.10074
492.88        58.02923
493.32        58.20022
493.76        58.31353
494.20        58.34974
494.64        58.29852
495.08        57.85468
495.52        57.70383
495.96        57.58701
496.41        57.65358
496.85         57.8173
497.29        57.95098
497.73         57.9045
498.17        57.70324
498.61        57.64978
499.05        57.75483
499.49        57.74448
499.93        57.65394
500.37         57.7425
500.82        57.96578
501.26        58.07985
501.70        58.07808
502.14        57.93839
502.58        58.13694
503.02         57.8772
503.46        57.83095
503.90        57.62204
504.34         57.4464
504.78        57.33132
505.22        57.30894
505.66        57.33855
506.10        57.36824
506.54        57.45712
506.98        57.61019
507.42        57.25477
507.86        57.46199
508.30        57.35221
508.74        57.34178
509.18        57.30405
509.62        57.27231
510.06        57.26912
510.50        57.26616
510.94        57.20166
511.38        57.08718
511.82        57.00517
512.26        56.96131
512.70        56.91369
513.14        56.85123
513.58        56.77552
514.02        56.68623
514.46        56.58429
514.90        56.48018
515.34        56.43483
515.78        56.46154
516.22            56.5
516.66        56.37663
517.10        56.68779
517.54        56.44451
517.98        56.42032
518.42        56.35749
518.86        56.33445
519.30        56.35847
519.74        56.38168
520.18         56.3971
520.62        56.45769
521.06        56.51644
521.50        56.38807
521.93        56.12748
522.37        56.00118
522.81        56.03779
523.25        56.09666
523.69        56.14852
524.13        56.20173
524.57        56.24047
525.01        56.26327
525.45        56.26506
525.89        56.23665
526.32        56.17995
526.76        56.10513
527.20        56.02857
527.64        55.98619
528.08        55.98627
528.52        56.00483
528.96        56.03484
529.40        56.09291
529.83        56.15068
530.27        56.15765
530.71        56.10858
531.15        56.06645
531.59        56.03606
532.03        55.97597
532.46        55.90044
532.90          55.869
533.34        55.88188
533.78        55.92309
534.22        55.96038
534.66        55.94166
535.09        55.85271
535.53        55.73648
535.97        55.61312
536.41        55.52937
536.85        55.49897
537.28        55.50295
537.72        55.54157
538.16        55.61493
538.60        55.71149
539.04        55.83135
539.47        55.92109
539.91         55.9467
540.35        55.88905
540.79        55.76515
541.22        55.62898
541.66        55.58384
542.10        55.64488
542.54        55.77721
542.97        55.91932
543.41        56.00213
543.85        56.00286
544.29        55.96183
544.72        55.88973
545.16        55.85254
545.60        55.85483
546.04        55.80713
546.47        55.75417
546.91        55.89897
547.35        56.15787
547.79        56.25355
548.22        56.14367
548.66        55.91326
549.10        55.66504
549.53         55.6347
549.97        55.79317
550.41        55.80388
550.84        55.66153
551.28        55.55976
551.72        55.51364
552.15        55.54583
552.59        55.69109
553.03        55.50243
553.46        55.75517
553.90        55.74766
554.34        55.67862
554.77        55.65532
555.21        55.75797
555.65        55.47683
556.08        55.64055
556.52         55.8701
556.96        55.85044
557.39        55.87767
557.83        55.80569
558.27        55.64298
558.70        55.45095
559.14        55.36926
559.57        55.41566
560.01        55.60209
560.45        55.81086
560.88         55.8243
561.32        55.68901
561.75        55.46725
562.19        55.29615
562.63        55.41279
563.06         55.7257
563.50        55.78713
563.93        55.57832
564.37        55.44184
564.80        55.40635
565.24        55.45704
565.68        55.56849
566.11        55.61338
566.55        55.60057
566.98        55.66785
567.42        55.82765
567.85        55.77893
568.29        55.82653
568.72        55.86864
569.16         56.0351
569.60        56.13908
570.03        56.38057
570.47        56.59363
570.90        56.74081
571.34        56.94995
571.77        57.01767
572.21        56.79397
572.64        56.97312
573.08        56.69012
573.51        56.76111
573.95        57.12618
574.38         57.2625
574.82        57.47105
