SpectraSmart Spectrum 2.9.0.0
--------- Device Information -----------
Spectrum Name :  反射率_0
Saving Time :  2024/04/21 00:07:22
Spectro-Module Model Name : SE2030-DUVN
Spectro-Module Serial Number : OS361AC55029948
Wavelength Start : 200
Wavelength End : 1025
Wavelength Unit : Wavelength(nm)
Spectrum Unit : Reflectance(%)
-----------Spectrum Setting ------------
Integration Time : 20ms
Average : 10
Boxcar : 0
Background removal :  enabled
linearity correction :  enabled
SC :  disabled
Intensity correction :  disabled
DWT denoise :  enabled
savitzky-golay :  disabled
FFT :  disabled
Running average :  disabled
Kalman :  disabled
High pass :  disabled
---------------BEGIN--------------------
Wavelength(nm)             Reflectance(%)
200.29               0
200.75       -83.42639
201.21       -17.51904
201.67        17.59831
202.13        29.06393
202.58        26.46828
203.04        15.34294
203.50       -2.169267
203.96       -17.87011
204.42       -25.86166
204.88       -29.65134
205.34       -29.02402
205.80       -23.85903
206.26       -13.69453
206.72        6.933289
207.18        30.41211
207.64        34.46681
208.10        11.27924
208.55       -31.89058
209.01       -63.71929
209.47       -44.36167
209.93       -4.057772
210.39        29.91294
210.85        53.04027
211.31        66.26348
211.77        73.78701
212.23        79.85604
212.69        83.52453
213.14        76.19012
213.60        32.84416
214.06       -149.5354
214.52       -701.6677
214.98       -379.7742
215.44       -106.9845
215.90       -6.197178
216.36        30.25846
216.81         38.3399
217.27        26.81414
217.73        -45.5555
218.19        852.6071
218.65        383.2378
219.11       -807.7628
219.57       -23.02648
220.02        26.46887
220.48        33.68744
220.94        25.57164
221.40      -0.9784051
221.86        -62.3906
222.32         -98.779
222.77       -40.23086
223.23        9.129731
223.69        33.22637
224.15        40.22804
224.61        38.09303
225.06        31.36605
225.52        22.04475
225.98        13.06702
226.44        6.195706
226.90      -0.5109267
227.36        -3.27516
227.81        3.792082
228.27        15.86134
228.73        27.79946
229.19        35.45469
229.65        36.82117
230.10        33.02616
230.56        25.59354
231.02        15.94172
231.48        9.746794
231.93        10.92133
232.39        17.19085
232.85        24.23871
233.31        28.50751
233.77        30.24211
234.22        31.12817
234.68        31.38058
235.14        31.23261
235.60        31.12604
236.05        30.11563
236.51        28.78411
236.97        33.67207
237.43        44.99643
237.88        53.68762
238.34        56.45587
238.80         73.5631
239.26         66.2319
239.71         61.9142
240.17          51.051
240.63        41.35992
241.08        39.32204
241.54        48.47344
242.00        65.05722
242.46        73.76083
242.91        69.77787
243.37        52.52072
243.83        24.97988
244.28        5.333231
244.74        6.589908
245.20        20.34912
245.66        35.87404
246.11        42.59764
246.57        38.92685
247.03        28.82119
247.48        13.96379
247.94       -3.571236
248.40        -26.9617
248.85       -79.80113
249.31       -235.3211
249.77       -344.7734
250.22         -101.48
250.68       -3.843626
251.14        28.31748
251.59        40.61349
252.05        47.16308
252.51        52.90672
252.96        58.04035
253.42        61.07554
253.88        60.92646
254.33        58.45953
254.79        59.83167
255.25        67.42593
255.70        76.56789
256.16        84.47218
256.62        89.17155
257.07         89.6862
257.53        88.05345
257.99        85.41639
258.44         82.4587
258.90        80.64657
259.35        79.28838
259.81        78.41032
260.27        77.61121
260.72        76.62963
261.18        75.86889
261.63        75.00755
262.09        74.18423
262.55        72.89577
263.00        71.09906
263.46        69.23343
263.91        67.41102
264.37         66.3584
264.83        65.96072
265.28         65.8661
265.74        65.89177
266.19        65.49747
266.65        64.69536
267.11        63.58942
267.56        62.23361
268.02         60.8289
268.47        59.39804
268.93         57.9422
269.38        56.51347
269.84        55.28548
270.30        54.26371
270.75        53.41335
271.21        52.64846
271.66        51.73127
272.12        50.65456
272.57        49.45794
273.03        48.26592
273.48        47.18425
273.94        46.27951
274.39        45.46284
274.85        44.73271
275.31        43.99905
275.76        43.22746
276.22        42.49257
276.67        41.78551
277.13        41.20745
277.58        40.69969
278.04        40.26677
278.49        39.79794
278.95        39.26425
279.40        38.60011
279.86        37.88869
280.31        37.11733
280.77        36.38597
281.22        35.68209
281.68        35.06672
282.13        34.50344
282.59        34.04179
283.04        33.64618
283.50        33.33295
283.95        33.10759
284.41        33.02647
284.86        33.05973
285.32        33.20747
285.77        33.34299
286.22        33.32201
286.68        33.15101
287.13          32.835
287.59        32.56525
288.04        32.51647
288.50        32.70456
288.95        33.14863
289.41        33.73355
289.86        33.84147
290.32        33.38418
290.77        34.11837
291.22        33.33154
291.68        33.46632
292.13        33.74509
292.59        34.21268
293.04        34.87828
293.50        35.82785
293.95        37.06219
294.40        38.53125
294.86        40.12043
295.31        41.62934
295.77         43.0049
296.22        44.27232
296.68        45.52391
297.13        46.90009
297.58        48.45634
298.04        50.14732
298.49        51.92606
298.95        53.74236
299.40        55.54896
299.85        57.37841
300.31        59.21254
300.76        60.98114
301.21        62.69528
301.67        64.39532
302.12        66.11883
302.58        68.05585
303.03        70.18951
303.48        72.50893
303.94        74.91727
304.39         77.1973
304.84         79.3011
305.30        81.29408
305.75        83.19665
306.20        85.17044
306.66        87.25446
307.11        89.34436
307.57        91.39467
308.02        93.24116
308.47        94.89214
308.93        96.42698
309.38        97.89259
309.83        99.45927
310.29        101.1627
310.74        102.9087
311.19         104.596
311.65        106.0513
312.10        107.2128
312.55        108.1416
313.00         108.934
313.46        109.7484
313.91        110.6145
314.36        111.5057
314.82        112.3702
315.27        113.1086
315.72        113.7194
316.18        114.2492
316.63        114.7657
317.08        115.3728
317.53        116.0828
317.99        116.8379
318.44        117.5736
318.89        118.1764
319.35        118.6088
319.80        118.9187
320.25         119.118
320.70         119.236
321.16         119.291
321.61        119.2961
322.06        119.3121
322.51        119.4458
322.97        119.6992
323.42        120.0952
323.87        120.5228
324.32        120.8086
324.78        120.8906
325.23        120.8614
325.68         120.811
326.13        120.9266
326.59        121.2288
327.04        121.7203
327.49        122.2802
327.94        122.7473
328.39        123.0681
328.85        123.2493
329.30        123.4284
329.75        123.6804
330.20        124.0367
330.66        124.4178
331.11        124.8417
331.56        125.1852
332.01        125.4243
332.46        125.5925
332.92        125.6952
333.37        125.9012
333.82        126.1997
334.27        126.5887
334.72        127.0392
335.17        127.5008
335.63        127.9236
336.08        128.3781
336.53        128.8989
336.98        129.5965
337.43        130.4752
337.88        131.4885
338.34        132.4406
338.79        133.0896
339.24        133.3482
339.69        133.2974
340.14        133.1591
340.59        133.2924
341.05        133.7871
341.50        134.5561
341.95        135.4146
342.40        136.0523
342.85        136.3885
343.30        136.5333
343.75        136.6217
344.20        136.8694
344.66        137.3362
345.11         137.897
345.56        138.4796
346.01         138.985
346.46        139.3755
346.91        139.6552
347.36        139.7688
347.81        139.7504
348.26        139.6416
348.72        139.0093
349.17        138.8148
349.62        138.6269
350.07        138.7443
350.52        139.0764
350.97        139.4999
351.42        139.7871
351.87        139.8457
352.32        139.7287
352.77        139.4808
353.22        139.1752
353.67        138.8437
354.13        138.4874
354.58        138.0578
355.03         137.547
355.48         136.968
355.93        136.3396
356.38        135.7537
356.83        135.3347
357.28        135.0832
357.73        134.9483
358.18        134.7681
358.63        134.2873
359.08         133.461
359.53        132.3797
359.98        131.2159
360.43        130.2343
360.88        129.4963
361.33        128.9144
361.78         128.385
362.23        127.7432
362.68        126.9416
363.13        126.0469
363.58        125.0886
364.03        124.1049
364.48        123.1179
364.93         122.107
365.38        121.1127
365.83        120.2096
366.28        119.4083
366.73        118.6918
367.18         117.995
367.63        117.2085
368.08        116.3106
368.53        115.3414
368.98        114.3485
369.43        113.3948
369.88        112.4959
370.33        111.6271
370.78        110.7814
371.23        109.9688
371.68        109.1947
372.13        108.4578
372.58        107.7612
373.03        107.0889
373.48        106.4243
373.93        105.7748
374.38        105.0929
374.83        104.3159
375.28        103.4583
375.72        102.5305
376.17        101.6805
376.62        101.0295
377.07         100.576
377.52        100.2513
377.97        99.94286
378.42        99.47648
378.87        98.82124
379.32        98.05989
379.77         97.2522
380.22        96.46397
380.67        95.71413
381.11        94.97933
381.56        94.29728
382.01        93.76648
382.46        93.40833
382.91        93.20399
383.36        93.03942
383.81        92.73057
384.26        92.23322
384.71        91.58942
385.15        90.89572
385.60        90.38023
386.05        90.06081
386.50        89.87711
386.95        89.70757
387.40        89.37228
387.85        88.84634
388.29        88.15045
388.74        87.52417
389.19        87.05698
389.64        86.76559
390.09        86.60222
390.54        86.45963
390.98        86.15076
391.43         85.6846
391.88        85.11637
392.33        84.59206
392.78        84.21121
393.23        83.97421
393.67         84.0352
394.12        84.32737
394.57        83.78634
395.02        83.13268
395.47        82.96865
395.91        83.37326
396.36        83.26018
396.81        82.60355
397.26        82.02143
397.71        81.61735
398.15        81.21955
398.60        80.93214
399.05        80.80587
399.50        80.77675
399.95        80.56242
400.39        80.22649
400.84        80.18484
401.29        80.35793
401.74        80.11338
402.18        79.48344
402.63        79.00208
403.08        78.73492
403.53        78.43879
403.97        78.13375
404.42        77.98705
404.87        77.94906
405.32        77.90477
405.76        77.82035
406.21        77.68835
406.66        77.49955
407.11        77.37587
407.55        77.28508
408.00        76.89965
408.45        76.32557
408.90        75.97343
409.34        75.89239
409.79        75.92989
410.24        75.98611
410.68        75.96007
411.13        75.82101
411.58        75.61015
412.03        75.37962
412.47        75.23933
412.92        75.19109
413.37        75.20488
413.81         75.2448
414.26        75.32019
414.71        75.39417
415.15        75.49184
415.60        75.52505
416.05        75.40996
416.49        75.14132
416.94        74.74448
417.39        74.33272
417.83        74.06537
418.28         73.9846
418.73        74.05217
419.17        74.17084
419.62        74.18409
420.07        74.04694
420.51        73.79663
420.96        73.55546
421.41         73.4269
421.85        73.39864
422.30        73.54814
422.74        73.73133
423.19        73.67406
423.64        73.41036
424.08        73.43681
424.53        73.66378
424.98        73.67091
425.42        73.45308
425.87        73.19447
426.31        73.01086
426.76        73.04364
427.21        73.26958
427.65        73.47865
428.10        73.54158
428.54        73.53393
428.99        73.47519
429.44        73.22655
429.88        72.87514
430.33        72.78355
430.77        72.86026
431.22        72.97164
431.66        73.03065
432.11        72.97424
432.56        72.83765
433.00        72.71677
433.45        72.50879
433.89        72.46305
434.34        72.58907
434.78        72.33563
435.23        71.64674
435.67        72.65952
436.12        72.81683
436.57        72.94896
437.01        72.43638
437.46        72.07627
437.90        72.70977
438.35        72.44494
438.79        72.66234
439.24        72.61691
439.68        72.63505
440.13        72.40849
440.57        72.06665
441.02        72.19361
441.46         72.6758
441.91        72.88675
442.35        72.74731
442.80        72.87778
443.24        73.17482
443.69        73.22015
444.13        73.02084
444.58        72.79578
445.02        72.63492
445.47        72.83912
445.91        73.27869
446.36        73.45903
446.80        73.32446
447.24        73.10655
447.69        72.91128
448.13         72.9558
448.58        73.02762
449.02        73.04824
449.47        72.94647
449.91        72.89297
450.36        72.90215
450.80        72.78197
451.25        72.58502
451.69        72.53754
452.13        72.59211
452.58        72.38387
453.02        71.96184
453.47         71.7243
453.91        71.67942
454.36        71.64027
454.80        71.55273
455.24        71.38583
455.69        71.14415
456.13        70.87229
456.58        70.68317
457.02        70.38422
457.46        70.42156
457.91        70.44295
458.35        70.60781
458.79         70.6268
459.24        70.53831
459.68        70.35582
460.13        70.14292
460.57        69.94003
461.01         69.7976
461.46        69.52808
461.90        69.47108
462.34        69.31279
462.79         68.8075
463.23        68.88696
463.68        69.30698
464.12         69.2988
464.56        68.89148
465.01        68.90836
465.45        69.18192
465.89        69.16299
466.34        68.88487
466.78        68.51109
467.22        68.10177
467.67        68.18758
468.11        67.70261
468.55        67.74359
468.99         67.8912
469.44        67.87585
469.88        67.65874
470.32        67.38922
470.77        67.13476
471.21        66.91952
471.65        66.76801
472.10        66.67158
472.54        66.61608
472.98        66.58348
473.42        66.56177
473.87        66.62088
474.31        66.68472
474.75        66.62342
475.20        66.46394
475.64        66.42611
476.08        66.50745
476.52        66.49374
476.97        66.34694
477.41        66.36716
477.85        66.53545
478.29        66.21693
478.74        65.79762
479.18        66.10706
479.62        66.13301
480.06        66.26467
480.50        66.15858
480.95        66.18968
481.39        66.32176
481.83        66.12038
482.27        66.28492
482.72        66.02998
483.16        66.08199
483.60        65.98193
484.04        66.22891
484.48        66.07634
484.93        66.33636
485.37        65.81266
485.81        66.47443
486.25        65.90969
486.69        67.96542
487.14        68.36071
487.58        66.81018
488.02        65.77448
488.46        65.62915
488.90        65.85828
489.34        65.35117
489.79        64.87315
490.23        65.77927
490.67        65.91262
491.11        65.75797
491.55        65.52424
491.99        65.32771
492.43         65.1494
492.88        64.99542
493.32        65.13761
493.76         65.0619
494.20        65.10178
494.64        65.13566
495.08        64.89565
495.52         64.8874
495.96        64.93641
496.41        65.12166
496.85        65.05178
497.29        64.74592
497.73        64.88293
498.17        65.03345
498.61        65.01915
499.05        64.72863
499.49        64.34428
499.93        64.05268
500.37        64.25823
500.82        64.81827
501.26        65.08743
501.70        64.97874
502.14        64.57744
502.58        64.52907
503.02        64.16655
503.46        64.21178
503.90        64.19077
504.34        64.21138
504.78        64.22551
505.22        64.23468
505.66        64.14044
506.10        63.98458
506.54        64.08623
506.98         64.4387
507.42        63.99032
507.86         64.5561
508.30        63.87457
508.74        64.18876
509.18        63.96381
509.62         63.7588
510.06        63.67134
510.50        63.69529
510.94        63.71804
511.38        63.69801
511.82        63.68836
512.26        63.67448
512.70        63.62202
513.14         63.5446
513.58        63.48287
514.02        63.44457
514.46        63.41916
514.90        63.38601
515.34        63.34739
515.78        63.30556
516.22          63.244
516.66        63.02665
517.10        63.25195
517.54        63.08636
517.98        63.16906
518.42        63.22954
518.86        63.25337
519.30        63.22943
519.74         63.1314
520.18        63.01165
520.62        63.03059
521.06        63.15313
521.50        63.13321
521.93        62.97498
522.37        62.88554
522.81        62.87641
523.25        62.83321
523.69        62.75472
524.13        62.69535
524.57        62.66022
525.01        62.63219
525.45        62.63282
525.89        62.69634
526.32        62.81764
526.76         62.9861
527.20        63.14832
527.64        63.22285
528.08        63.19154
528.52        63.08141
528.96        62.94117
529.40        62.83998
529.83        62.79799
530.27         62.8285
530.71        62.88857
531.15        62.90631
531.59         62.8681
532.03        62.80171
532.46        62.73816
532.90        62.73841
533.34         62.8052
533.78        62.91265
534.22        63.01387
534.66        63.04055
535.09        62.97034
535.53        62.84958
535.97         62.7042
536.41        62.59179
536.85        62.53123
537.28        62.50672
537.72        62.50798
538.16        62.51939
538.60        62.53076
539.04        62.54816
539.47        62.55153
539.91        62.56036
540.35        62.55887
540.79        62.55013
541.22        62.53215
541.66        62.51836
542.10        62.50832
542.54        62.49716
542.97        62.48935
543.41        62.52473
543.85        62.59692
544.29        62.70227
544.72        62.79526
545.16        62.84936
545.60        62.84583
546.04        62.75993
546.47        62.64676
546.91        62.67839
547.35        62.82783
547.79        62.89431
548.22        62.83024
548.66        62.75619
549.10        62.67742
549.53        62.52531
549.97        62.34417
550.41        62.21972
550.84        62.16996
551.28        62.17638
551.72        62.22506
552.15        62.27621
552.59        62.32484
553.03        62.41772
553.46        62.43919
553.90        62.43239
554.34         62.3591
554.77        62.22865
555.21        62.09574
555.65        62.03328
556.08        62.04898
556.52        62.13596
556.96        62.24144
557.39        62.30051
557.83        62.30584
558.27        62.24705
558.70        62.14664
559.14        62.09221
559.57        62.08173
560.01        62.13057
560.45        62.19139
560.88         62.1678
561.32         62.1192
561.75        62.07179
562.19        62.07439
562.63        62.18427
563.06        62.33002
563.50        62.22411
563.93        61.91462
564.37        61.82397
564.80        61.92973
565.24        61.98707
565.68        61.98027
566.11        62.01643
566.55        62.10639
566.98        62.22315
567.42        62.35809
567.85        62.35027
568.29        62.27131
568.72        62.32541
569.16        62.56944
569.60        62.60789
570.03        62.71805
570.47        62.88265
570.90        63.12129
571.34        63.00894
571.77        63.17522
572.21        63.14127
572.64        63.10762
573.08        63.18908
573.51        62.81673
573.95        63.46147
574.38        63.81357
574.82        64.04601
