SpectraSmart Spectrum 2.9.0.0
--------- Device Information -----------
Spectrum Name :  反射率_0
Saving Time :  2024/04/21 00:01:29
Spectro-Module Model Name : SE2030-DUVN
Spectro-Module Serial Number : OS361AC55029948
Wavelength Start : 200
Wavelength End : 1025
Wavelength Unit : Wavelength(nm)
Spectrum Unit : Reflectance(%)
-----------Spectrum Setting ------------
Integration Time : 20ms
Average : 10
Boxcar : 0
Background removal :  enabled
linearity correction :  enabled
SC :  disabled
Intensity correction :  disabled
DWT denoise :  enabled
savitzky-golay :  disabled
FFT :  disabled
Running average :  disabled
Kalman :  disabled
High pass :  disabled
---------------BEGIN--------------------
Wavelength(nm)             Reflectance(%)
200.29               0
200.75       -18.10726
201.21        6.929984
201.67        19.85037
202.13         24.3995
202.58        23.99769
203.04        21.23223
203.50        16.39135
203.96        10.77318
204.42        5.444792
204.88       -1.097862
205.34       -7.199222
205.80       -11.38734
206.26       -13.41807
206.72        -9.45598
207.18       -6.076618
207.64       -20.03066
208.10       -54.00358
208.55       -101.9408
209.01       -125.9979
209.47       -86.14474
209.93       -27.18426
210.39        20.25113
210.85        50.19144
211.31        62.58356
211.77        62.21846
212.23        50.83205
212.69         23.9027
213.14        -20.3912
213.60        -84.4017
214.06       -238.7159
214.52       -512.2789
214.98       -168.1593
215.44       -9.879432
215.90         37.7943
216.36         50.9645
216.81        47.01547
217.27         24.3667
217.73       -81.22156
218.19        1182.281
218.65        516.2393
219.11       -1119.898
219.57       -42.71382
220.02        26.14566
220.48         38.8054
220.94        33.12614
221.40        8.724299
221.86       -51.54753
222.32       -94.12792
222.77       -43.41627
223.23        2.416418
223.69        26.28004
224.15        35.53354
224.61        37.50708
225.06        36.67189
225.52        33.66422
225.98        28.47877
226.44        21.76892
226.90        12.45611
227.36        5.257928
227.81        9.058384
228.27        20.24091
228.73        32.30108
229.19        40.32474
229.65        41.89234
230.10        38.07001
230.56        30.55036
231.02        20.61644
231.48        13.73467
231.93        14.01797
232.39        19.40566
232.85        26.02083
233.31        30.69832
233.77        33.58333
234.22        36.17064
234.68        38.34703
235.14        39.60242
235.60        40.00808
236.05        38.89874
236.51        36.89064
236.97        40.16115
237.43        49.31393
237.88        56.00674
238.34        57.04581
238.80        73.29595
239.26        66.25812
239.71        63.82189
240.17        56.32304
240.63        49.65473
241.08        48.50315
241.54        55.46546
242.00        68.48106
242.46        77.26324
242.91        79.11143
243.37        73.55871
243.83        62.59085
244.28        55.90972
244.74        59.34258
245.20        68.87063
245.66        76.39909
246.11        73.16436
246.57         58.3507
247.03        34.12507
247.48        5.666481
247.94       -17.82362
248.40       -34.53816
248.85       -51.14373
249.31       -68.36501
249.77       -48.28063
250.22       -15.11192
250.68       -8.347425
251.14       -6.132045
251.59       -2.807533
252.05        2.916543
252.51        11.83711
252.96        25.46394
253.42        43.00786
253.88        58.50776
254.33        70.18089
254.79        76.97691
255.25        78.33532
255.70        77.03677
256.16        75.29951
256.62        74.93163
257.07        77.18146
257.53        81.41116
257.99        85.85966
258.44        88.91039
258.90        90.03728
259.35        88.92707
259.81         87.1214
260.27        84.90953
260.72        82.68282
261.18        81.12373
261.63        79.66164
262.09        78.60664
262.55        77.63359
263.00        76.55079
263.46        75.64241
263.91        74.71247
264.37        74.10016
264.83         73.6489
265.28        73.19197
265.74        72.70911
266.19        71.82589
266.65        70.62997
267.11        69.16177
267.56        67.53484
268.02        66.05837
268.47        64.74545
268.93        63.56738
269.38        62.43662
269.84        61.30165
270.30        60.11967
270.75         58.9262
271.21        57.75023
271.66        56.53403
272.12        55.33096
272.57        54.12539
273.03        53.00347
273.48        52.00559
273.94        51.17599
274.39        50.43706
274.85        49.79644
275.31        49.16144
275.76        48.49159
276.22        47.86245
276.67        47.23014
277.13        46.66932
277.58         46.1167
278.04        45.59476
278.49        45.04398
278.95        44.52715
279.40        43.97094
279.86        43.42543
280.31        42.78956
280.77        42.05124
281.22        41.17669
281.68        40.28492
282.13        39.40717
282.59        38.70048
283.04        38.15604
283.50        37.77375
283.95        37.52482
284.41        37.42267
284.86        37.42173
285.32        37.53734
285.77         37.6656
286.22        37.70418
286.68        37.65182
287.13        37.47599
287.59        37.31385
288.04        37.25639
288.50        37.31551
288.95        37.54006
289.41        37.85638
289.86        37.72391
290.32        37.08153
290.77        37.57233
291.22        36.66282
291.68        36.71413
292.13        36.98015
292.59        37.48798
293.04        38.16323
293.50        38.95806
293.95         39.8486
294.40        40.82683
294.86        41.87495
295.31        42.95244
295.77        44.04677
296.22         45.1338
296.68        46.23134
297.13        47.35892
297.58        48.53717
298.04        49.75891
298.49        51.01301
298.95        52.30918
299.40        53.61682
299.85        54.93513
300.31        56.23557
300.76        57.44009
301.21        58.55214
301.67        59.62453
302.12        60.67244
302.58         61.8354
303.03        63.10394
303.48        64.49052
303.94        65.96406
304.39        67.41805
304.84        68.83096
305.30        70.23598
305.75        71.60899
306.20         73.0276
306.66        74.49826
307.11        75.94163
307.57        77.32877
308.02        78.53823
308.47        79.57967
308.93        80.53073
309.38        81.40826
309.83        82.29595
310.29        83.28455
310.74        84.26962
311.19        85.26044
311.65        86.22594
312.10        87.13243
312.55        87.99715
313.00        88.79096
313.46         89.4705
313.91        90.01863
314.36        90.45662
314.82        90.84768
315.27        91.28674
315.72        91.80306
316.18        92.37276
316.63        92.94039
317.08        93.41631
317.53        93.77364
317.99        94.03634
318.44        94.24519
318.89        94.45244
319.35        94.67309
319.80          94.894
320.25        95.09858
320.70        95.26723
321.16        95.38775
321.61        95.49156
322.06        95.58292
322.51         95.6712
322.97        95.75153
323.42         95.8558
323.87        95.98176
324.32        96.14408
324.78        96.32581
325.23        96.55235
325.68        96.79791
326.13        97.04923
326.59        97.27164
327.04        97.51008
327.49        97.72514
327.94        97.88851
328.39        97.99789
328.85        98.03657
329.30        98.09117
329.75        98.18526
330.20        98.33601
330.66        98.50141
331.11        98.73052
331.56        98.97436
332.01        99.22135
332.46          99.477
332.92         99.6885
333.37        99.89812
333.82        100.0682
334.27        100.2151
334.72        100.3705
335.17        100.5886
335.63        100.8604
336.08        101.2241
336.53        101.6537
336.98        102.1484
337.43        102.6853
337.88        103.2432
338.34        103.7444
338.79        104.1194
339.24        104.3248
339.69         104.391
340.14        104.3649
340.59        104.3273
341.05        104.3228
341.50        104.3568
341.95        104.4549
342.40        104.6556
342.85        104.9607
343.30        105.3555
343.75        105.7976
344.20        106.2182
344.66        106.5905
345.11        106.8961
345.56         107.125
346.01        107.2693
346.46        107.3372
346.91        107.3332
347.36        107.2722
347.81        107.2033
348.26        107.1489
348.72        107.0352
349.17        107.0148
349.62        107.0174
350.07         107.082
350.52        107.1768
350.97        107.2407
351.42         107.175
351.87        106.9479
352.32        106.5882
352.77        106.1267
353.22        105.6092
353.67        105.0656
354.13        104.5173
354.58        103.9608
355.03         103.443
355.48        102.9776
355.93        102.5522
356.38        102.1773
356.83        101.8605
357.28        101.5748
357.73        101.2956
358.18         100.935
358.63        100.3631
359.08        99.56639
359.53        98.59884
359.98        97.56669
360.43        96.62811
360.88        95.83093
361.33         95.1423
361.78        94.51932
362.23        93.88966
362.68        93.22673
363.13        92.54695
363.58        91.86695
364.03        91.20674
364.48        90.56581
364.93        89.93326
365.38        89.26265
365.83        88.49245
366.28        87.61664
366.73        86.64905
367.18        85.68794
367.63        84.88877
368.08        84.28062
368.53        83.82915
368.98        83.38454
369.43        82.69811
369.88        81.72091
370.33        80.52584
370.78        79.30465
371.23        78.40424
371.68        77.92531
372.13        77.75983
372.58        77.72507
373.03        77.52121
373.48        77.05435
373.93        76.41372
374.38        75.67918
374.83        74.99319
375.28        74.41434
375.72        73.87453
376.17        73.38884
376.62        72.93259
377.07        72.47923
377.52        72.03296
377.97        71.56238
378.42        71.01944
378.87        70.41859
379.32        69.79941
379.77        69.19712
380.22        68.64813
380.67        68.15378
381.11        67.69537
381.56         67.2869
382.01        66.96925
382.46        66.74376
382.91        66.59665
383.36        66.44485
383.81        66.15888
384.26        65.71672
384.71         65.1589
385.15        64.56774
385.60        64.13349
386.05        63.87309
386.50        63.73231
386.95        63.63488
387.40        63.46399
387.85         63.1929
388.29        62.82817
388.74        62.48257
389.19        62.15163
389.64        61.83392
390.09        61.49624
390.54        61.15291
390.98        60.82633
391.43        60.56755
391.88         60.3798
392.33        60.20499
392.78        59.99028
393.23        59.73692
393.67        59.32314
394.12        58.93341
394.57        58.94305
395.02        59.24329
395.47        59.20448
395.91        58.81808
396.36        58.57294
396.81        58.50296
397.26        58.33773
397.71        58.06847
398.15         57.8341
398.60        57.70792
399.05        57.46482
399.50        57.22298
399.95        57.40924
400.39        57.88226
400.84        58.01656
401.29        57.74499
401.74        57.23025
402.18        56.66808
402.63        56.54063
403.08        56.77371
403.53        56.66495
403.97        56.18956
404.42        55.84849
404.87        55.67749
405.32        55.53886
405.76        55.43296
406.21        55.32586
406.66        55.22725
407.11        55.30826
407.55        55.48575
408.00        55.39571
408.45        55.05404
408.90        54.64876
409.34        54.32039
409.79        54.33533
410.24         54.6007
410.68        54.67048
411.13        54.51215
411.58         54.4058
412.03          54.373
412.47         54.3216
412.92        54.24139
413.37        54.16943
413.81        54.11881
414.26        54.15096
414.71        54.25333
415.15         54.4179
415.60        54.56873
416.05        54.62121
416.49        54.55553
416.94        54.39305
417.39         54.1916
417.83        54.03646
418.28        53.95161
418.73        53.90401
419.17        53.88076
419.62        53.87172
420.07        53.87257
420.51        53.89605
420.96        53.92737
421.41        53.93294
421.85        53.89681
422.30        53.76455
422.74         53.6054
423.19        53.83386
423.64         54.3531
424.08        54.61189
424.53        54.53032
424.98        54.59972
425.42        54.83991
425.87        54.85196
426.31        54.69508
426.76        54.78583
427.21         55.0708
427.65         55.1111
428.10        54.90387
428.54        54.82116
428.99        54.90105
429.44         54.9794
429.88        55.00788
430.33        54.96124
430.77        54.83989
431.22         54.9255
431.66         55.1661
432.11        55.29835
432.56        55.32856
433.00        55.31454
433.45        55.10289
433.89        55.08075
434.34        55.40808
434.78        54.65094
435.23        54.45234
435.67        55.88254
436.12        56.06092
436.57        56.29086
437.01        55.72765
437.46        55.45938
437.90        56.13138
438.35        55.86256
438.79        56.07796
439.24        56.00621
439.68          56.042
440.13        56.01838
440.57        55.96158
441.02        56.15094
441.46        56.46453
441.91        56.38615
442.35        56.01509
442.80        56.18818
443.24        56.78196
443.69        57.04114
444.13          56.889
444.58        56.74396
445.02        56.65943
445.47        56.69966
445.91        56.82905
446.36        56.87379
446.80         56.8201
447.24        56.76231
447.69         56.7369
448.13        56.88663
448.58        57.00489
449.02        56.95948
449.47        56.74036
449.91        56.63704
450.36        56.68535
450.80        56.65174
451.25         56.5769
451.69        56.66822
452.13        56.87846
452.58         56.9053
453.02        56.75141
453.47         56.6767
453.91        56.68526
454.36        56.64678
454.80        56.53089
455.24        56.41054
455.69        56.31545
456.13        56.08434
456.58        55.82123
457.02        55.95734
457.46        56.21915
457.91        56.16124
458.35        55.85869
458.79        55.69281
459.24        55.69759
459.68        55.64626
460.13        55.59151
460.57        55.42438
461.01        55.13221
461.46        55.54805
461.90        55.19264
462.34        55.11178
462.79        55.12206
463.23        54.84747
463.68         55.4409
464.12         55.1867
464.56        54.58861
465.01        54.64944
465.45        55.18853
465.89        55.21363
466.34        54.80299
466.78        54.74083
467.22        54.96811
467.67        55.10005
468.11        54.46354
468.55        54.27703
468.99        54.35831
469.44        54.34774
469.88        54.24011
470.32        54.23156
470.77        54.31465
471.21        54.36165
471.65        54.35916
472.10         54.3459
472.54        54.29541
472.98        54.20703
473.42          54.094
473.87        53.90649
474.31        53.68703
474.75        53.72779
475.20         53.9529
475.64        53.96504
476.08        53.79672
476.52        53.70328
476.97        53.65829
477.41         53.7364
477.85        53.95136
478.29        53.24993
478.74        53.47362
479.18        53.27164
479.62        53.62156
480.06        53.68673
480.50        53.60588
480.95        53.59876
481.39        53.64048
481.83        53.58599
482.27        53.83911
482.72        53.63087
483.16        53.73081
483.60         53.8707
484.04        53.93298
484.48        53.67548
484.93        53.63096
485.37        53.40911
485.81        53.75687
486.25        53.44223
486.69        54.05079
487.14        53.96358
487.58        53.72824
488.02        53.74704
488.46        53.34838
488.90        53.63747
489.34        53.56793
489.79        53.05704
490.23        53.34475
490.67        53.26576
491.11        53.25609
491.55        53.17358
491.99        53.05894
492.43        53.00409
492.88        53.00219
493.32        53.01134
493.76        52.98292
494.20        52.99248
494.64        53.06548
495.08        52.78406
495.52        52.81332
495.96        52.86485
496.41        53.04222
496.85        52.93371
497.29        52.59101
497.73        52.61236
498.17        52.69457
498.61         52.8823
499.05        52.99294
499.49        52.73904
499.93        52.29264
500.37         52.4063
500.82          52.959
501.26         53.1386
501.70        52.89384
502.14        52.44646
502.58        52.32578
503.02        52.17642
503.46        52.11283
503.90        52.16268
504.34        52.26176
504.78        52.34001
505.22        52.38716
505.66        52.35034
506.10        52.24214
506.54        52.28294
506.98        52.51961
507.42        52.03936
507.86         52.5579
508.30          52.212
508.74        52.30157
509.18        52.14769
509.62        52.02467
510.06        51.96819
510.50        51.96231
510.94        51.93846
511.38        51.88243
511.82        51.85207
512.26        51.84315
512.70        51.82473
513.14        51.79057
513.58        51.74728
514.02        51.69715
514.46        51.63575
514.90        51.57031
515.34        51.56763
515.78        51.63997
516.22        51.70519
516.66        51.59768
517.10        51.96581
517.54        51.72101
517.98        51.72389
518.42        51.67785
518.86        51.64799
519.30        51.64366
519.74        51.62938
520.18        51.62568
520.62        51.71917
521.06        51.86875
521.50        51.88219
521.93        51.77835
522.37        51.75117
522.81        51.81242
523.25        51.85522
523.69        51.85235
524.13        51.81118
524.57        51.73268
525.01        51.62118
525.45        51.52678
525.89        51.52799
526.32        51.63424
526.76        51.82042
527.20        52.02604
527.64         52.1558
528.08        52.18301
528.52        52.13922
528.96        52.05669
529.40        51.98086
529.83        51.92855
530.27        51.90931
530.71        51.91096
531.15        51.91403
531.59        51.91284
532.03        51.91865
532.46        51.92266
532.90        51.91894
533.34        51.90086
533.78        51.87018
534.22        51.82604
534.66        51.76807
535.09        51.69454
535.53        51.62917
535.97        51.57173
536.41        51.53582
536.85        51.52443
537.28        51.52914
537.72        51.55519
538.16        51.61101
538.60        51.68791
539.04        51.77876
539.47        51.83559
539.91        51.83074
540.35        51.74683
540.79        51.60307
541.22        51.44135
541.66        51.34266
542.10         51.3237
542.54        51.36205
542.97         51.4234
543.41        51.47778
543.85        51.50962
544.29        51.54242
544.72        51.56436
545.16        51.60347
545.60         51.6502
546.04        51.62629
546.47        51.57762
546.91        51.69653
547.35        51.91041
547.79        51.97612
548.22        51.85229
548.66        51.58808
549.10        51.29546
549.53        51.25403
549.97         51.4431
550.41        51.50486
550.84        51.42144
551.28        51.41887
551.72        51.51031
552.15        51.58259
552.59        51.63727
553.03          51.624
553.46        51.85485
553.90        51.56486
554.34        51.68919
554.77        51.55378
555.21        51.46359
555.65        51.38561
556.08        51.45677
556.52        51.54461
556.96        51.63119
557.39        51.68564
557.83        51.69418
558.27        51.60774
558.70        51.47084
559.14        51.41258
559.57        51.44539
560.01        51.55179
560.45         51.6532
560.88        51.67088
561.32        51.63336
561.75        51.42989
562.19        51.20029
562.63        51.35517
563.06        51.77543
563.50        51.81109
563.93        51.47387
564.37        51.30449
564.80        51.33549
565.24        51.43117
565.68         51.5568
566.11        51.62069
566.55        51.61956
566.98        51.69991
567.42        51.83487
567.85        51.70627
568.29        51.43353
568.72        51.42019
569.16        51.67543
569.60        51.77184
570.03        51.71947
570.47        51.75048
570.90           51.84
571.34        51.75234
571.77        52.24761
572.21        51.75616
572.64        51.84154
573.08        51.75203
573.51        51.58878
573.95        51.93455
574.38        51.83498
574.82         52.3881
