SpectraSmart Spectrum 2.9.0.0
--------- Device Information -----------
Spectrum Name :  反射率_0
Saving Time :  2024/04/21 00:01:55
Spectro-Module Model Name : SE2030-DUVN
Spectro-Module Serial Number : OS361AC55029948
Wavelength Start : 200
Wavelength End : 1025
Wavelength Unit : Wavelength(nm)
Spectrum Unit : Reflectance(%)
-----------Spectrum Setting ------------
Integration Time : 20ms
Average : 10
Boxcar : 0
Background removal :  enabled
linearity correction :  enabled
SC :  disabled
Intensity correction :  disabled
DWT denoise :  enabled
savitzky-golay :  disabled
FFT :  disabled
Running average :  disabled
Kalman :  disabled
High pass :  disabled
---------------BEGIN--------------------
Wavelength(nm)             Reflectance(%)
200.29               0
200.75       -4.092567
201.21        30.54882
201.67        44.84596
202.13         45.3712
202.58        36.83421
203.04        20.70322
203.50      -0.4670348
203.96       -15.87707
204.42       -18.94871
204.88        -13.1525
205.34        -3.24763
205.80        3.744981
206.26        6.555609
206.72        9.660064
207.18         12.6273
207.64        13.43192
208.10        12.86271
208.55        9.729054
209.01        13.45027
209.47        33.05869
209.93        53.88211
210.39        68.78364
210.85        77.70921
211.31        81.55204
211.77        81.77855
212.23        78.76997
212.69        70.21346
213.14        51.63366
213.60        11.07571
214.06       -111.7176
214.52       -415.0354
214.98       -184.6571
215.44       -28.79312
215.90        26.05564
216.36        45.24649
216.81        48.96787
217.27          41.784
217.73       -2.034842
218.19        531.8192
218.65         241.783
219.11       -364.1697
219.57        30.71406
220.02        54.79989
220.48        57.72759
220.94         52.5555
221.40        37.02988
221.86       0.6334598
222.32       -24.61105
222.77        5.981418
223.23        33.81545
223.69        48.36698
224.15        54.00803
224.61        55.21372
225.06        54.61853
225.52        52.64054
225.98        49.20452
226.44        44.68531
226.90        38.32389
227.36        33.27621
227.81        35.50007
228.27        42.74937
228.73         50.6687
229.19        55.83945
229.65        56.42095
230.10        53.06009
230.56        46.99134
231.02        39.16241
231.48         33.8455
231.93        34.13597
232.39        38.31305
232.85        43.46918
233.31        47.29383
233.77        49.87273
234.22        52.42471
234.68        54.36072
235.14        54.36393
235.60        52.32004
236.05        47.89571
236.51        42.58903
236.97        44.09629
237.43        53.60704
237.88        62.71208
238.34        68.34698
238.80        82.89218
239.26        79.22321
239.71        75.94331
240.17        66.80688
240.63        57.51519
241.08         53.3737
241.54        56.56957
242.00        66.16555
242.46        72.79485
242.91        73.78709
243.37        70.04766
243.83        63.17059
244.28        59.22521
244.74        61.80994
245.20        67.42807
245.66         71.6132
246.11        70.07505
246.57        62.45115
247.03        50.30847
247.48        35.83588
247.94        22.90621
248.40        11.55038
248.85       -5.396059
249.31       -36.69881
249.77       -16.52877
250.22        45.86615
250.68        59.57856
251.14        62.07499
251.59        63.29585
252.05         65.3344
252.51        68.53278
252.96        73.43078
253.42        80.26717
253.88        87.08349
254.33        92.46843
254.79        97.33577
255.25        101.0725
255.70        103.0831
256.16        104.2908
256.62        104.6203
257.07         104.119
257.53        103.7089
257.99        103.0325
258.44         101.666
258.90        100.2673
259.35        98.25867
259.81        96.47752
260.27        94.80744
260.72        93.27808
261.18         92.3988
261.63        91.49593
262.09        90.84571
262.55        89.97799
263.00        88.71291
263.46        87.46565
263.91        86.02695
264.37        84.81436
264.83        83.72537
265.28        82.61432
265.74        81.60132
266.19        80.43696
266.65        79.22009
267.11         77.9236
267.56         76.5335
268.02          75.174
268.47        73.79925
268.93        72.42957
269.38        71.04624
269.84        69.72019
270.30        68.43879
270.75        67.19994
271.21        65.97354
271.66        64.60899
272.12        63.15171
272.57        61.61538
273.03        60.17583
273.48        58.98322
273.94        58.09523
274.39        57.37624
274.85        56.73447
275.31        55.92226
275.76        54.87708
276.22        53.74971
276.67        52.59113
277.13        51.62315
277.58        50.80983
278.04        50.14175
278.49        49.50121
278.95        48.88057
279.40        48.18796
279.86        47.51116
280.31        46.77612
280.77         46.0206
281.22        45.20333
281.68        44.40499
282.13        43.62181
282.59        42.98131
283.04        42.44909
283.50        42.03244
283.95        41.68023
284.41        41.38176
284.86        41.10361
285.32        40.90041
285.77        40.70998
286.22        40.49174
286.68        40.26844
287.13        39.99444
287.59        39.81858
288.04        39.84283
288.50        40.06287
288.95        40.49375
289.41        41.00887
289.86        41.00628
290.32         40.4142
290.77        40.81538
291.22        39.83478
291.68        39.75315
292.13        39.88452
292.59        40.24992
293.04        40.81397
293.50        41.58884
293.95          42.555
294.40        43.68869
294.86        44.91193
295.31        46.08206
295.77        47.16447
296.22        48.16575
296.68          49.152
297.13        50.21973
297.58        51.41051
298.04        52.68807
298.49        54.02677
298.95        55.41284
299.40        56.80764
299.85         58.2331
300.31        59.64166
300.76        60.91965
301.21        62.07288
301.67         63.1584
302.12        64.25518
302.58         65.6081
303.03        67.21133
303.48        69.04005
303.94        70.95536
304.39        72.67921
304.84        74.16223
305.30        75.49931
305.75        76.77343
306.20        78.23245
306.66        79.91942
307.11        81.68883
307.57        83.43825
308.02        84.92956
308.47        86.14572
308.93        87.20373
309.38        88.15213
309.83        89.13804
310.29        90.25006
310.74        91.38144
311.19        92.52529
311.65        93.63882
312.10        94.68314
312.55         95.6826
313.00        96.61813
313.46        97.45857
313.91        98.18421
314.36        98.80816
314.82        99.37377
315.27        99.94467
315.72        100.5465
316.18        101.1646
316.63        101.7661
317.08         102.297
317.53        102.7403
317.99        103.1104
318.44        103.4319
318.89        103.7298
319.35        104.0102
319.80        104.2688
320.25        104.5016
320.70        104.7084
321.16        104.8824
321.61         105.052
322.06        105.2051
322.51        105.3284
322.97        105.4085
323.42        105.4814
323.87        105.5697
324.32        105.7309
324.78        105.9538
325.23        106.2573
325.68        106.5634
326.13        106.7763
326.59        106.8458
327.04        106.8502
327.49        106.8255
327.94        106.8708
328.39        107.0221
328.85        107.2309
329.30        107.5182
329.75        107.7818
330.20        107.9977
330.66        108.1461
331.11        108.3432
331.56        108.6408
332.01         109.056
332.46        109.5665
332.92        110.0359
333.37        110.3821
333.82        110.5332
334.27        110.5435
334.72        110.5575
335.17        110.8172
335.63        111.3498
336.08        112.1331
336.53        113.0066
336.98        113.7498
337.43        114.2798
337.88        114.6518
338.34        114.8795
338.79        115.0542
339.24        115.1965
339.69        115.2964
340.14        115.4001
340.59        115.5867
341.05        115.8798
341.50        116.2817
341.95        116.7641
342.40        117.2691
342.85        117.7666
343.30        118.2557
343.75        118.7141
344.20        119.1199
344.66        119.4688
345.11        119.7297
345.56        119.9175
346.01        120.0634
346.46        120.1859
346.91        120.2767
347.36        120.3067
347.81        120.2912
348.26        120.2477
348.72        119.9609
349.17        119.9175
349.62         119.909
350.07        120.0802
350.52        120.3763
350.97        120.6751
351.42        120.7729
351.87        120.6058
352.32        120.2188
352.77        119.7271
353.22        119.3115
353.67        119.0135
354.13        118.8041
354.58        118.5364
355.03         118.032
355.48        117.2738
355.93        116.3467
356.38        115.4323
356.83        114.7951
357.28        114.4717
357.73        114.3559
358.18        114.2656
358.63        113.9117
359.08        113.2232
359.53        112.3086
359.98        111.2791
360.43        110.3007
360.88        109.4323
361.33        108.6174
361.78        107.8705
362.23        107.2194
362.68        106.6542
363.13        106.1778
363.58        105.7001
364.03         105.067
364.48        104.2454
364.93        103.2678
365.38        102.2437
365.83        101.3614
366.28        100.6673
366.73        100.1059
367.18        99.57466
367.63        98.90956
368.08        98.07437
368.53        97.13195
368.98        96.16193
369.43        95.27264
369.88        94.48801
370.33        93.76637
370.78        93.06638
371.23        92.33692
371.68        91.57514
372.13        90.81591
372.58        90.09563
373.03        89.44994
373.48        88.87997
373.93        88.36533
374.38        87.88023
374.83        87.39413
375.28        86.90003
375.72        86.38931
376.17        85.89581
376.62        85.39878
377.07        84.88239
377.52        84.32749
377.97         83.7423
378.42          83.161
378.87        82.60855
379.32        82.10213
379.77        81.60666
380.22        81.04976
380.67         80.4161
381.11        79.72733
381.56        79.06203
382.01        78.57548
382.46        78.30737
382.91        78.21221
383.36        78.16226
383.81        77.96004
384.26        77.55771
384.71        77.00706
385.15        76.40947
385.60        75.99051
386.05        75.76826
386.50        75.67491
386.95        75.59015
387.40        75.33437
387.85        74.88344
388.29        74.27444
388.74        73.71097
389.19        73.27404
389.64        72.97889
390.09        72.76917
390.54        72.59444
390.98        72.36468
391.43        72.09831
391.88        71.82024
392.33         71.5416
392.78        71.26966
393.23        71.01041
393.67        70.72661
394.12        70.51092
394.57        70.31581
395.02        70.13894
395.47        70.00974
395.91        69.89817
396.36        69.68298
396.81        69.38438
397.26        69.10152
397.71        68.82253
398.15        68.52795
398.60        68.30511
399.05        67.91789
399.50        67.53299
399.95          67.732
400.39        68.33293
400.84        68.48924
401.29        68.10996
401.74        67.46349
402.18        66.78847
402.63         66.6058
403.08        66.85905
403.53            66.8
403.97        66.40009
404.42         66.2075
404.87        66.23058
405.32        66.24852
405.76        66.23763
406.21        66.19707
406.66        66.11811
407.11        66.12096
407.55        66.13979
408.00        65.87223
408.45        65.37215
408.90        64.83304
409.34        64.41755
409.79        64.42462
410.24        64.74046
410.68        64.86111
411.13        64.73962
411.58        64.67308
412.03        64.67379
412.47        64.63261
412.92        64.53302
413.37         64.4175
413.81        64.31735
414.26        64.33365
414.71         64.4586
415.15        64.67592
415.60         64.8912
416.05        64.99641
416.49        64.95877
416.94        64.80335
417.39        64.58947
417.83        64.40365
418.28        64.27587
418.73         64.1773
419.17        64.09734
419.62        64.02995
420.07        63.97852
420.51        63.95427
420.96        63.96583
421.41        64.00989
421.85        64.06129
422.30        64.03992
422.74         63.9704
423.19        64.24794
423.64        64.74692
424.08        64.86988
424.53         64.5664
424.98        64.45484
425.42        64.58729
425.87        64.52664
426.31        64.33232
426.76        64.40068
427.21        64.67646
427.65        64.78181
428.10        64.67791
428.54        64.60915
428.99        64.61066
429.44        64.63416
429.88        64.62294
430.33        64.43855
430.77        64.16652
431.22        64.27782
431.66        64.69979
432.11        65.15074
432.56        65.51276
433.00        65.42033
433.45        64.74572
433.89        64.65965
434.34        65.28245
434.78        64.64617
435.23        63.42502
435.67        65.59912
436.12        65.41903
436.57        65.93073
437.01        65.47108
437.46        65.22175
437.90        65.88701
438.35        65.77543
438.79        65.80338
439.24        65.68362
439.68        65.64867
440.13         65.6318
440.57         65.6143
441.02        65.63461
441.46        65.67436
441.91        65.63309
442.35        65.53498
442.80        65.93286
443.24        66.62979
443.69        66.79018
444.13        66.40222
444.58        66.13004
445.02        66.05651
445.47        66.14196
445.91        66.31161
446.36        66.36604
446.80        66.28129
447.24        66.17231
447.69        66.09731
448.13        66.25042
448.58         66.3954
449.02        66.36269
449.47        66.14214
449.91        66.07798
450.36        66.20361
450.80        66.24308
451.25        66.20616
451.69        66.28017
452.13        66.40327
452.58        66.24242
453.02        65.85908
453.47        65.64478
453.91        65.62971
454.36        65.64594
454.80        65.61608
455.24        65.54905
455.69        65.45979
456.13        65.16015
456.58        64.83225
457.02        65.00278
457.46         65.6191
457.91         65.5553
458.35        65.02041
458.79        64.77283
459.24        64.88052
459.68        64.84315
460.13        64.69244
460.57        64.49753
461.01          64.259
461.46        64.18597
461.90        64.20078
462.34        63.68758
462.79        63.83929
463.23        63.91957
463.68        64.17477
464.12        63.97706
464.56         63.4772
465.01        63.62722
465.45        64.19623
465.89        64.34219
466.34        64.07549
466.78         63.7887
467.22        63.53652
467.67        63.60675
468.11        63.14687
468.55         63.0826
468.99        63.10775
469.44         63.0487
469.88        62.88113
470.32        62.69502
470.77        62.54108
471.21        62.43613
471.65        62.39814
472.10        62.42862
472.54        62.44826
472.98        62.41074
473.42        62.33281
473.87        62.06812
474.31        61.69168
474.75        61.88784
475.20        62.52575
475.64        62.15105
476.08        61.83775
476.52        61.65419
476.97        61.88716
477.41        62.15625
477.85        62.31576
478.29        62.26387
478.74        61.52464
479.18        61.75011
479.62        61.80325
480.06        61.96177
480.50        61.94175
480.95        62.09947
481.39        62.32327
481.83        62.30248
482.27        62.88735
482.72        61.90641
483.16        62.08551
483.60        62.17273
484.04        62.18462
484.48        61.75198
484.93        61.28187
485.37        62.12801
485.81         61.8959
486.25        61.64278
486.69        63.22095
487.14        63.15958
487.58        62.12637
488.02        61.79703
488.46        61.34608
488.90        61.63695
489.34         61.3043
489.79        61.12941
490.23        61.33907
490.67        61.49102
491.11        61.67873
491.55         61.5565
491.99        61.21688
492.43        61.06122
492.88        61.12612
493.32        61.22333
493.76        61.24726
494.20        61.25413
494.64        61.24939
495.08        60.81213
495.52        60.59443
495.96        60.66486
496.41        61.05093
496.85         61.0398
497.29        60.59895
497.73        60.43513
498.17        60.27716
498.61        60.25013
499.05        60.23751
499.49        60.23698
499.93        60.26647
500.37        60.30196
500.82        60.33508
501.26        60.59026
501.70        60.94939
502.14         60.5974
502.58        60.13194
503.02        59.83752
503.46        59.85953
503.90        59.87794
504.34        59.84529
504.78         59.8671
505.22        59.93779
505.66        59.98685
506.10        59.97685
506.54        60.01347
506.98        60.11913
507.42        59.62446
507.86        59.76021
508.30        59.60685
508.74        59.58603
509.18        59.60086
509.62        59.64032
510.06        59.66769
510.50        59.64006
510.94        59.51315
511.38        59.33761
511.82        59.26044
512.26        59.29845
512.70        59.38129
513.14        59.46157
513.58        59.48428
514.02        59.43181
514.46        59.32606
514.90        59.19059
515.34        59.10388
515.78        59.09019
516.22          59.091
516.66        58.94775
517.10        59.25956
517.54        59.09474
517.98         59.1782
518.42        59.22961
518.86        59.25828
519.30        59.26064
519.74        59.20755
520.18        59.14201
520.62        59.20378
521.06        59.35787
521.50         59.3745
521.93         59.2667
522.37        59.24374
522.81        59.31378
523.25        59.35697
523.69        59.34914
524.13        59.30895
524.57        59.23464
525.01        59.12253
525.45        59.01091
525.89        58.96034
526.32        58.98064
526.76        59.06163
527.20        59.15501
527.64        59.18498
528.08        59.13352
528.52        59.02465
528.96        58.90676
529.40        58.84636
529.83        58.85842
530.27        58.95298
530.71        59.06696
531.15         59.0989
531.59        59.03172
532.03        58.90042
532.46         58.7716
532.90        58.76328
533.34        58.88822
533.78        59.10083
534.22        59.31369
534.66        59.39525
535.09        59.31052
535.53        59.12693
535.97        58.90207
536.41         58.7422
536.85         58.6798
537.28        58.68163
537.72        58.72326
538.16        58.76609
538.60        58.79177
539.04         58.8169
539.47         58.8208
539.91        58.81717
540.35        58.79288
540.79        58.74905
541.22        58.69782
541.66        58.67688
542.10        58.68776
542.54        58.71706
542.97        58.74702
543.41        58.77807
543.85        58.79915
544.29        58.82662
544.72         58.8336
545.16        58.81355
545.60        58.75383
546.04        58.63687
546.47        58.52856
546.91        58.55143
547.35        58.68596
547.79        58.89813
548.22        59.07582
548.66        58.96192
549.10        58.65247
549.53        58.61713
549.97        58.83884
550.41        58.86196
550.84        58.67019
551.28         58.5514
551.72        58.54935
552.15        58.56298
552.59        58.59789
553.03        58.81048
553.46        58.88586
553.90        58.92852
554.34        58.83503
554.77        58.68708
555.21        58.57265
555.65        58.37113
556.08        58.51549
556.52        58.63357
556.96        58.78207
557.39        58.91772
557.83        58.99965
558.27        58.90383
558.70        58.69597
559.14        58.59107
559.57        58.60253
560.01        58.73997
560.45         58.8861
560.88        58.75156
561.32         58.4534
561.75         58.2729
562.19        58.29855
562.63         58.5228
563.06        58.81054
563.50        58.76982
563.93        58.43418
564.37        58.24509
564.80        58.24603
565.24        58.36792
565.68        58.54657
566.11        58.62199
566.55        58.59036
566.98        58.59465
567.42        58.65909
567.85        58.59276
568.29        58.48603
568.72        58.57368
569.16        58.87399
569.60        58.95845
570.03        59.07953
570.47         59.1703
570.90           59.29
571.34        59.28664
571.77        59.50727
572.21        59.43539
572.64         59.3545
573.08        59.10907
573.51        59.02544
573.95        59.42065
574.38        59.30086
574.82        60.17386
