SpectraSmart Spectrum 2.9.0.0
--------- Device Information -----------
Spectrum Name :  反射率_0
Saving Time :  2024/04/21 00:18:16
Spectro-Module Model Name : SE2030-DUVN
Spectro-Module Serial Number : OS361AC55029948
Wavelength Start : 200
Wavelength End : 1025
Wavelength Unit : Wavelength(nm)
Spectrum Unit : Reflectance(%)
-----------Spectrum Setting ------------
Integration Time : 20ms
Average : 10
Boxcar : 0
Background removal :  enabled
linearity correction :  enabled
SC :  disabled
Intensity correction :  disabled
DWT denoise :  enabled
savitzky-golay :  disabled
FFT :  disabled
Running average :  disabled
Kalman :  disabled
High pass :  disabled
---------------BEGIN--------------------
Wavelength(nm)             Reflectance(%)
200.29               0
200.75       -70.61925
201.21       -18.52414
201.67        8.433811
202.13        16.84252
202.58        14.00684
203.04        3.529105
203.50       -11.59495
203.96       -22.15742
204.42       -23.21902
204.88       -18.14145
205.34       -11.99431
205.80       -12.49309
206.26       -21.75929
206.72       -36.17341
207.18       -53.64703
207.64       -68.17152
208.10       -72.87316
208.55       -70.96454
209.01       -52.95153
209.47       -16.69922
209.93        14.66515
210.39         35.3863
210.85        46.36215
211.31        48.50008
211.77        43.37913
212.23        29.82915
212.69        2.024248
213.14       -46.35612
213.60       -125.2398
214.06       -328.5263
214.52       -720.9419
214.98       -278.1729
215.44       -56.66626
215.90        11.58042
216.36        32.02278
216.81        31.18426
217.27        10.52728
217.73        -91.6172
218.19        1136.545
218.65        485.8153
219.11       -1067.891
219.57       -45.73641
220.02        19.44662
220.48        31.03928
220.94        24.99249
221.40      0.03486621
221.86        -59.3432
222.32       -93.52317
222.77       -35.44593
223.23        12.60675
223.69        35.75656
224.15        42.15012
224.61         39.5744
225.06        32.60275
225.52        23.15232
225.98        14.05249
226.44        7.072135
226.90       0.1744343
227.36       -2.365485
227.81        5.966213
228.27        19.68471
228.73        32.98426
229.19        41.31419
229.65        42.54534
230.10        37.83625
230.56         28.5112
231.02        16.20173
231.48        8.105834
231.93        9.139446
232.39         16.4655
232.85        24.64623
233.31        29.11417
233.77        30.07314
234.22        29.50844
234.68        28.02473
235.14        26.63968
235.60        26.13079
236.05        25.28169
236.51        24.26819
236.97        29.17898
237.43        40.11253
237.88        47.63865
238.34        48.09799
238.80        67.12988
239.26        57.82578
239.71        54.04604
240.17        43.85524
240.63        35.03294
241.08        33.71707
241.54        43.69765
242.00         61.5629
242.46        72.58261
242.91        72.73025
243.37        61.66278
243.83        42.32068
244.28        30.36391
244.74        35.53175
245.20        50.14548
245.66         64.3295
246.11        68.28081
246.57        60.84899
247.03        45.44594
247.48        24.59698
247.94        1.622452
248.40       -27.04816
248.85       -87.43027
249.31       -265.1548
249.77       -415.5885
250.22       -148.3945
250.68       -32.51935
251.14        7.542775
251.59        23.50702
252.05        32.25779
252.51        39.48779
252.96        46.35943
253.42        52.92648
253.88        57.19466
254.33        58.63836
254.79        60.40485
255.25        63.62695
255.70         67.1805
256.16        70.60572
256.62        73.32529
257.07        75.11583
257.53         76.7082
257.99        77.93318
258.44        78.58018
258.90        79.30016
259.35        79.46307
259.81        79.57404
260.27        79.27967
260.72        78.31795
261.18        77.30062
261.63        76.01587
262.09         74.9061
262.55        73.77862
263.00        72.50712
263.46        71.34173
263.91        70.15639
264.37        69.36412
264.83        68.83109
265.28        68.38612
265.74        67.95446
266.19        67.10854
266.65        65.91608
267.11         64.4327
267.56        62.81071
268.02        61.41159
268.47        60.25111
268.93        59.27021
269.38        58.31282
269.84        57.22062
270.30         55.9371
270.75        54.53954
271.21        53.13523
271.66        51.79386
272.12        50.59219
272.57        49.46995
273.03        48.45712
273.48         47.5197
273.94        46.67642
274.39        45.88591
274.85        45.15418
275.31        44.39415
275.76        43.57924
276.22        42.77612
276.67        41.99419
277.13        41.36771
277.58        40.84919
278.04        40.44535
278.49        40.03088
278.95        39.55513
279.40        38.94302
279.86        38.26962
280.31        37.54351
280.77        36.89893
281.22        36.31361
281.68        35.82975
282.13        35.34542
282.59        34.81739
283.04        34.21095
283.50        33.59486
283.95        33.06084
284.41        32.79413
284.86        32.79341
285.32        33.01052
285.77        33.27394
286.22        33.37314
286.68        33.28526
287.13        33.03008
287.59        32.78353
288.04        32.69487
288.50        32.78693
288.95        33.09425
289.41          33.534
289.86        33.53883
290.32        33.03226
290.77        33.76159
291.22        33.00183
291.68         33.2086
292.13        33.58848
292.59        34.18504
293.04        34.95813
293.50        35.91484
293.95        37.04667
294.40         38.3285
294.86        39.71679
295.31        41.12831
295.77        42.53403
296.22        43.91751
296.68        45.30761
297.13        46.74671
297.58        48.25913
298.04        49.82576
298.49        51.42371
298.95         53.0427
299.40        54.65228
299.85        56.27388
300.31        57.88715
300.76        59.42081
301.21        60.89082
301.67        62.35011
302.12        63.84428
302.58        65.56704
303.03        67.49989
303.48        69.62035
303.94        71.83496
304.39        73.93355
304.84         75.8691
305.30        77.71384
305.75        79.45536
306.20         81.2046
306.66        82.99438
307.11        84.72803
307.57        86.43974
308.02        88.09087
308.47        89.69818
308.93        91.30935
309.38         92.8344
309.83        94.21433
310.29        95.47308
310.74        96.58559
311.19        97.64826
311.65         98.7896
312.10        100.0129
312.55        101.2797
313.00        102.5053
313.46        103.5559
313.91        104.3834
314.36        105.0521
314.82        105.6271
315.27        106.1976
315.72        106.8074
316.18        107.4221
316.63        108.0493
317.08        108.7045
317.53        109.3705
317.99        110.0385
318.44        110.6375
318.89        111.0342
319.35        111.2073
319.80        111.2086
320.25        111.1396
320.70        111.1768
321.16        111.3633
321.61        111.6717
322.06        112.0368
322.51        112.3553
322.97        112.5789
323.42        112.7849
323.87        112.9764
324.32        113.1759
324.78        113.3748
325.23        113.5922
325.68        113.8312
326.13        114.1391
326.59        114.4901
327.04        114.9293
327.49        115.3682
327.94        115.6945
328.39        115.8824
328.85        115.9279
329.30        115.9774
329.75        116.1359
330.20        116.4409
330.66        116.8154
331.11        117.2652
331.56        117.6442
332.01        117.9198
332.46        118.1361
332.92        118.2801
333.37         118.485
333.82        118.7349
334.27        119.0172
334.72        119.3626
335.17        119.8242
335.63        120.3705
336.08        121.0465
336.53        121.7605
336.98         122.411
337.43        122.9561
337.88        123.4024
338.34        123.7467
338.79        124.0618
339.24         124.346
339.69        124.6033
340.14         124.836
340.59        125.0491
341.05        125.2588
341.50        125.4862
341.95        125.7826
342.40        126.2254
342.85        126.8159
343.30        127.5161
343.75        128.2201
344.20        128.7679
344.66         129.123
345.11           129.3
345.56        129.3825
346.01        129.5098
346.46        129.7321
346.91        129.9932
347.36        130.2179
347.81        130.3865
348.26        130.5009
348.72        130.2344
349.17        130.3125
349.62        130.3773
350.07        130.6424
350.52        131.0298
350.97        131.3954
351.42         131.499
351.87        131.2723
352.32        130.7894
352.77        130.1908
353.22        129.6885
353.67        129.3441
354.13         129.129
354.58        128.9093
355.03        128.5262
355.48        127.9513
355.93        127.2405
356.38        126.5475
356.83        126.0983
357.28        125.9083
357.73        125.8748
358.18        125.7808
358.63        125.2884
359.08        124.3352
359.53        123.0601
359.98        121.6612
360.43        120.4345
360.88        119.4699
361.33          118.68
361.78        118.0155
362.23        117.3959
362.68        116.7774
363.13        116.1917
363.58        115.5797
364.03        114.8383
364.48        113.9476
364.93        112.9176
365.38        111.8368
365.83        110.8665
366.28        110.0473
366.73        109.3378
367.18        108.6579
367.63        107.8744
368.08        106.9614
368.53        105.9779
368.98        104.9844
369.43        104.0568
369.88        103.2147
370.33        102.4287
370.78        101.6832
371.23        100.9716
371.68        100.2944
372.13         99.6544
372.58        99.05735
373.03        98.49654
373.48        97.95275
373.93        97.41534
374.38         96.8388
374.83        96.16582
375.28        95.40362
375.72        94.56678
376.17        93.75885
376.62         93.0433
377.07        92.42284
377.52        91.85946
377.97        91.32407
378.42        90.78159
378.87         90.2332
379.32        89.71211
379.77        89.19781
380.22        88.64269
380.67        88.03177
381.11        87.36555
381.56        86.70772
382.01        86.19749
382.46        85.87116
382.91        85.69849
383.36        85.54527
383.81        85.20253
384.26        84.62675
384.71        83.87167
385.15        83.08593
385.60        82.56931
386.05        82.34869
386.50        82.33996
386.95        82.34338
387.40         82.0517
387.85        81.42625
388.29        80.54985
388.74        79.73615
389.19         79.2006
389.64        78.97427
390.09        78.94639
390.54        78.97878
390.98        78.83728
391.43        78.50431
391.88        78.06112
392.33        77.59222
392.78        77.15048
393.23        76.75831
393.67         76.4637
394.12        76.36337
394.57        75.89501
395.02        75.85123
395.47        75.69781
395.91        75.63513
396.36        75.47201
396.81        75.20799
397.26         74.9251
397.71        74.63409
398.15        74.30166
398.60        74.02042
399.05        73.74178
399.50        73.49348
399.95         73.3165
400.39        73.20496
400.84         73.0984
401.29        72.97192
401.74        72.70331
402.18        72.34431
402.63        72.13231
403.08        72.03329
403.53        71.78233
403.97        71.36858
404.42        70.96058
404.87        70.63887
405.32        70.45579
405.76        70.40348
406.21        70.54763
406.66        70.74088
407.11        70.54533
407.55        70.01778
408.00        69.70182
408.45        69.63508
408.90        69.28304
409.34        68.72078
409.79        68.51291
410.24        68.61436
410.68           68.61
411.13        68.47446
411.58        68.39941
412.03        68.39226
412.47         68.4025
412.92        68.39941
413.37        68.39684
413.81        68.37222
414.26        68.35635
414.71        68.33084
415.15        68.30117
415.60        68.23714
416.05        68.15391
416.49        68.05575
416.94        67.93201
417.39        67.78833
417.83        67.62175
418.28        67.43584
418.73        67.23286
419.17        67.01259
419.62        66.78439
420.07        66.55988
420.51        66.34209
420.96        66.17096
421.41         66.0517
421.85        65.95781
422.30        65.93035
422.74        65.93098
423.19        65.98455
423.64        66.07563
424.08        66.27264
424.53        66.44958
424.98         66.4939
425.42        66.39924
425.87        66.11366
426.31        65.78368
426.76         65.7884
427.21        66.08116
427.65        66.21438
428.10        66.10276
428.54        66.02734
428.99        66.01176
429.44        65.87593
429.88        65.61814
430.33        65.41653
430.77        65.24429
431.22        65.12373
431.66        65.03738
432.11         65.0745
432.56        65.25284
433.00        65.23013
433.45        64.78415
433.89        64.79118
434.34         65.3947
434.78        64.19142
435.23         63.5643
435.67        65.17363
436.12        64.82294
436.57        65.03797
437.01        64.46262
437.46        64.40319
437.90        64.85002
438.35        64.57078
438.79        64.77731
439.24        64.66073
439.68        64.58842
440.13        64.52042
440.57        64.45429
441.02         64.3904
441.46        64.33141
441.91        64.27262
442.35        64.18072
442.80         64.5109
443.24        65.10855
443.69          65.118
444.13        64.51443
444.58        64.75667
445.02        64.45261
445.47        64.56163
445.91        64.60891
446.36        64.61866
446.80        64.56278
447.24        64.45155
447.69        64.33121
448.13        64.39114
448.58        64.40211
449.02        64.20286
449.47        63.81347
449.91         63.6139
450.36        63.64969
450.80        63.64489
451.25        63.59826
451.69        63.66513
452.13        63.77951
452.58        63.63512
453.02        63.27672
453.47        63.05738
453.91        62.99417
454.36        62.91584
454.80        62.78394
455.24        62.65123
455.69        62.53846
456.13         62.3452
456.58        62.13165
457.02        62.19806
457.46        62.16927
457.91        62.13316
458.35        62.08252
458.79        62.02885
459.24        62.01195
459.68        61.96224
460.13        61.90197
460.57        61.78181
461.01        61.47585
461.46        61.45886
461.90        61.07687
462.34        60.90036
462.79        61.01905
463.23         60.7063
463.68        61.10788
464.12        60.83816
464.56        60.37357
465.01        60.44014
465.45        60.84222
465.89        60.93902
466.34        60.75644
466.78        60.49145
467.22        60.13759
467.67        60.59591
468.11          59.939
468.55        59.83253
468.99        59.71163
469.44         59.6014
469.88        59.49223
470.32        59.41253
470.77        59.36262
471.21         59.2772
471.65        59.15232
472.10        59.01181
472.54        58.86754
472.98         58.7613
473.42        58.70676
473.87        58.68828
474.31         58.6713
474.75        58.73196
475.20        58.82402
475.64        58.81036
476.08        58.72757
476.52        58.66851
476.97        58.60896
477.41        58.70056
477.85        58.91812
478.29        58.35088
478.74        58.26805
479.18        58.11617
479.62        58.20894
480.06        58.25159
480.50         58.2423
480.95         58.3702
481.39        58.54638
481.83        58.51363
482.27        59.06601
482.72        58.38182
483.16        58.66439
483.60        58.76347
484.04        58.53597
484.48        58.24591
484.93        58.38471
485.37        58.10597
485.81        58.59533
486.25        58.27871
486.69        60.25641
487.14        60.03204
487.58        59.03769
488.02        58.42005
488.46        58.34793
488.90        58.42689
489.34        58.08896
489.79        57.37523
490.23        57.77445
490.67        57.80736
491.11        57.87918
491.55        57.70021
491.99        57.35382
492.43        57.19132
492.88        57.23084
493.32        57.29871
493.76        57.30277
494.20        57.31102
494.64        57.33154
495.08        56.96205
495.52        56.87035
495.96        56.90907
496.41        57.16135
496.85        57.20041
497.29        56.97885
497.73         56.8954
498.17        56.68777
498.61        56.72871
499.05        56.86733
499.49        56.72682
499.93        56.40105
500.37        56.39065
500.82        56.64837
501.26        56.83961
501.70        56.89077
502.14        56.54245
502.58        56.33928
503.02        56.18502
503.46        56.20013
503.90        56.26424
504.34        56.30735
504.78        56.33203
505.22         56.3409
505.66        56.23179
506.10        56.03666
506.54        56.10427
506.98        56.44928
507.42        55.89073
507.86         56.3107
508.30        55.94267
508.74        56.18478
509.18        56.18464
509.62        56.17373
510.06        56.14545
510.50        56.06495
510.94        55.87794
511.38        55.62913
511.82        55.47652
512.26        55.44173
512.70        55.46161
513.14        55.49607
513.58         55.5149
514.02        55.50467
514.46        55.44072
514.90        55.31792
515.34        55.37638
515.78        55.31168
516.22        55.31113
516.66        55.13349
517.10        55.44044
517.54        55.22287
517.98        55.27218
518.42        55.28646
518.86        55.27375
519.30        55.23058
519.74        55.13297
520.18        55.02668
520.62        55.04484
521.06        55.15469
521.50        55.14196
521.93        55.00986
522.37         54.9379
522.81        54.93417
523.25        54.89619
523.69        54.81758
524.13        54.73995
524.57        54.66717
525.01        54.58665
525.45        54.52731
525.89        54.53528
526.32        54.61571
526.76        54.76008
527.20        54.91253
527.64        55.00595
528.08        55.02481
528.52        54.93004
528.96        54.78606
529.40        54.82949
529.83        55.00842
530.27        55.00471
530.71         54.8251
531.15        54.75489
531.59        54.80296
532.03        54.80277
532.46        54.75259
532.90        54.74378
533.34        54.77267
533.78        54.81087
534.22        54.84136
534.66        54.83932
535.09        54.79233
535.53        54.73181
535.97        54.65937
536.41        54.59096
536.85        54.53447
537.28        54.48624
537.72        54.45543
538.16        54.45644
538.60        54.48765
539.04        54.54598
539.47          54.595
539.91        54.62388
540.35        54.61377
540.79        54.57518
541.22        54.52784
541.66        54.51854
542.10        54.55051
542.54        54.60393
542.97        54.65561
543.41        54.69712
543.85        54.71835
544.29        54.74094
544.72        54.74076
545.16        54.72139
545.60        54.67298
546.04        54.54918
546.47        54.42542
546.91        54.49242
547.35        54.70806
547.79        54.91362
548.22        54.99907
548.66        54.83317
549.10        54.50174
549.53        54.34615
549.97        54.39702
550.41        54.37574
550.84        54.28564
551.28        54.32291
551.72        54.45501
552.15        54.52586
552.59        54.53061
553.03        54.46915
553.46        54.42202
553.90        54.33169
554.34        54.22133
554.77        54.07743
555.21        53.96603
555.65        53.96019
556.08        54.05684
556.52        54.29695
556.96        54.56596
557.39        54.58419
557.83        54.38629
558.27        54.25425
558.70         54.2338
559.14        54.17817
559.57        54.09366
560.01        54.17128
560.45        54.32103
560.88        54.25345
561.32        54.04731
561.75        53.88702
562.19        53.85914
562.63        54.01264
563.06        54.25257
563.50        54.26191
563.93        54.05541
564.37        53.95049
564.80        53.98016
565.24        54.14141
565.68        54.37183
566.11        54.46216
566.55        54.40451
566.98         54.3915
567.42        54.48028
567.85        54.28787
568.29        54.35509
568.72        54.42556
569.16        54.67965
569.60        54.74934
570.03        54.85746
570.47        55.03948
570.90        55.33012
571.34        55.04574
571.77        55.22753
572.21        55.22459
572.64        55.08332
573.08        55.01121
573.51        55.12524
573.95         55.4973
574.38        55.21245
574.82        56.02934
