SpectraSmart Spectrum 2.9.0.0
--------- Device Information -----------
Spectrum Name :  反射率_0
Saving Time :  2024/04/21 00:23:11
Spectro-Module Model Name : SE2030-DUVN
Spectro-Module Serial Number : OS361AC55029948
Wavelength Start : 200
Wavelength End : 1025
Wavelength Unit : Wavelength(nm)
Spectrum Unit : Reflectance(%)
-----------Spectrum Setting ------------
Integration Time : 20ms
Average : 10
Boxcar : 0
Background removal :  enabled
linearity correction :  enabled
SC :  disabled
Intensity correction :  disabled
DWT denoise :  enabled
savitzky-golay :  disabled
FFT :  disabled
Running average :  disabled
Kalman :  disabled
High pass :  disabled
---------------BEGIN--------------------
Wavelength(nm)             Reflectance(%)
200.29               0
200.75        27.36562
201.21        46.78151
201.67        55.67468
202.13        57.05607
202.58        53.57691
203.04        47.12139
203.50        38.83723
203.96        33.14117
204.42          32.432
204.88        34.12789
205.34        37.58323
205.80        42.15642
206.26        47.70949
206.72        56.65627
207.18        63.20633
207.64        53.28153
208.10        23.94572
208.55       -18.08338
209.01       -45.96571
209.47       -27.56464
209.93        8.824064
210.39        39.69662
210.85        60.61598
211.31        72.11557
211.77        77.88358
212.23        81.09569
212.69        80.78768
213.14        71.78158
213.60        38.04472
214.06       -90.21958
214.52       -460.2053
214.98       -230.2411
215.44       -45.91445
215.90        21.15448
216.36        45.82613
216.81        52.98519
217.27        50.02742
217.73        21.40868
218.19        398.6788
218.65        213.0237
219.11       -391.5757
219.57        11.18158
220.02        37.10328
220.48        40.53907
220.94        35.58739
221.40        20.40683
221.86        -13.2373
222.32       -28.86769
222.77         7.77154
223.23        36.22223
223.69        49.54139
224.15        53.14499
224.61        51.61039
225.06        47.38987
225.52        41.54828
225.98         35.5453
226.44        30.36154
226.90        24.73318
227.36        21.72516
227.81        26.29976
228.27        35.13036
228.73        44.10147
229.19          49.723
229.65        50.13321
230.10        46.06844
230.56        38.65802
231.02        29.24594
231.48         23.4578
231.93        24.96795
232.39        31.39676
232.85        38.41495
233.31         42.5624
233.77        44.05492
234.22        44.44405
234.68        44.01048
235.14        43.16377
235.60        42.40101
236.05        40.91359
236.51        39.07831
236.97        42.38163
237.43        51.15957
237.88        57.52056
238.34         58.4236
238.80        74.16223
239.26        67.52067
239.71        65.48449
240.17         58.3794
240.63        50.92776
241.08        46.81135
241.54        48.30974
242.00        55.95381
242.46         62.4417
242.91         66.2501
243.37        68.64149
243.83        70.04804
244.28        71.11538
244.74        71.71029
245.20        70.63766
245.66        67.40859
246.11        61.57343
246.57        52.96631
247.03        42.09952
247.48        28.89501
247.94        12.52925
248.40       -12.16957
248.85       -69.01482
249.31       -241.1848
249.77       -384.9367
250.22       -123.8097
250.68       -12.41974
251.14        24.72778
251.59        37.56654
252.05         41.9749
252.51        42.69427
252.96        41.15371
253.42        41.91803
253.88        46.94549
254.33        53.41123
254.79        60.28014
255.25          65.508
255.70        68.59251
256.16        70.70643
256.62        72.09055
257.07        72.91541
257.53        73.80595
257.99        74.43858
258.44        74.39411
258.90        74.12299
259.35        73.14081
259.81        72.06368
260.27        70.86921
260.72        69.64656
261.18        68.81145
261.63        67.94086
262.09         67.1294
262.55         65.9149
263.00        64.24516
263.46         62.5343
263.91        60.85676
264.37        59.82662
264.83        59.34805
265.28        59.12927
265.74        59.03451
266.19        58.62456
266.65        57.90628
267.11        56.94188
267.56        55.76739
268.02        54.54652
268.47        53.28777
268.93        52.00746
269.38        50.71004
269.84        49.48778
270.30        48.34918
270.75        47.28656
271.21        46.32891
271.66        45.42544
272.12        44.58862
272.57        43.79248
273.03        43.01929
273.48        42.17646
273.94        41.28828
274.39        40.34425
274.85        39.43639
275.31        38.62251
275.76        37.90931
276.22        37.31552
276.67        36.79471
277.13        36.38074
277.58        36.00676
278.04        35.69849
278.49        35.36117
278.95        34.97021
279.40        34.46447
279.86        33.90152
280.31        33.27705
280.77        32.69614
281.22        32.14388
281.68        31.67401
282.13        31.21841
282.59        30.77112
283.04        30.30162
283.50        29.84746
283.95        29.47559
284.41         29.3273
284.86        29.38929
285.32         29.6244
285.77         29.8583
286.22        29.86915
286.68        29.64474
287.13        29.22024
287.59        28.80995
288.04         28.6268
288.50        28.69885
288.95        29.04909
289.41        29.56141
289.86        29.59896
290.32        29.06155
290.77        29.81257
291.22        28.95189
291.68        29.06719
292.13         29.3189
292.59         29.7459
293.04        30.33335
293.50        31.13391
293.95         32.1463
294.40        33.33075
294.86        34.60053
295.31        35.80234
295.77        36.89955
296.22        37.91375
296.68        38.92707
297.13        40.06237
297.58        41.36922
298.04        42.81293
298.49        44.35221
298.95        45.94234
299.40        47.53899
299.85         49.1637
300.31        50.79997
300.76        52.39117
301.21        53.94227
301.67        55.48723
302.12        57.04557
302.58        58.76239
303.03        60.63071
303.48        62.66621
303.94        64.81189
304.39        66.91702
304.84        68.95367
305.30        70.96698
305.75        72.97493
306.20        75.12275
306.66        77.42052
307.11        79.75042
307.57        82.03773
308.02        84.09132
308.47        85.91156
308.93        87.60669
309.38        89.20615
309.83        90.83132
310.29         92.5593
310.74        94.29025
311.19        96.05055
311.65        97.85234
312.10         99.6554
312.55        101.4571
313.00        103.1611
313.46        104.6154
313.91        105.7771
314.36        106.7036
314.82        107.5231
315.27         108.432
315.72        109.4963
316.18        110.6618
316.63        111.8505
317.08        112.9319
317.53        113.8529
317.99        114.6405
318.44        115.3229
318.89        115.9279
319.35        116.4686
319.80        116.9462
320.25        117.3456
320.70        117.6569
321.16        117.8803
321.61        118.0496
322.06        118.2249
322.51        118.5021
322.97        118.8852
323.42        119.3979
323.87        119.9326
324.32        120.3267
324.78        120.5201
325.23        120.5944
325.68        120.6523
326.13        120.9033
326.59        121.3643
327.04        122.0288
327.49        122.7276
327.94        123.2177
328.39        123.4338
328.85        123.4174
329.30        123.3728
329.75        123.4868
330.20        123.8319
330.66        124.3054
331.11        124.9034
331.56        125.4581
332.01        125.9195
332.46        126.3269
332.92        126.6591
333.37        127.0436
333.82        127.4487
334.27        127.8588
334.72        128.2634
335.17        128.6569
335.63        129.0057
336.08        129.3853
336.53        129.7985
336.98        130.3005
337.43        130.8943
337.88        131.5571
338.34        132.1901
338.79        132.7028
339.24        133.0406
339.69         133.247
340.14        133.4057
340.59        133.6545
341.05        134.0372
341.50        134.5279
341.95        135.0909
342.40        135.6674
342.85        136.2276
343.30        136.7829
343.75        137.3152
344.20        137.8011
344.66        138.2362
345.11        138.5819
345.56         138.852
346.01        139.0815
346.46        139.2886
346.91        139.4407
347.36        139.4898
347.81        139.4835
348.26        139.4506
348.72         138.955
349.17        138.9115
349.62        138.8116
350.07         138.933
350.52        139.2033
350.97         139.517
351.42        139.6834
351.87         139.633
352.32        139.4142
352.77        139.0918
353.22        138.7708
353.67        138.4778
354.13        138.1915
354.58        137.8354
355.03        137.3545
355.48         136.743
355.93        136.0374
356.38        135.3088
356.83          134.65
357.28        134.0755
357.73        133.5571
358.18        133.0202
358.63        132.3515
359.08        131.5354
359.53        130.6158
359.98        129.6786
360.43        128.8486
360.88        128.1448
361.33        127.5181
361.78        126.8923
362.23        126.1505
362.68        125.2667
363.13        124.2868
363.58         123.256
364.03        122.2426
364.48          121.27
364.93        120.3144
365.38        119.3814
365.83        118.4838
366.28        117.6182
366.73        116.7838
367.18         115.951
367.63        115.0685
368.08        114.1314
368.53        113.1646
368.98         112.188
369.43        111.2217
369.88        110.2691
370.33        109.3165
370.78        108.3868
371.23        107.5374
371.68        106.7892
372.13        106.1338
372.58         105.527
373.03        104.8816
373.48         104.165
373.93        103.3924
374.38        102.5936
374.83        101.8326
375.28        101.1378
375.72        100.4748
376.17        99.85873
376.62         99.2169
377.07        98.52319
377.52        97.78122
377.97        97.02827
378.42        96.34562
378.87         95.7664
379.32        95.27822
379.77        94.81715
380.22         94.2729
380.67        93.61308
381.11         92.8683
381.56        92.10186
382.01        91.45391
382.46        90.97253
382.91         90.6245
383.36        90.32112
383.81        89.92191
384.26        89.39283
384.71        88.77579
385.15        88.14252
385.60        87.67346
386.05        87.37046
386.50        87.17538
386.95        86.98771
387.40        86.66232
387.85        86.17927
388.29        85.55119
388.74        84.96973
389.19        84.46957
389.64        84.06226
390.09        83.71185
390.54        83.39173
390.98        83.04914
391.43         82.7194
391.88        82.40898
392.33          82.129
392.78         81.8711
393.23         81.6276
393.67        81.40063
394.12        81.25622
394.57        80.97895
395.02        80.61208
395.47        80.44026
395.91        80.41765
396.36        80.18674
396.81         79.7483
397.26         79.3218
397.71        78.95099
398.15        78.57596
398.60        78.29607
399.05        78.03923
399.50        77.82978
399.95        77.73154
400.39        77.70972
400.84        77.65456
401.29        77.52765
401.74        77.15664
402.18        76.65618
402.63        76.48823
403.08        76.59052
403.53        76.41733
403.97        75.94144
404.42         75.5097
404.87        75.19335
405.32        74.98763
405.76        74.90563
406.21         74.9353
406.66        74.98678
407.11        75.00771
407.55        74.96073
408.00        74.64104
408.45        74.17651
408.90        74.00245
409.34        74.11058
409.79         74.1452
410.24        74.04987
410.68        73.98139
411.13         73.9231
411.58        73.76595
412.03        73.54369
412.47        73.40009
412.92        73.33279
413.37        73.31567
413.81        73.30006
414.26        73.27022
414.71        73.19568
415.15        73.11166
415.60        73.00082
416.05        72.89632
416.49        72.81375
416.94        72.73507
417.39        72.66764
417.83        72.61766
418.28        72.58192
418.73        72.54521
419.17        72.49422
419.62        72.41856
420.07        72.32542
420.51        72.22393
420.96        72.12743
421.41        72.04849
421.85        71.97353
422.30        71.81149
422.74        71.61559
423.19        71.88108
423.64        72.46033
424.08        72.62103
424.53        72.29606
424.98        72.21713
425.42        72.43151
425.87        72.39129
426.31        72.16891
426.76        72.26805
427.21        72.62444
427.65        72.74717
428.10         72.5707
428.54        72.43396
428.99        72.38183
429.44        72.22723
429.88        72.01093
430.33        71.93596
430.77        71.97157
431.22         72.2308
431.66        72.59664
432.11        72.83073
432.56        72.91254
433.00        72.71499
433.45        72.11308
433.89        71.95631
434.34        72.48951
434.78        71.33845
435.23        71.61962
435.67        72.82043
436.12        72.54448
436.57        72.68221
437.01        72.39272
437.46        72.12188
437.90        72.66125
438.35         72.3205
438.79        72.57373
439.24        72.49168
439.68        72.44403
440.13        72.41712
440.57         72.4318
441.02        72.42242
441.46        72.39105
441.91        72.62702
442.35        72.93494
442.80        73.05871
443.24        72.96463
443.69        73.00404
444.13        73.13358
444.58        72.96172
445.02        72.56567
445.47         72.5332
445.91         72.8102
446.36        72.91847
446.80        72.82565
447.24         72.7203
447.69        72.66384
448.13        72.86166
448.58        73.05234
449.02        73.05437
449.47        72.82671
449.91        72.69371
450.36        72.68774
450.80        72.54649
451.25        72.33172
451.69         72.2809
452.13        72.36686
452.58        72.30315
453.02        72.07983
453.47        71.93184
453.91        71.85259
454.36         71.7175
454.80        71.53989
455.24        71.42805
455.69        71.41011
456.13         71.3935
456.58        71.36863
457.02        71.43466
457.46        71.21291
457.91        71.15742
458.35        71.23359
458.79        71.13557
459.24        70.89718
459.68        70.68385
460.13        70.61069
460.57        70.40951
461.01        70.06241
461.46        70.68532
461.90        70.37199
462.34        70.34543
462.79        70.24803
463.23        70.14581
463.68        70.35973
464.12        70.07764
464.56        69.55482
465.01        69.77574
465.45        70.45215
465.89         70.3855
466.34        69.66208
466.78        69.28474
467.22        69.37238
467.67         69.0042
468.11        68.91692
468.55        68.83709
468.99        68.93289
469.44        68.94432
469.88        68.84972
470.32        68.71616
470.77        68.55579
471.21        68.39776
471.65        68.25577
472.10        68.12316
472.54        68.01208
472.98        67.96215
473.42         67.9752
473.87        68.06744
474.31        68.15849
474.75        68.19552
475.20        68.15517
475.64        68.07362
476.08        67.98196
476.52        67.85386
476.97        67.66042
477.41        67.65113
477.85         67.7972
478.29         67.3334
478.74        66.81104
479.18        67.16997
479.62        67.44791
480.06        67.70036
480.50        67.59271
480.95        67.57545
481.39        67.63237
481.83        67.59996
482.27         67.9976
482.72        67.72296
483.16        67.81312
483.60        68.09705
484.04        68.00577
484.48        67.49674
484.93        67.08688
485.37        67.28152
485.81        67.53215
486.25        67.04753
486.69        69.25494
487.14          69.487
487.58        68.93392
488.02        67.92814
488.46        67.46408
488.90        67.33301
489.34        67.33845
489.79        66.74214
490.23        67.21732
490.67        67.20795
491.11        67.22644
491.55        67.13184
491.99        66.96702
492.43        66.82756
492.88        66.71364
493.32         66.6188
493.76        66.51555
494.20        66.47286
494.64        66.50494
495.08        66.30801
495.52         66.3688
495.96        66.44145
496.41        66.59409
496.85        66.69038
497.29        66.61658
497.73        66.51485
498.17         66.0972
498.61        65.90626
499.05        65.89931
499.49         65.9535
499.93        66.03024
500.37        66.13644
500.82        66.26698
501.26        66.11647
501.70        66.53809
502.14        66.17742
502.58        65.91778
503.02        65.72254
503.46        65.73778
503.90        65.80729
504.34          65.856
504.78        65.89175
505.22         65.9132
505.66         65.8472
506.10        65.71062
506.54        65.75523
506.98        66.03535
507.42        65.44376
507.86        66.15132
508.30        65.68422
508.74        65.90714
509.18        65.77223
509.62         65.6797
510.06        65.64745
510.50        65.65147
510.94        65.61095
511.38        65.51072
511.82        65.43616
512.26        65.38667
512.70        65.31769
513.14        65.23667
513.58        65.17558
514.02         65.1375
514.46        65.11474
514.90        65.08872
515.34        65.06038
515.78        65.03042
516.22        64.98738
516.66        64.78529
517.10        64.99329
517.54         64.8154
517.98        64.86594
518.42        64.90019
518.86        64.92662
519.30        64.93849
519.74         64.8978
520.18        64.84369
520.62        64.92023
521.06        65.08376
521.50        65.08627
521.93        64.93002
522.37        64.82729
522.81        64.79153
523.25        64.70301
523.69        64.57425
524.13        64.48294
524.57        64.43903
525.01        64.42365
525.45        64.43903
525.89        64.48639
526.32        64.55647
526.76        64.65034
527.20        64.74567
527.64        64.80994
528.08        64.83327
528.52        64.82433
528.96        64.79642
529.40        64.76451
529.83        64.73537
530.27        64.73906
530.71        64.75611
531.15        64.75353
531.59        64.72665
532.03        64.68652
532.46        64.65003
532.90        64.65707
533.34         64.7051
533.78        64.78259
534.22        64.84232
534.66        64.81281
535.09        64.67693
535.53         64.4825
535.97        64.27966
536.41        64.16559
536.85        64.16172
537.28        64.23636
537.72        64.34114
538.16         64.3974
538.60        64.38115
539.04        64.32234
539.47         64.2288
539.91        64.16409
540.35        64.12748
540.79        64.10822
541.22        64.10547
541.66        64.13969
542.10        64.20921
542.54        64.28291
542.97        64.33724
543.41        64.43582
543.85        64.57971
544.29        64.50626
544.72        64.64569
545.16        64.63628
545.60        64.60887
546.04         64.4794
546.47        64.31935
546.91        64.41214
547.35        64.67869
547.79        64.70857
548.22        64.48978
548.66        64.36653
549.10        64.36269
549.53        64.31612
549.97        64.24076
550.41        64.18369
550.84        64.12788
551.28        64.13122
551.72        64.22542
552.15        64.23238
552.59        64.11536
553.03        64.71925
553.46        64.52633
553.90        64.58479
554.34         64.4427
554.77        64.26303
555.21        63.93571
555.65        63.90602
556.08        64.10932
556.52        64.33109
556.96        64.47739
557.39        64.56433
557.83        64.57179
558.27        64.41122
558.70        64.15432
559.14        63.99958
559.57        63.97255
560.01        64.04761
560.45        64.15286
560.88        64.18923
561.32        64.19744
561.75        64.12706
562.19        64.06219
562.63        64.23744
563.06        64.53553
563.50        64.42371
563.93         63.9698
564.37        63.77678
564.80        63.86763
565.24        64.01743
565.68        64.15907
566.11        64.26723
566.55        64.34086
566.98        64.37354
567.42        64.40582
567.85        64.46172
568.29        64.55347
568.72        64.54456
569.16        64.52683
569.60        64.48249
570.03        64.72365
570.47        64.89766
570.90        65.01663
571.34        65.12396
571.77         65.3491
572.21         65.0929
572.64        65.56641
573.08        65.12887
573.51        65.01571
573.95        65.26479
574.38        65.48084
574.82         66.1319
