SpectraSmart Spectrum 2.9.0.0
--------- Device Information -----------
Spectrum Name :  反射率_0
Saving Time :  2024/04/21 00:40:04
Spectro-Module Model Name : SE2030-DUVN
Spectro-Module Serial Number : OS361AC55029948
Wavelength Start : 200
Wavelength End : 1025
Wavelength Unit : Wavelength(nm)
Spectrum Unit : Reflectance(%)
-----------Spectrum Setting ------------
Integration Time : 20ms
Average : 10
Boxcar : 0
Background removal :  enabled
linearity correction :  enabled
SC :  disabled
Intensity correction :  disabled
DWT denoise :  enabled
savitzky-golay :  disabled
FFT :  disabled
Running average :  disabled
Kalman :  disabled
High pass :  disabled
---------------BEGIN--------------------
Wavelength(nm)             Reflectance(%)
200.29               0
200.75        4.275392
201.21         10.0294
201.67        8.616154
202.13        3.434094
202.58        -4.98357
203.04       -17.27036
203.50       -29.96684
203.96       -32.46455
204.42       -21.34628
204.88        -1.70626
205.34        18.22073
205.80        27.58186
206.26        23.88888
206.72        9.719895
207.18       -14.28073
207.64       -41.69887
208.10       -63.47488
208.55        -80.5921
209.01       -74.64717
209.47       -34.03415
209.93        8.632998
210.39        40.05015
210.85        58.64608
211.31         64.9919
211.77        62.00672
212.23           49.37
212.69        22.10169
213.14       -22.43684
213.60       -87.82948
214.06       -243.2277
214.52       -516.8215
214.98       -175.3533
215.44        -17.9258
215.90        29.49191
216.36        42.45425
216.81        38.17819
217.27        14.85082
217.73       -92.99371
218.19        1191.898
218.65        509.9067
219.11       -1107.414
219.57       -44.27441
220.02        24.16181
220.48        38.40559
220.94        36.47238
221.40        19.97988
221.86       -22.71657
222.32       -51.88235
222.77       -14.53412
223.23        18.30215
223.69        34.40895
224.15        38.75776
224.61        36.64985
225.06        31.43921
225.52        24.44657
225.98        17.40998
226.44        11.51465
226.90         5.25966
227.36        1.879213
227.81        6.787012
228.27        16.26059
228.73        25.89841
229.19        31.97896
229.65        32.44394
230.10        28.09683
230.56        20.36464
231.02        10.40763
231.48         3.31987
231.93        3.093021
232.39        7.967633
232.85        13.91767
233.31        17.37328
233.77        18.39361
234.22        18.52102
234.68         17.8396
235.14        16.41471
235.60        14.70907
236.05        11.74934
236.51        7.836458
236.97        10.70702
237.43        21.34733
237.88        27.45436
238.34         23.8007
238.80         49.9598
239.26        36.09247
239.71        33.74795
240.17        24.44136
240.63        15.47739
241.08        11.50816
241.54        16.39783
242.00         29.6379
242.46        38.63169
242.91        40.47704
243.37         36.3231
243.83        27.91834
244.28         23.4776
244.74        27.56017
245.20         34.8819
245.66        40.92851
246.11        41.61768
246.57        36.44794
247.03        27.68761
247.48        14.89817
247.94        -3.85569
248.40       -35.91539
248.85       -116.9692
249.31       -374.0405
249.77       -602.1509
250.22        -216.728
250.68       -48.97719
251.14        5.048497
251.59        17.65813
252.05        11.58537
252.51       -7.832532
252.96       -39.54327
253.42       -65.69252
253.88       -68.50507
254.33       -53.75522
254.79       -30.75083
255.25       -9.678837
255.70        5.434535
256.16        15.75118
256.62        22.71272
257.07        27.31097
257.53        30.50089
257.99        32.68404
258.44        33.63321
258.90        33.58326
259.35        32.58739
259.81         31.2367
260.27        30.06401
260.72        29.66971
261.18        30.04165
261.63        30.66447
262.09        31.07699
262.55        30.64996
263.00        29.45685
263.46        27.96009
263.91        26.52106
264.37        25.85817
264.83        25.93785
265.28        26.40857
265.74        26.97351
266.19         27.1744
266.65        26.95392
267.11         26.4462
267.56        25.72477
268.02        24.95459
268.47        24.17404
268.93        23.37274
269.38        22.56747
269.84        21.84229
270.30        21.20949
270.75         20.6656
271.21        20.22297
271.66        19.83056
272.12        19.48108
272.57         19.1668
273.03        18.84969
273.48        18.46573
273.94        18.01781
274.39        17.50306
274.85        16.99745
275.31        16.57171
275.76        16.23868
276.22        15.99818
276.67        15.79461
277.13        15.58649
277.58        15.34278
278.04        15.08519
278.49        14.82462
278.95        14.61549
279.40        14.43375
279.86        14.27322
280.31        14.06839
280.77        13.77467
281.22         13.3794
281.68        12.96146
282.13        12.54489
282.59         12.2099
283.04        11.95845
283.50        11.75651
283.95        11.63654
284.41        11.65338
284.86        11.78631
285.32        12.01186
285.77        12.17776
286.22        12.05416
286.68        11.64482
287.13        11.01702
287.59         10.4184
288.04        10.13275
288.50        10.18002
288.95        10.61243
289.41         11.2839
289.86        11.43567
290.32        10.90259
290.77        11.98896
291.22        10.98573
291.68        11.05127
292.13        11.11224
292.59        11.22339
293.04        11.35832
293.50        11.56378
293.95        11.86395
294.40        12.22297
294.86         12.6186
295.31        13.00214
295.77        13.35774
296.22        13.69541
296.68         14.0254
297.13        14.36364
297.58        14.72481
298.04        15.10661
298.49        15.52822
298.95        16.03432
299.40         16.6197
299.85        17.27605
300.31        17.94382
300.76        18.53376
301.21        19.02478
301.67        19.44753
302.12        19.86177
302.58        20.40585
303.03        21.09373
303.48        21.92344
303.94        22.79804
304.39        23.55076
304.84        24.16491
305.30        24.70996
305.75        25.32109
306.20        26.24711
306.66        27.50171
307.11        28.97079
307.57         30.4679
308.02         31.7131
308.47        32.64336
308.93         33.3973
309.38        34.07964
309.83         34.7803
310.29        35.76895
310.74        36.81779
311.19        37.94287
311.65        39.06408
312.10        40.15177
312.55        41.23869
313.00        42.35588
313.46         43.5433
313.91         44.7921
314.36        46.07755
314.82        47.34931
315.27         48.5538
315.72         49.6773
316.18        50.73417
316.63        51.76549
317.08        52.84291
317.53        53.97496
317.99        55.13381
318.44        56.25539
318.89        57.23083
319.35        58.04013
319.80        58.71945
320.25         59.3475
320.70        60.05479
321.16        60.86418
321.61        61.74342
322.06        62.62063
322.51        63.38622
322.97        64.00518
323.42        64.53919
323.87        65.01976
324.32        65.50754
324.78        66.01225
325.23        66.53417
325.68        67.06588
326.13        67.61893
326.59        68.17316
327.04        68.76383
327.49        69.34004
327.94        69.83512
328.39        70.23381
328.85        70.53221
329.30        70.81516
329.75         71.1434
330.20        71.53999
330.66        71.96044
331.11        72.42019
331.56        72.84841
332.01         73.2345
332.46        73.60992
332.92        73.94973
333.37        74.30801
333.82        74.66344
334.27        75.00264
334.72        75.38322
335.17        75.90415
335.63        76.55379
336.08        77.34927
336.53        78.14312
336.98        78.72055
337.43        79.03422
337.88        79.14397
338.34        79.19121
338.79        79.45535
339.24        79.98875
339.69        80.70191
340.14        81.46505
340.59         82.0787
341.05        82.49097
341.50        82.77807
341.95        82.99273
342.40        83.22142
342.85        83.50269
343.30        83.80367
343.75        84.13509
344.20        84.52406
344.66        84.97175
345.11        85.45907
345.56        85.94199
346.01        86.33627
346.46        86.62075
346.91        86.83586
347.36        87.01577
347.81        87.17937
348.26        87.34219
348.72        87.65241
349.17        87.82577
349.62        88.10702
350.07        88.40881
350.52        88.72613
350.97        89.00171
351.42        89.14435
351.87         89.1375
352.32        89.01157
352.77        88.82358
353.22        88.66183
353.67        88.55983
354.13        88.51512
354.58        88.49393
355.03        88.48794
355.48        88.48176
355.93        88.46784
356.38        88.44626
356.83        88.41534
357.28        88.36238
357.73        88.27975
358.18        88.11395
358.63        87.78876
359.08        87.30561
359.53        86.70202
359.98        86.07909
360.43        85.58753
360.88        85.25766
361.33        85.04569
361.78          84.869
362.23        84.59007
362.68        84.17536
363.13        83.67508
363.58        83.13641
364.03        82.63286
364.48        82.18788
364.93        81.76888
365.38        81.37612
365.83        81.01638
366.28        80.67967
366.73        80.36481
367.18        80.03089
367.63        79.60957
368.08        79.09313
368.53        78.50813
368.98        77.90053
369.43        77.33738
369.88        76.83631
370.33        76.37832
370.78        75.95138
371.23        75.54152
371.68        75.14576
372.13        74.77217
372.58        74.41905
373.03        74.07351
373.48        73.72557
373.93        73.37189
374.38        73.00441
374.83         72.6196
375.28        72.22704
375.72        71.82479
376.17        71.44971
376.62        71.10393
377.07         70.7804
377.52        70.46281
377.97        70.15194
378.42        69.85744
378.87         69.5844
379.32        69.34052
379.77        69.08824
380.22        68.76415
380.67        68.35527
381.11        67.87521
381.56         67.3911
382.01        67.03407
382.46        66.83846
382.91        66.77155
383.36        66.72659
383.81        66.53564
384.26        66.16609
384.71        65.67139
385.15        65.15234
385.60          64.825
386.05        64.70629
386.50        64.72631
386.95        64.77242
387.40        64.67341
387.85        64.39515
388.29        63.96949
388.74        63.55717
389.19        63.21156
389.64        62.95246
390.09        62.74453
390.54        62.57241
390.98        62.40474
391.43          62.267
391.88        62.15862
392.33        62.07294
392.78        62.00415
393.23        61.94622
393.67        61.83666
394.12        61.74389
394.57        61.68266
395.02        61.62063
395.47        61.42457
395.91        61.13647
396.36        60.92094
396.81        60.81828
397.26        60.77356
397.71        60.72766
398.15        60.60811
398.60        60.46587
399.05        60.19724
399.50        59.93029
399.95        59.96124
400.39        60.22643
400.84        60.42277
401.29        60.43064
401.74        60.00492
402.18         59.3196
402.63        59.11531
403.08        59.36651
403.53        59.31775
403.97        58.94918
404.42        58.77433
404.87        58.79488
405.32        58.79638
405.76         58.7585
406.21        58.71451
406.66        58.67015
407.11        58.68172
407.55        58.72275
408.00         58.6869
408.45        58.56898
408.90        58.25129
409.34        57.86585
409.79        57.90096
410.24        58.25599
410.68        58.36231
411.13        58.18858
411.58        58.05473
412.03        58.02977
412.47         58.0907
412.92        58.22814
413.37        58.44463
413.81        58.65772
414.26        58.79733
414.71        58.82921
415.15        58.78846
415.60        58.68311
416.05        58.58464
416.49        58.52232
416.94         58.4705
417.39        58.43167
417.83        58.40147
418.28        58.37779
418.73        58.36316
419.17        58.34673
419.62        58.31623
420.07        58.26821
420.51        58.20552
420.96        58.15439
421.41        58.10481
421.85        58.03824
422.30        58.01523
422.74        58.02432
423.19        58.08947
423.64        58.22002
424.08        58.54176
424.53        58.91324
424.98        59.10108
425.42        59.07574
425.87        58.88427
426.31        58.66048
426.76        58.64862
427.21        58.85376
427.65        59.07993
428.10        59.22151
428.54        59.29059
428.99        59.30064
429.44         59.2681
429.88        59.18206
430.33        59.03941
430.77        58.86699
431.22        58.88885
431.66        59.08968
432.11        59.37706
432.56        59.70255
433.00        59.86996
433.45         59.6739
433.89        59.47774
434.34        59.55132
434.78        58.63879
435.23        59.17992
435.67         59.8821
436.12        60.34832
436.57        60.38295
437.01        59.88237
437.46        59.59716
437.90        60.19519
438.35        60.31515
438.79        60.44097
439.24        60.46612
439.68        60.50616
440.13        60.43158
440.57        60.29058
441.02        60.41953
441.46        60.72549
441.91        60.67133
442.35        60.33116
442.80        60.55106
443.24        61.17763
443.69         61.3694
444.13        61.09337
444.58         60.9038
445.02        60.86971
445.47        61.01629
445.91        61.25304
446.36        61.32568
446.80        61.20578
447.24        61.02242
447.69        60.87746
448.13        61.00676
448.58         61.2121
449.02        61.35029
449.47        61.32899
449.91        61.30259
450.36        61.27904
450.80        61.06979
451.25         60.7804
451.69        60.71708
452.13        60.86041
452.58        60.86911
453.02        60.72007
453.47        60.65041
453.91        60.64937
454.36        60.58657
454.80        60.45572
455.24        60.36675
455.69        60.35473
456.13        60.25552
456.58        60.11207
457.02         60.2944
457.46        60.39942
457.91        60.27854
458.35        60.00692
458.79        59.90291
459.24        60.03706
459.68        60.15678
460.13         60.2236
460.57        60.18799
461.01        60.06228
461.46        59.65328
461.90        59.62504
462.34         59.1592
462.79        59.36888
463.23        59.37422
463.68        59.92273
464.12        59.77108
464.56         59.2184
465.01        59.30958
465.45         59.8663
465.89        59.82752
466.34        59.25779
466.78          59.115
467.22        59.46944
467.67        58.96678
468.11        58.99357
468.55        58.82692
468.99        58.86327
469.44        58.81654
469.88        58.68554
470.32        58.55445
470.77        58.44132
471.21        58.37735
471.65        58.36754
472.10        58.40498
472.54        58.44326
472.98        58.43392
473.42        58.37053
473.87        58.26837
474.31        58.13774
474.75        58.12009
475.20        58.18805
475.64        58.18808
476.08        58.13475
476.52        58.08995
476.97        58.02484
477.41        58.10701
477.85        58.30861
478.29        57.80521
478.74         57.6544
479.18        57.62022
479.62        58.03239
480.06        58.19561
480.50        58.13685
480.95        58.09794
481.39        58.03413
481.83         58.2519
482.27        58.27985
482.72        57.94438
483.16        58.18144
483.60        57.98967
484.04         58.2452
484.48        57.96436
484.93        57.97498
485.37        57.72972
485.81        58.01318
486.25        57.56753
486.69        58.45852
487.14        58.72982
487.58        58.47731
488.02        58.25186
488.46        57.82722
488.90        57.68727
489.34        57.87404
489.79        57.71466
490.23        57.99333
490.67        57.93802
491.11        57.81384
491.55        57.67982
491.99        57.59862
492.43        57.55912
492.88        57.57161
493.32        57.69873
493.76        57.82654
494.20        57.87341
494.64        57.84262
495.08        57.34824
495.52        57.11588
495.96        57.17365
496.41        57.58632
496.85        57.72569
497.29        57.52193
497.73        57.46635
498.17        57.30547
498.61         57.4333
499.05        57.65356
499.49         57.4736
499.93         57.0191
500.37         56.8756
500.82        57.05771
501.26        57.39846
501.70        57.74491
502.14        57.43896
502.58        57.05178
503.02        56.86032
503.46        56.99371
503.90         57.0969
504.34        57.09632
504.78        57.08733
505.22        57.05358
505.66        56.96451
506.10        56.86939
506.54        56.83789
506.98        56.87512
507.42        56.91209
507.86        57.19696
508.30        56.99781
508.74        57.16405
509.18        57.06175
509.62        56.95135
510.06        56.88253
510.50         56.8577
510.94        56.79313
511.38        56.68401
511.82        56.60708
512.26        56.56398
512.70         56.5148
513.14        56.47533
513.58        56.48685
514.02          56.549
514.46          56.645
514.90        56.72347
515.34        56.74799
515.78        56.71247
516.22        56.58713
516.66        56.27132
517.10        56.48157
517.54        56.25676
517.98        56.34449
518.42        56.42693
518.86        56.48301
519.30        56.49625
519.74        56.45354
520.18        56.40015
520.62        56.46957
521.06        56.62888
521.50        56.65321
521.93        56.55309
522.37        56.52913
522.81        56.58973
523.25        56.62236
523.69        56.60616
524.13        56.56045
524.57        56.48643
525.01        56.38373
525.45        56.28984
525.89        56.26377
526.32        56.31344
526.76        56.42374
527.20        56.55184
527.64        56.63091
528.08        56.64042
528.52        56.60034
528.96        56.53381
529.40        56.47053
529.83        56.42113
530.27        56.40508
530.71        56.39953
531.15        56.36766
531.59         56.3058
532.03        56.23142
532.46        56.16696
532.90        56.15734
533.34        56.20329
533.78        56.28925
534.22        56.37346
534.66        56.39311
535.09        56.32914
535.53        56.22092
535.97        56.09914
536.41        56.02875
536.85        56.02531
537.28        56.06702
537.72        56.12774
538.16        56.16502
538.60        56.16562
539.04        56.14926
539.47        56.10909
539.91        56.07999
540.35        56.05301
540.79        56.02018
541.22        55.99319
541.66        56.00093
542.10        56.03858
542.54        56.11108
542.97        56.16957
543.41        56.15633
543.85        56.09304
544.29        56.04304
544.72        55.97441
545.16        56.15865
545.60        56.01534
546.04        55.98106
546.47        55.94975
546.91        56.14468
547.35        56.48036
547.79        56.66354
548.22        56.62739
548.66        56.43914
549.10        56.18335
549.53        56.04774
549.97        56.04945
550.41        55.98741
550.84         55.8779
551.28        55.85384
551.72        55.89359
552.15        55.97641
552.59        56.11939
553.03        55.89888
553.46        56.10726
553.90        56.05963
554.34        55.97495
554.77        56.00891
555.21        55.94334
555.65        55.93247
556.08        56.08546
556.52        56.23202
556.96        56.36961
557.39        56.46819
557.83        56.50171
558.27        56.35531
558.70        56.10179
559.14        55.97511
559.57        55.99681
560.01        56.11962
560.45        56.25121
560.88         56.2508
561.32        56.16679
561.75        56.02186
562.19        55.91569
562.63        56.04986
563.06         56.3149
563.50        56.24699
563.93        55.88083
564.37        55.66897
564.80        55.65753
565.24        55.78715
565.68         56.0027
566.11        56.13947
566.55        56.18465
566.98        56.28543
567.42         56.4498
567.85        56.37978
568.29        56.31713
568.72        56.32756
569.16        56.49057
569.60        56.47618
570.03         56.5268
570.47        56.54638
570.90        56.57079
571.34        56.67357
571.77        56.75912
572.21        56.73209
572.64        56.81087
573.08        56.59924
573.51        56.86156
573.95        57.20657
574.38        56.89577
574.82        57.35719
