SpectraSmart Spectrum 2.9.0.0
--------- Device Information -----------
Spectrum Name :  反射率_0
Saving Time :  2024/04/21 00:03:30
Spectro-Module Model Name : SE2030-DUVN
Spectro-Module Serial Number : OS361AC55029948
Wavelength Start : 200
Wavelength End : 1025
Wavelength Unit : Wavelength(nm)
Spectrum Unit : Reflectance(%)
-----------Spectrum Setting ------------
Integration Time : 20ms
Average : 10
Boxcar : 0
Background removal :  enabled
linearity correction :  enabled
SC :  disabled
Intensity correction :  disabled
DWT denoise :  enabled
savitzky-golay :  disabled
FFT :  disabled
Running average :  disabled
Kalman :  disabled
High pass :  disabled
---------------BEGIN--------------------
Wavelength(nm)             Reflectance(%)
200.29               0
200.75        -70.4871
201.21        -37.2592
201.67        -15.9282
202.13       -1.081691
202.58        12.16986
203.04        27.85814
203.50        44.15413
203.96          51.776
204.42        46.02001
204.88        29.36275
205.34        10.32223
205.80     0.001023963
206.26        1.292103
206.72         15.3341
207.18         34.9808
207.64         39.2561
208.10        19.53459
208.55       -16.28588
209.01       -43.93495
209.47        -32.2019
209.93       -3.247949
210.39        21.63703
210.85        38.11858
211.31        46.04147
211.77        48.00669
212.23        46.04118
212.69        37.58255
213.14        16.02556
213.60       -34.57747
214.06       -201.7894
214.52        -629.392
214.98       -304.3332
215.44       -83.47273
215.90       -6.562787
216.36        19.41382
216.81        22.09084
217.27        5.509334
217.73       -81.61678
218.19        974.5674
218.65        416.3428
219.11       -930.4423
219.57       -44.64971
220.02        11.97739
220.48        22.17252
220.94        17.42201
221.40       -2.683529
221.86         -50.285
222.32       -76.48125
222.77        -28.3218
223.23         10.5918
223.69        29.54678
224.15        35.74942
224.61        35.40263
225.06        32.00051
225.52        26.45438
225.98        19.68876
226.44        12.65882
226.90        4.107398
227.36       -1.716572
227.81        2.778873
228.27        13.68996
228.73        25.21328
229.19        32.71805
229.65        33.79581
230.10         29.4559
230.56        21.37527
231.02        10.87954
231.48        3.626054
231.93        3.888422
232.39        9.496341
232.85        16.34744
233.31        21.02014
233.77        23.62572
234.22        25.75708
234.68        27.16314
235.14        27.11264
235.60        25.75541
236.05        22.39501
236.51        17.88819
236.97        20.42783
237.43        31.16421
237.88        38.73531
238.34        38.72573
238.80        61.48336
239.26        51.86907
239.71        50.07357
240.17        41.65622
240.63        31.95973
241.08        24.56835
241.54        22.37324
242.00        26.86348
242.46        28.60596
242.91         24.7423
243.37        16.49166
243.83        5.715038
244.28      -0.1340389
244.74        3.375395
245.20        11.18807
245.66        17.23378
246.11        15.85266
246.57        6.360655
247.03       -9.144398
247.48        -29.0401
247.94        -50.7947
248.40       -78.21977
248.85         -136.65
249.31       -298.8309
249.77       -392.5894
250.22       -131.9884
250.68       -33.53898
251.14       -3.191188
251.59        6.429306
252.05        8.936736
252.51        8.447012
252.96        5.865504
253.42        5.781567
253.88        10.89009
254.33        18.55201
254.79        29.25063
255.25        41.54154
255.70        51.98133
256.16        59.76578
256.62        64.09182
257.07        64.64998
257.53        63.28101
257.99        61.00062
258.44        58.68723
258.90        57.77737
259.35        57.59039
259.81        57.90056
260.27        58.05534
260.72        57.49382
261.18        56.62497
261.63        55.48087
262.09        54.37618
262.55        53.15909
263.00        51.77393
263.46        50.41937
263.91        49.09546
264.37        48.24218
264.83        47.76588
265.28        47.48312
265.74         47.2541
266.19        46.67908
266.65        45.77971
267.11        44.63562
267.56         43.3684
268.02         42.2611
268.47        41.33282
268.93        40.52638
269.38        39.75263
269.84         38.9408
270.30        38.05333
270.75        37.14006
271.21        36.22567
271.66        35.27011
272.12        34.31922
272.57        33.36538
273.03        32.50264
273.48        31.82762
273.94        31.36336
274.39        31.03032
274.85        30.75629
275.31        30.36344
275.76        29.80744
276.22        29.17939
276.67        28.52943
277.13         28.0083
277.58         27.6054
278.04        27.30068
278.49        27.01003
278.95        26.69874
279.40        26.30942
279.86        25.89266
280.31        25.43686
280.77        25.00527
281.22        24.58226
281.68        24.21784
282.13        23.85351
282.59        23.48152
283.04        23.08389
283.50        22.69047
283.95        22.38725
284.41        22.32791
284.86        22.50885
285.32        22.88494
285.77        23.27437
286.22        23.42906
286.68        23.33398
287.13        23.03779
287.59        22.76687
288.04        22.76048
288.50        23.03625
288.95        23.61141
289.41        24.34835
289.86        24.56188
290.32        24.13414
290.77        25.05921
291.22        24.21978
291.68        24.35505
292.13        24.57411
292.59        24.92951
293.04        25.43891
293.50        26.20452
293.95        27.24363
294.40        28.50889
294.86        29.88968
295.31        31.19131
295.77        32.36357
296.22        33.43588
296.68        34.51527
297.13        35.76803
297.58        37.24708
298.04        38.90143
298.49         40.6447
298.95        42.36004
299.40        43.99496
299.85        45.60124
300.31        47.21932
300.76        48.88239
301.21        50.61179
301.67        52.40556
302.12        54.24511
302.58        56.21364
303.03        58.28687
303.48        60.49842
303.94        62.78989
304.39        65.01138
304.84        67.13467
305.30         69.1917
305.75        71.22343
306.20        73.41176
306.66        75.76805
307.11        78.16797
307.57        80.48782
308.02        82.46378
308.47        84.08849
308.93         85.4962
309.38        86.78698
309.83        88.18617
310.29        89.79977
310.74        91.48785
311.19        93.20633
311.65         94.8512
312.10        96.35709
312.55        97.76124
313.00        99.03125
313.46        100.1174
313.91        101.0055
314.36        101.7188
314.82        102.3446
315.27        103.0167
315.72        103.7823
316.18        104.6154
316.63         105.457
317.08        106.2037
317.53        106.8208
317.99        107.3336
318.44        107.7799
318.89         108.205
319.35        108.6219
319.80        109.0222
320.25        109.3833
320.70        109.6793
321.16        109.9002
321.61        110.0804
322.06        110.2499
322.51        110.4619
322.97        110.7131
323.42        111.0238
323.87        111.3482
324.32        111.6274
324.78        111.8268
325.23        112.0083
325.68         112.177
326.13        112.3755
326.59          112.59
327.04        112.8568
327.49        113.1536
327.94         113.482
328.39        113.8365
328.85        114.1913
329.30        114.5749
329.75        114.8896
330.20        115.1231
330.66        115.2501
331.11        115.4134
331.56        115.7083
332.01        116.1638
332.46        116.7459
332.92        117.3106
333.37        117.7635
333.82        118.0164
334.27        118.1311
334.72        118.2115
335.17        118.4351
335.63        118.8205
336.08        119.3654
336.53        119.9898
336.98        120.6137
337.43        121.1881
337.88         121.732
338.34        122.1679
338.79         122.433
339.24        122.5049
339.69        122.4266
340.14        122.3156
340.59        122.3645
341.05         122.627
341.50        123.0603
341.95        123.6087
342.40        124.1736
342.85        124.7025
343.30        125.2114
343.75        125.6556
344.20        125.9724
344.66        126.1632
345.11        126.2183
345.56        126.2093
346.01        126.2587
346.46        126.4105
346.91         126.623
347.36        126.8319
347.81        127.0152
348.26        127.1693
348.72         126.998
349.17        127.1245
349.62        127.2043
350.07        127.4161
350.52        127.6829
350.97        127.8994
351.42        127.8921
351.87        127.6116
352.32        127.1262
352.77        126.5094
353.22        125.8676
353.67        125.2503
354.13        124.6603
354.58        124.0884
355.03        123.5735
355.48        123.1204
355.93        122.7228
356.38        122.3637
356.83        122.0065
357.28        121.6181
357.73        121.1819
358.18        120.6561
358.63        119.9897
359.08        119.1871
359.53        118.2817
359.98        117.3197
360.43        116.3667
360.88        115.4468
361.33        114.5467
361.78         113.692
362.23        112.9172
362.68        112.2225
363.13        111.6039
363.58         110.981
364.03        110.2234
364.48        109.3021
364.93        108.2415
365.38        107.1503
365.83        106.2126
366.28        105.4682
366.73         104.863
367.18        104.2708
367.63        103.4913
368.08        102.4869
368.53        101.3359
368.98        100.1593
369.43        99.12775
369.88        98.28146
370.33        97.56606
370.78        96.90581
371.23        96.19055
371.68        95.39507
372.13        94.55925
372.58        93.75356
373.03        93.06905
373.48         92.5127
373.93        92.04594
374.38        91.57761
374.83        90.97436
375.28        90.22346
375.72        89.36763
376.17        88.54181
376.62        87.86337
377.07        87.34253
377.52        86.91155
377.97        86.51091
378.42        86.05908
378.87        85.53549
379.32        84.98524
379.77        84.39336
380.22        83.71656
380.67        82.95184
381.11        82.11118
381.56        81.27637
382.01        80.61745
382.46        80.18765
382.91        79.95134
383.36        79.79605
383.81        79.53819
384.26        79.12854
384.71         78.6116
385.15        78.06393
385.60        77.67419
386.05        77.44688
386.50        77.31585
386.95        77.17519
387.40         76.8731
387.85        76.39175
388.29        75.76086
388.74        75.16861
389.19         74.6664
389.64        74.27203
390.09        73.94987
390.54        73.67567
390.98        73.40176
391.43        73.15057
391.88        72.91844
392.33         72.7114
392.78        72.51162
393.23        72.31075
393.67         72.1334
394.12        72.01779
394.57         71.7153
395.02        71.27898
395.47        71.03454
395.91        70.99046
396.36        70.84262
396.81          70.603
397.26        70.48138
397.71         70.4174
398.15        70.21857
398.60        69.95399
399.05         69.5405
399.50        69.12327
399.95        69.05315
400.39        69.25822
400.84        69.33667
401.29        69.19717
401.74        68.73958
402.18        68.12863
402.63        67.96969
403.08        68.19926
403.53        68.09132
403.97        67.61746
404.42        67.26309
404.87        67.08178
405.32        66.96387
405.76        66.90839
406.21        66.92807
406.66        66.97586
407.11        67.02287
407.55        67.03852
408.00        66.92413
408.45        66.70306
408.90         66.4062
409.34         66.1002
409.79        65.95213
410.24        65.93191
410.68        65.85173
411.13        65.70377
411.58        65.60837
412.03        65.56989
412.47        65.54953
412.92        65.51966
413.37        65.49835
413.81        65.48164
414.26        65.51766
414.71        65.58888
415.15        65.69748
415.60         65.7737
416.05        65.75839
416.49        65.64294
416.94        65.44525
417.39          65.234
417.83        65.10096
418.28        65.07572
418.73         65.1375
419.17        65.23383
419.62        65.28505
420.07         65.2601
420.51        65.17043
420.96        65.09364
421.41        65.06046
421.85        65.04771
422.30        65.18761
422.74         65.3653
423.19        65.26481
423.64        64.96883
424.08        65.12434
424.53        65.61098
424.98        65.79094
425.42        65.63516
425.87        65.42815
426.31        65.29116
426.76        65.39558
427.21        65.69583
427.65        65.82903
428.10        65.76035
428.54        65.80766
428.99         65.9948
429.44        66.15819
429.88        66.22977
430.33        66.14448
430.77        65.91143
431.22        65.91721
431.66        66.11243
432.11        66.12868
432.56        66.01669
433.00        66.06305
433.45        66.07388
433.89        66.15253
434.34        66.35065
434.78        65.58031
435.23        64.94465
435.67        66.20462
436.12        66.24494
436.57        66.78801
437.01         66.8385
437.46        66.71506
437.90        67.07455
438.35        67.28728
438.79        66.96158
439.24        66.88007
439.68        66.88023
440.13         66.8542
440.57        66.81906
441.02        66.94096
441.46        67.16808
441.91        67.35394
442.35        67.40345
442.80        67.55685
443.24        67.75952
443.69        67.85115
444.13        67.81009
444.58        67.76928
445.02        67.72279
445.47         67.6764
445.91        67.62691
446.36        67.61691
446.80        67.64112
447.24        67.61868
447.69        67.59169
448.13        67.83422
448.58        68.09426
449.02         68.1751
449.47        68.02238
449.91        67.92757
450.36        67.92298
450.80        67.75145
451.25        67.51363
451.69        67.53682
452.13         67.7849
452.58        67.87915
453.02        67.77931
453.47        67.72586
453.91        67.70135
454.36        67.56965
454.80        67.33998
455.24        67.12349
455.69         66.9617
456.13        66.75358
456.58        66.58188
457.02        66.51437
457.46        66.70978
457.91         66.5791
458.35        66.33488
458.79         66.1948
459.24        66.19677
459.68        66.18191
460.13        66.19303
460.57        66.07362
461.01         65.8154
461.46        66.33701
461.90        65.80614
462.34        65.93999
462.79        65.65611
463.23        65.15385
463.68        65.93149
464.12        65.73466
464.56        65.18659
465.01        65.17015
465.45        65.55082
465.89         65.5577
466.34        65.24153
466.78        65.17575
467.22        65.31808
467.67        65.34521
468.11        64.72998
468.55        64.61964
468.99        64.81545
469.44         64.8063
469.88        64.57346
470.32        64.40021
470.77        64.31792
471.21        64.22813
471.65        64.13681
472.10        64.07696
472.54        64.02553
472.98        63.97684
473.42        63.93012
473.87         63.8662
474.31        63.77627
474.75        63.81084
475.20        63.92521
475.64        63.91633
476.08        63.80101
476.52         63.7173
476.97          63.638
477.41        63.64171
477.85         63.7607
478.29        63.33257
478.74        63.42084
479.18        63.55613
479.62        63.53425
480.06        63.60768
480.50        63.65535
480.95        63.63063
481.39        63.45403
481.83        63.77946
482.27        63.91626
482.72        63.58272
483.16        63.70287
483.60        64.03788
484.04        64.10817
484.48        63.81429
484.93        63.57162
485.37        63.76535
485.81        63.61018
486.25        63.01196
486.69        64.55386
487.14        64.69525
487.58        64.24282
488.02        63.50676
488.46        63.44704
488.90        63.70763
489.34        63.83438
489.79        63.27203
490.23        63.58929
490.67        63.49307
491.11        63.51561
491.55        63.50233
491.99        63.46824
492.43         63.4378
492.88        63.39375
493.32        63.36106
493.76        63.31528
494.20        63.31369
494.64        63.38158
495.08        63.20668
495.52        63.29066
495.96        63.35261
496.41        63.46654
496.85        63.38474
497.29         63.1254
497.73        63.15181
498.17        63.12142
498.61        63.24149
499.05        63.32121
499.49        63.09856
499.93        62.73037
500.37         62.7425
500.82        63.08619
501.26        63.46603
501.70        63.71773
502.14        63.26516
502.58        62.77562
503.02        62.49688
503.46        62.58536
503.90        62.71419
504.34        62.78462
504.78        62.81527
505.22        62.79976
505.66        62.74819
506.10        62.67802
506.54        62.71751
506.98        62.90153
507.42        62.63007
507.86        62.92688
508.30        62.92269
508.74        62.85092
509.18        62.75024
509.62        62.63206
510.06        62.56315
510.50        62.53055
510.94        62.45927
511.38         62.3563
511.82        62.30085
512.26        62.29294
512.70        62.28365
513.14        62.27146
513.58        62.27265
514.02        62.28445
514.46        62.30514
514.90        62.30394
515.34         62.2691
515.78        62.20419
516.22        62.08949
516.66        61.82063
517.10        62.06065
517.54         61.9585
517.98        62.15754
518.42        62.34113
518.86         62.4323
519.30        62.40601
519.74        62.25812
520.18        62.07798
520.62        62.08331
521.06        62.25325
521.50        62.32038
521.93         62.2665
522.37        62.26187
522.81        62.30259
523.25        62.28615
523.69         62.2038
524.13        62.09739
524.57        61.97636
525.01        61.82957
525.45        61.70739
525.89         61.6906
526.32        61.78737
526.76        61.97921
527.20        62.18962
527.64         62.2964
528.08        62.26994
528.52        62.14722
528.96         61.9955
529.40         61.9134
529.83        61.92501
530.27        62.02916
530.71        62.15887
531.15        62.20738
531.59        62.15208
532.03        62.03056
532.46         61.8967
532.90        61.84764
533.34        61.89595
533.78         62.0073
534.22        62.11511
534.66        62.11882
535.09        61.99375
535.53        61.80329
535.97        61.59731
536.41        61.46916
536.85        61.44474
537.28        61.49033
537.72        61.58238
538.16        61.68422
538.60        61.77216
539.04        61.85554
539.47        61.89831
539.91         61.8967
540.35        61.83645
540.79        61.72931
541.22        61.60614
541.66        61.53397
542.10        61.52585
542.54        61.56362
542.97         61.6232
543.41        61.69587
543.85        61.76148
544.29        61.83159
544.72        61.87951
545.16        61.89818
545.60        61.87392
546.04        61.79967
546.47        61.71838
546.91        61.71267
547.35        61.78088
547.79        61.89944
548.22        61.99142
548.66        61.94545
549.10        61.78986
549.53        61.69235
549.97        61.69714
550.41        61.65336
550.84        61.56521
551.28        61.61497
551.72        61.80038
552.15         61.5176
552.59        61.85558
553.03        61.52045
553.46        61.62963
553.90        61.56551
554.34        61.56245
554.77        61.57478
555.21        61.60455
555.65        61.64221
556.08        61.66293
556.52        61.71655
556.96        61.77901
557.39        61.77673
557.83        61.74371
558.27        61.77274
558.70         61.8502
559.14        61.87503
559.57        61.82952
560.01        61.82853
560.45        61.84524
560.88        61.77371
561.32        61.68398
561.75        61.61317
562.19        61.61677
562.63        61.73429
563.06        61.89596
563.50         61.8791
563.93         61.6933
564.37        61.59423
564.80          61.593
565.24        61.66153
565.68        61.76671
566.11        61.82685
566.55        61.84912
566.98        61.89566
567.42        61.96338
567.85        61.93945
568.29        61.90065
568.72        61.88726
569.16        61.91341
569.60        62.17374
570.03        62.09004
570.47        62.16737
570.90         62.1853
571.34        62.28871
571.77        62.50484
572.21        62.32208
572.64        62.32282
573.08        62.32404
573.51        62.01217
573.95          62.407
574.38        62.35032
574.82        62.65448
