SpectraSmart Spectrum 2.9.0.0
--------- Device Information -----------
Spectrum Name :  反射率_0
Saving Time :  2024/04/21 00:25:15
Spectro-Module Model Name : SE2030-DUVN
Spectro-Module Serial Number : OS361AC55029948
Wavelength Start : 200
Wavelength End : 1025
Wavelength Unit : Wavelength(nm)
Spectrum Unit : Reflectance(%)
-----------Spectrum Setting ------------
Integration Time : 20ms
Average : 10
Boxcar : 0
Background removal :  enabled
linearity correction :  enabled
SC :  disabled
Intensity correction :  disabled
DWT denoise :  enabled
savitzky-golay :  disabled
FFT :  disabled
Running average :  disabled
Kalman :  disabled
High pass :  disabled
---------------BEGIN--------------------
Wavelength(nm)             Reflectance(%)
200.29               0
200.75       -62.95039
201.21       -30.99094
201.67       -11.23841
202.13     -0.07367659
202.58        7.019539
203.04        13.97546
203.50        20.13553
203.96        21.41546
204.42        15.78578
204.88        3.480048
205.34       -10.21084
205.80       -18.93429
206.26       -20.73036
206.72       -11.63821
207.18        1.452452
207.64       -1.115614
208.10       -25.08083
208.55       -64.79084
209.01       -84.90173
209.47       -47.53147
209.93        6.967708
210.39         50.5961
210.85        77.75539
211.31        88.29417
211.77        86.21432
212.23        71.89972
212.69         40.4549
213.14       -8.389889
213.60       -73.10477
214.06       -206.4521
214.52       -411.8705
214.98       -131.4869
215.44       -12.89933
215.90        22.57858
216.36        32.28314
216.81        28.86487
217.27        10.68838
217.73       -74.48425
218.19        948.8435
218.65        411.7431
219.11       -933.5258
219.57       -46.42366
220.02        10.99179
220.48        22.16221
220.94        19.07179
221.40        2.345648
221.86       -38.53898
222.32       -62.18806
222.77       -21.84661
223.23        11.09417
223.69        27.11875
224.15         32.1478
224.61        31.51365
225.06         28.4031
225.52        23.66818
225.98        18.17105
226.44        12.79406
226.90        6.339392
227.36         2.72505
227.81        8.429749
228.27        19.38176
228.73        30.32968
229.19        37.26163
229.65         38.1669
230.10        33.99106
230.56         26.1965
231.02        16.01294
231.48        8.844547
231.93        8.811129
232.39        13.98793
232.85        20.27337
233.31        24.11955
233.77        25.62014
234.22         26.3513
234.68        26.40385
235.14        25.79094
235.60        24.90716
236.05        22.86495
236.51        20.07036
236.97        23.51926
237.43        33.89272
237.88        40.61869
238.34        39.50103
238.80        61.22649
239.26        50.95938
239.71        48.86321
240.17        40.58323
240.63        32.18633
241.08        27.90903
241.54        31.08608
242.00         41.6303
242.46         49.0956
242.91        51.15865
243.37        48.91355
243.83        44.88477
244.28        47.09984
244.74        57.94881
245.20        71.46334
245.66        81.40809
246.11         82.2324
246.57        73.74512
247.03        57.74886
247.48        36.45398
247.94        12.67989
248.40       -17.73367
248.85       -80.46481
249.31       -266.8625
249.77       -442.3455
250.22       -170.2043
250.68       -47.94274
251.14         -4.3428
251.59        14.38815
252.05        26.08849
252.51        37.88495
252.96        48.12321
253.42        48.26997
253.88        35.24716
254.33        16.40403
254.79        6.915144
255.25        14.53746
255.70        30.04468
256.16         45.0381
256.62          55.413
257.07          59.138
257.53         58.7207
257.99        56.52481
258.44        53.88081
258.90        52.50605
259.35        51.90357
259.81        51.73245
260.27          51.554
260.72        51.06257
261.18        50.52881
261.63        49.86234
262.09        49.14959
262.55        48.06527
263.00        46.59375
263.46        45.02672
263.91        43.48491
264.37        42.52238
264.83        42.07381
265.28        41.90311
265.74        41.81479
266.19         41.3784
266.65        40.58302
267.11        39.51193
267.56        38.29594
268.02        37.21652
268.47        36.30352
268.93        35.52322
269.38        34.74584
269.84        33.83049
270.30        32.75872
270.75        31.61501
271.21         30.5789
271.66        29.85259
272.12        29.48106
272.57         29.3298
273.03        29.26313
273.48         29.0583
273.94        28.66541
274.39        28.12048
274.85        27.47042
275.31        26.72097
275.76        25.91623
276.22         25.1207
276.67        24.39987
277.13        23.91423
277.58        23.64364
278.04        23.53931
278.49         23.5154
278.95        23.51466
279.40        23.45307
279.86        23.36554
280.31        23.14678
280.77        22.72299
281.22        22.08586
281.68        21.34561
282.13        20.60092
282.59        20.06566
283.04        19.75957
283.50        19.62872
283.95        19.63606
284.41        19.74042
284.86        19.89384
285.32        20.11506
285.77        20.29106
286.22        20.26733
286.68        20.05424
287.13        19.66671
287.59         19.3125
288.04        19.21074
288.50        19.37162
288.95        19.84495
289.41        20.49046
289.86        20.59619
290.32        20.03271
290.77        20.88785
291.22        19.88782
291.68        19.95193
292.13        20.13446
292.59        20.47625
293.04        20.92308
293.50        21.46981
293.95        22.11592
294.40        22.83545
294.86        23.62191
295.31        24.44997
295.77        25.30518
296.22         26.1798
296.68        27.04985
297.13          27.877
297.58         28.6792
298.04        29.47914
298.49        30.35255
298.95        31.43624
299.40        32.73324
299.85        34.19947
300.31         35.7237
300.76        37.11844
301.21        38.34866
301.67        39.49327
302.12        40.62391
302.58        41.93324
303.03        43.44404
303.48        45.14313
303.94        46.97202
304.39        48.79808
304.84        50.59217
305.30         52.4031
305.75        54.24463
306.20        56.22375
306.66        58.34012
307.11         60.4973
307.57        62.63648
308.02        64.62547
308.47        66.45403
308.93        68.20562
309.38        69.87598
309.83        71.48199
310.29        73.14321
310.74        74.74606
311.19        76.35291
311.65        78.00525
312.10        79.68938
312.55         81.4006
313.00        83.06852
313.46        84.58112
313.91        85.89471
314.36        87.03714
314.82        88.09566
315.27        89.21163
315.72        90.42147
316.18        91.68158
316.63        92.89494
317.08        93.90573
317.53        94.67523
317.99        95.25637
318.44        95.73805
318.89         96.2481
319.35        96.82563
319.80        97.43661
320.25        98.04235
320.70         98.5854
321.16         99.0347
321.61        99.42935
322.06        99.77081
322.51        100.0646
322.97        100.3072
323.42        100.5336
323.87        100.7439
324.32        100.9596
324.78        101.1728
325.23        101.4191
325.68        101.6943
326.13        102.0161
326.59        102.3578
327.04        102.7622
327.49        103.1712
327.94        103.5218
328.39        103.7992
328.85        103.9916
329.30        104.1954
329.75         104.447
330.20        104.7658
330.66        105.0956
331.11        105.4902
331.56         105.901
332.01        106.3196
332.46        106.7644
332.92        107.1611
333.37        107.5235
333.82        107.8063
334.27        108.0246
334.72        108.2733
335.17         108.715
335.63        109.3501
336.08        110.1847
336.53        111.0682
336.98        111.7949
337.43        112.3002
337.88        112.6376
338.34        112.8641
338.79        113.1406
339.24        113.4989
339.69        113.9083
340.14        114.3509
340.59        114.8063
341.05        115.2644
341.50        115.7371
341.95        116.2384
342.40        116.7856
342.85        117.3674
343.30        117.9684
343.75        118.5047
344.20        118.8555
344.66        119.0147
345.11        119.0025
345.56        118.9516
346.01        119.0711
346.46        119.4096
346.91        119.8889
347.36        120.3652
347.81        120.6783
348.26        120.7971
348.72        120.5512
349.17        120.4856
349.62        120.4576
350.07        120.6465
350.52        120.9712
350.97        121.3235
351.42        121.5233
351.87        121.5109
352.32        121.3424
352.77        121.0953
353.22        120.8854
353.67        120.7436
354.13        120.6487
354.58        120.5123
355.03        120.2537
355.48        119.8591
355.93        119.3654
356.38        118.8562
356.83        118.4511
357.28        118.1618
357.73        117.9362
358.18        117.6771
358.63         117.233
359.08        116.5789
359.53        115.7865
359.98        114.9328
360.43        114.1294
360.88        113.4118
361.33        112.7385
361.78        112.1205
362.23        111.5771
362.68        111.0936
363.13        110.6652
363.58        110.1982
364.03        109.5405
364.48        108.6648
364.93        107.6112
365.38        106.5026
365.83        105.5477
366.28        104.7998
366.73        104.1994
367.18        103.6475
367.63        102.9809
368.08        102.1627
368.53        101.2638
368.98        100.3419
369.43        99.46868
369.88        98.66797
370.33        97.90862
370.78        97.19901
371.23        96.57505
371.68        96.04034
372.13         95.5805
372.58        95.16089
373.03         94.7123
373.48        94.20347
373.93        93.64806
374.38        93.02943
374.83        92.33708
375.28        91.59855
375.72        90.81862
376.17        90.10105
376.62        89.51583
377.07        89.06121
377.52        88.69468
377.97        88.36227
378.42        87.98367
378.87        87.53736
379.32        87.05541
379.77        86.53291
380.22        85.94936
380.67        85.30219
381.11        84.59761
381.56        83.88411
382.01        83.27483
382.46         82.8136
382.91        82.48652
383.36        82.22429
383.81        81.91167
384.26        81.51179
384.71        81.04079
385.15        80.55117
385.60        80.19229
386.05        79.95892
386.50        79.81451
386.95        79.63955
387.40        79.25813
387.85        78.66754
388.29        77.90614
388.74        77.23647
389.19          76.817
389.64        76.65896
390.09        76.66466
390.54        76.71394
390.98        76.59698
391.43        76.30792
391.88        75.92623
392.33        75.49147
392.78        75.05019
393.23        74.63653
393.67        74.18091
394.12        73.86357
394.57        73.67588
395.02        73.92838
395.47        73.96544
395.91        73.83093
396.36        73.65237
396.81        73.43795
397.26         73.0953
397.71        72.65669
398.15        72.25875
398.60        72.01172
399.05        71.67896
399.50         71.3782
399.95        71.53983
400.39        72.01736
400.84        72.16376
401.29        71.89846
401.74        71.38085
402.18        70.79903
402.63        70.60201
403.08         70.7384
403.53        70.58358
403.97        70.11392
404.42        69.78435
404.87        69.63614
405.32        69.51941
405.76        69.42434
406.21        69.43498
406.66         69.4782
407.11        69.38244
407.55        69.17525
408.00        68.98114
408.45        68.85403
408.90        68.73866
409.34        68.63335
409.79        68.58253
410.24        68.56659
410.68        68.55923
411.13        68.55412
411.58        68.54802
412.03         68.5415
412.47        68.56138
412.92        68.57861
413.37        68.58629
413.81        68.57777
414.26        68.60358
414.71        68.64497
415.15        68.70982
415.60        68.72516
416.05        68.62713
416.49        68.41494
416.94        68.11859
417.39        67.82054
417.83        67.63094
418.28        67.58182
418.73         67.6404
419.17        67.75771
419.62        67.85912
420.07        67.91032
420.51        67.91983
420.96        67.92497
421.41        67.91994
421.85        67.88316
422.30         67.8899
422.74        67.89735
423.19        67.87698
423.64        67.84298
424.08        67.99194
424.53        68.23217
424.98        68.35507
425.42        68.34162
425.87        68.28954
426.31        68.26048
426.76         68.2533
427.21        68.30775
427.65         68.5553
428.10        68.84341
428.54        68.91219
428.99        68.78709
429.44        68.50796
429.88        68.19377
430.33        68.25844
430.77        68.57024
431.22        68.75597
431.66        68.78243
432.11        68.96658
432.56        69.29353
433.00        69.30887
433.45        68.83571
433.89        68.66187
434.34         69.0041
434.78        68.28328
435.23        68.12971
435.67        69.69533
436.12        69.54477
436.57        69.82413
437.01        69.49379
437.46        69.30369
437.90        70.05025
438.35        69.64176
438.79        70.01788
439.24        69.90966
439.68         69.8607
440.13        69.63433
440.57        69.35779
441.02        69.64239
441.46        70.28235
441.91        70.33189
442.35        69.83643
442.80        69.91592
443.24        70.47426
443.69        70.63927
444.13        70.32009
444.58        70.42785
445.02        70.05466
445.47        70.19669
445.91        70.50835
446.36         70.6687
446.80        70.63403
447.24         70.6423
447.69        70.71539
448.13        70.80116
448.58        70.72296
449.02        70.70634
449.47        70.70394
449.91        70.69385
450.36         70.6979
450.80        70.64618
451.25        70.58728
451.69        70.67223
452.13         70.8488
452.58        70.78976
453.02        70.51031
453.47        70.34788
453.91         70.3043
454.36         70.2058
454.80        70.08039
455.24        69.97503
455.69        69.89185
456.13        69.95676
456.58        70.18743
457.02        69.75298
457.46        69.74368
457.91        69.67015
458.35        69.69507
458.79        69.61666
459.24        69.41059
459.68        69.26682
460.13         69.2505
460.57        69.10347
461.01        68.81277
461.46        69.33446
461.90        68.82603
462.34        69.02222
462.79        69.01466
463.23        68.77816
463.68        69.06861
464.12        68.67262
464.56        68.06757
465.01        68.13276
465.45        68.66732
465.89         68.8234
466.34         68.4733
466.78        68.31032
467.22        68.36372
467.67        68.17429
468.11        67.98319
468.55        67.94332
468.99        68.06778
469.44        68.05237
469.88        67.88184
470.32        67.70052
470.77        67.53984
471.21        67.39357
471.65        67.27407
472.10        67.18752
472.54        67.12634
472.98        67.09252
473.42        67.08183
473.87        67.12401
474.31        67.15472
474.75        67.14114
475.20        67.06998
475.64         66.9883
476.08        66.94736
476.52        66.86291
476.97        66.67427
477.41        66.80585
477.85         67.2734
478.29        66.47776
478.74        66.18511
479.18        66.78297
479.62        66.56476
480.06        66.77418
480.50        66.77827
480.95        66.84893
481.39        66.89433
481.83        66.99342
482.27        67.53997
482.72        66.90269
483.16        67.19584
483.60        67.49358
484.04        67.54319
484.48        67.23126
484.93        67.02539
485.37         67.0611
485.81        67.23406
486.25         66.2515
486.69        67.68861
487.14        67.64292
487.58        67.27047
488.02        66.97662
488.46        66.78397
488.90         66.4915
489.34         66.4074
489.79        65.94763
490.23        66.63788
490.67        66.78807
491.11        66.77446
491.55         66.5657
491.99        66.27669
492.43        66.15142
492.88          66.216
493.32        66.36703
493.76        66.46561
494.20        66.50757
494.64        66.49548
495.08        65.99796
495.52        65.65514
495.96        65.84173
496.41        66.51527
496.85        66.56462
497.29        65.97601
497.73        65.86364
498.17         65.9229
498.61        65.99447
499.05        65.92553
499.49        65.91532
499.93        65.95534
500.37        65.83126
500.82        65.59808
501.26        65.70576
501.70        66.07109
502.14        65.82058
502.58        65.56347
503.02         65.2801
503.46         65.4707
503.90        65.55106
504.34        65.56724
504.78        65.58817
505.22        65.62263
505.66        65.57171
506.10        65.44975
506.54        65.49387
506.98        65.75205
507.42        65.17367
507.86        65.94308
508.30        65.37851
508.74        65.73444
509.18        65.64614
509.62        65.60754
510.06        65.58986
510.50        65.56444
510.94        65.45676
511.38        65.28038
511.82        65.17633
512.26        65.15557
512.70        65.16116
513.14        65.16654
513.58        65.14725
514.02        65.09378
514.46        65.01552
514.90         64.9318
515.34        64.90567
515.78        64.94868
516.22        65.02268
516.66        64.94143
517.10        65.20945
517.54        65.01886
517.98        65.00338
518.42        64.94392
518.86        64.88727
519.30        64.84525
519.74        64.77326
520.18        64.71255
520.62        64.80974
521.06        65.01831
521.50        65.08827
521.93         65.0147
522.37          64.996
522.81        65.03682
523.25        65.01537
523.69        64.93166
524.13         64.8482
524.57        64.77554
525.01        64.70058
525.45          64.648
525.89        64.65612
526.32        64.72377
526.76        64.84052
527.20         64.9657
527.64        65.03591
528.08        65.03206
528.52        64.97386
528.96        64.88067
529.40        64.77598
529.83         64.6731
530.27        64.60206
530.71        64.55214
531.15        64.50417
531.59        64.45792
532.03        64.42397
532.46        64.41302
532.90        64.45277
533.34        64.53532
533.78        64.64805
534.22        64.74601
534.66        64.76323
535.09        64.68067
535.53        64.54086
535.97        64.38363
536.41        64.29089
536.85        64.28333
537.28        64.33797
537.72        64.41779
538.16        64.46251
538.60        64.45338
539.04        64.41179
539.47        64.34577
539.91        64.31981
540.35         64.3274
540.79        64.35571
541.22        64.38511
541.66        64.40096
542.10        64.39333
542.54        64.36844
542.97        64.33452
543.41        64.33608
543.85        64.37304
544.29        64.44361
544.72        64.50922
545.16        64.55667
545.60        64.56647
546.04        64.50345
546.47        64.42278
546.91        64.48982
547.35        64.66371
547.79        64.77347
548.22        64.75694
548.66        64.61371
549.10        64.41322
549.53        64.35627
549.97        64.44454
550.41        64.44649
550.84        64.35345
551.28        64.32754
551.72        64.37639
552.15         64.4086
552.59        64.42628
553.03        64.52173
553.46        64.56414
553.90        64.56779
554.34        64.47366
554.77        64.48956
555.21        64.35432
555.65        64.33494
556.08        64.45418
556.52        64.65285
556.96        64.86897
557.39        64.85878
557.83        64.62814
558.27        64.53951
558.70        64.27476
559.14        64.17529
559.57        64.13453
560.01        64.28068
560.45            64.5
560.88        64.45396
561.32        64.24838
561.75        64.18461
562.19        64.30349
562.63        64.46887
563.06        64.59109
563.50        64.43444
563.93        64.07512
564.37        63.99351
564.80        64.16435
565.24        64.28513
565.68        64.32384
566.11        64.37971
566.55        64.45154
566.98        64.54987
567.42         64.6674
567.85         64.5132
568.29        64.29626
568.72         64.3454
569.16        64.70578
569.60         64.7606
570.03        64.80628
570.47        64.87353
570.90        65.01933
571.34        64.89687
571.77        65.52003
572.21        65.06169
572.64        65.07642
573.08        65.15807
573.51        64.97678
573.95        65.45547
574.38        65.31359
574.82        65.68191
