SpectraSmart Spectrum 2.9.0.0
--------- Device Information -----------
Spectrum Name :  反射率_0
Saving Time :  2024/04/21 00:02:58
Spectro-Module Model Name : SE2030-DUVN
Spectro-Module Serial Number : OS361AC55029948
Wavelength Start : 200
Wavelength End : 1025
Wavelength Unit : Wavelength(nm)
Spectrum Unit : Reflectance(%)
-----------Spectrum Setting ------------
Integration Time : 20ms
Average : 10
Boxcar : 0
Background removal :  enabled
linearity correction :  enabled
SC :  disabled
Intensity correction :  disabled
DWT denoise :  enabled
savitzky-golay :  disabled
FFT :  disabled
Running average :  disabled
Kalman :  disabled
High pass :  disabled
---------------BEGIN--------------------
Wavelength(nm)             Reflectance(%)
200.29               0
200.75       -52.04757
201.21        15.04819
201.67        51.30397
202.13        64.48024
202.58        64.11502
203.04        55.95448
203.50        40.84623
203.96        23.39757
204.42        8.565319
204.88       -5.066586
205.34       -15.58302
205.80       -21.86063
206.26       -23.93637
206.72       -16.62779
207.18       -5.196541
207.64       -6.300028
208.10       -24.61928
208.55       -55.99806
209.01        -72.2074
209.47       -41.82579
209.93        2.411642
210.39         37.4217
210.85        59.55858
211.31        69.43238
211.77        70.71909
212.23        65.24249
212.69        50.05533
213.14        21.88774
213.60       -27.26339
214.06       -163.1826
214.52       -458.7958
214.98       -179.2105
215.44       -19.73526
215.90        33.08514
216.36        50.38858
216.81        51.83191
217.27        40.30405
217.73       -20.21773
218.19        708.9384
218.65         317.605
219.11       -556.7595
219.57        15.72038
220.02        51.83413
220.48        58.48332
220.94        55.57751
221.40        42.83902
221.86        11.41901
222.32       -10.30694
222.77        16.37302
223.23          40.177
223.69        52.22209
224.15        56.20102
224.61        55.94325
225.06        53.90017
225.52        50.44787
225.98        45.58123
226.44        39.83582
226.90        32.37314
227.36        26.98149
227.81        30.52208
228.27        39.89658
228.73        49.77715
229.19        56.22305
229.65        57.33027
230.10        53.90011
230.56        47.14093
231.02        38.05028
231.48        31.47919
231.93        31.10594
232.39        35.26907
232.85        40.51699
233.31         43.8859
233.77        45.46318
234.22        46.66488
234.68        47.52127
235.14        47.91176
235.60        48.06837
236.05        47.26103
236.51        46.18131
236.97        50.38015
237.43        59.96682
237.88        67.99654
238.34        72.01235
238.80        83.79332
239.26        78.63818
239.71        73.60936
240.17        62.40203
240.63        50.88602
241.08        44.75581
241.54        47.37423
242.00        58.19483
242.46        66.17525
242.91        68.24493
243.37        65.69448
243.83        59.91894
244.28        56.70754
244.74        59.33236
245.20        63.86397
245.66        67.00613
246.11        65.97283
246.57        60.55244
247.03        52.35509
247.48        42.15813
247.94        31.05239
248.40        16.83869
248.85       -14.56508
249.31       -101.8142
249.77        -142.716
250.22        1.116552
250.68        53.95457
251.14        68.31151
251.59           69.15
252.05         63.4861
252.51        51.32705
252.96        34.76883
253.42        27.88434
253.88        38.87939
254.33        59.11294
254.79        76.97878
255.25        82.98041
255.70        80.73406
256.16        76.94113
256.62        74.01308
257.07        73.20013
257.53        74.36018
257.99        75.96129
258.44        77.09718
258.90        77.89624
259.35        77.73675
259.81        77.38087
260.27        76.68324
260.72        75.55485
261.18        74.57484
261.63        73.46339
262.09        72.49213
262.55        71.33348
263.00        69.90922
263.46         68.5432
263.91        67.29623
264.37        66.80077
264.83        66.89895
265.28        67.27853
265.74        67.66263
266.19        67.38267
266.65        66.47318
267.11        65.07077
267.56        63.44228
268.02        62.12256
268.47        61.16712
268.93        60.46221
269.38        59.76943
269.84        58.80589
270.30        57.50101
270.75        56.00072
271.21        54.50471
271.66        53.21224
272.12        52.22803
272.57        51.43217
273.03        50.80001
273.48        50.21917
273.94        49.67646
274.39        49.14214
274.85        48.60628
275.31        47.95375
275.76        47.15912
276.22        46.30181
276.67        45.42499
277.13        44.72702
277.58        44.16808
278.04        43.74387
278.49        43.30717
278.95        42.78253
279.40        42.08637
279.86        41.31684
280.31        40.48163
280.77        39.71935
281.22        39.01315
281.68        38.41146
282.13        37.82994
282.59        37.25922
283.04         36.6601
283.50        36.08445
283.95        35.59498
284.41        35.33946
284.86        35.30216
285.32        35.44918
285.77        35.61007
286.22        35.58073
286.68        35.34726
287.13        34.93106
287.59        34.52773
288.04        34.31458
288.50        34.32195
288.95         34.5706
289.41        34.96128
289.86        34.90619
290.32        34.31741
290.77        34.90913
291.22        34.00505
291.68        34.01997
292.13        34.16827
292.59        34.48306
293.04         34.9156
293.50        35.46599
293.95        36.12469
294.40         36.8698
294.86         37.6675
295.31        38.45053
295.77        39.20266
296.22        39.92029
296.68        40.63136
297.13        41.36868
297.58        42.15745
298.04        42.98636
298.49        43.85647
298.95         44.7951
299.40        45.77763
299.85        46.80096
300.31        47.81456
300.76         48.7121
301.21        49.48976
301.67        50.20607
302.12        50.90227
302.58        51.74262
303.03        52.72326
303.48        53.83267
303.94        55.01646
304.39        56.14606
304.84        57.19194
305.30        58.19839
305.75         59.1548
306.20        60.14035
306.66         61.1692
307.11        62.18144
307.57        63.16054
308.02        64.02328
308.47        64.77486
308.93        65.48209
309.38        66.15476
309.83         66.8213
310.29        67.60993
310.74         68.3931
311.19        69.18116
311.65        69.92544
312.10        70.59711
312.55        71.21349
313.00        71.78648
313.46        72.33823
313.91        72.86339
314.36        73.36208
314.82        73.82989
315.27        74.26292
315.72        74.66344
316.18        75.03153
316.63        75.38025
317.08        75.73358
317.53        76.09306
317.99        76.45485
318.44        76.78168
318.89         77.0004
319.35        77.10545
319.80        77.12843
320.25        77.14915
320.70        77.30128
321.16        77.60299
321.61         78.0199
322.06        78.46558
322.51        78.80545
322.97        78.99074
323.42        79.09077
323.87        79.13123
324.32        79.17458
324.78        79.23379
325.23        79.31061
325.68        79.41921
326.13        79.60829
326.59        79.85976
327.04        80.20972
327.49        80.56033
327.94        80.76766
328.39        80.80247
328.85        80.68185
329.30        80.56477
329.75         80.6221
330.20        80.90972
330.66        81.35242
331.11        81.90024
331.56        82.36102
332.01        82.67776
332.46         82.8908
332.92        83.03334
333.37        83.27571
333.82        83.61933
334.27        84.02746
334.72        84.44099
335.17        84.76887
335.63        84.96852
336.08         85.1258
336.53        85.29463
336.98        85.59367
337.43        86.05411
337.88        86.63824
338.34        87.25592
338.79        87.79826
339.24        88.20609
339.69        88.50735
340.14        88.75378
340.59        89.03764
341.05        89.38499
341.50        89.76645
341.95        90.13819
342.40        90.43615
342.85        90.64766
343.30        90.80788
343.75        90.94672
344.20        91.10782
344.66        91.31779
345.11        91.54903
345.56        91.80951
346.01        92.10755
346.46        92.42763
346.91        92.76278
347.36        93.07536
347.81        93.28756
348.26        93.38812
348.72        93.49459
349.17        93.46157
349.62        93.45364
350.07        93.44743
350.52        93.43263
350.97        93.42986
351.42        93.47366
351.87        93.56077
352.32        93.67721
352.77        93.75959
353.22        93.70784
353.67         93.5055
354.13        93.19592
354.58        92.82348
355.03        92.51498
355.48         92.3008
355.93        92.14085
356.38        91.98957
356.83        91.77404
357.28        91.46676
357.73        91.08976
358.18        90.64771
358.63        90.15078
359.08        89.61739
359.53        89.05433
359.98        88.48484
360.43        87.94138
360.88        87.42957
361.33        86.94027
361.78        86.46867
362.23        86.00507
362.68        85.54111
363.13        85.07811
363.58        84.59235
364.03        84.04417
364.48         83.4333
364.93        82.78034
365.38         82.1232
365.83        81.52803
366.28        81.00961
366.73         80.5349
367.18        80.10181
367.63        79.70377
368.08         79.3276
368.53        78.98759
368.98        78.60284
369.43        78.03933
369.88        77.28191
370.33        76.36079
370.78        75.44205
371.23        74.82709
371.68         74.5888
372.13        74.63555
372.58        74.76289
373.03        74.63475
373.48        74.16473
373.93        73.46018
374.38        72.65524
374.83        71.98405
375.28        71.52577
375.72        71.18073
376.17        70.92973
376.62        70.69984
377.07         70.4485
377.52        70.20081
377.97        69.90072
378.42        69.45593
378.87        68.87898
379.32        68.21921
379.77        67.58255
380.22        67.11489
380.67        66.83508
381.11        66.69444
381.56        66.62492
382.01        66.52176
382.46        66.34687
382.91        66.13048
383.36         65.8667
383.81        65.54787
384.26        65.17992
384.71        64.75807
385.15        64.31446
385.60         63.9628
386.05        63.70189
386.50        63.51625
386.95        63.35143
387.40        63.11963
387.85        62.81419
388.29        62.43664
388.74        62.12085
389.19        61.89321
389.64        61.75529
390.09        61.66899
390.54        61.60495
390.98        61.50626
391.43        61.38963
391.88        61.26562
392.33        61.12308
392.78        60.94983
393.23        60.75397
393.67        60.49483
394.12        60.28645
394.57        60.18814
395.02        60.18582
395.47        60.17515
395.91        60.12699
396.36        60.04288
396.81        59.93083
397.26        59.79569
397.71        59.63033
398.15        59.44562
398.60        59.31563
399.05        59.06918
399.50        58.81764
399.95        58.93777
400.39        59.31369
400.84        59.41065
401.29        59.16961
401.74        58.69863
402.18        58.18194
402.63        58.10037
403.08         58.3828
403.53         58.3543
403.97         57.9779
404.42        57.71596
404.87        57.61589
405.32        57.53929
405.76        57.47753
406.21        57.50275
406.66        57.56849
407.11        57.49924
407.55        57.31486
408.00        57.28582
408.45          57.398
408.90        57.14766
409.34        56.67307
409.79        56.76725
410.24         57.3021
410.68        57.48027
411.13        57.25698
411.58        57.05316
412.03         56.9464
412.47         56.8979
412.92        56.91512
413.37        57.01088
413.81        57.12087
414.26         57.1984
414.71        57.21103
415.15        57.18427
415.60        57.11348
416.05        57.04493
416.49        56.99547
416.94        56.94209
417.39        56.88184
417.83        56.80584
418.28        56.71368
418.73        56.60871
419.17        56.50005
419.62        56.41067
420.07         56.3505
420.51        56.31627
420.96        56.31293
421.41        56.31917
421.85        56.31205
422.30        56.28755
422.74         56.2601
423.19        56.44201
423.64        56.77839
424.08        57.02786
424.53        57.09922
424.98        57.18091
425.42        57.27642
425.87        57.20861
426.31        57.06004
426.76        57.07762
427.21        57.26269
427.65        57.47096
428.10        57.59292
428.54        57.59539
428.99        57.49864
429.44        57.32137
429.88        57.09871
430.33        56.95568
430.77        56.89005
431.22        56.94769
431.66        57.09118
432.11        57.37041
432.56        57.76809
433.00        57.79992
433.45        57.24984
433.89        57.24094
434.34        58.08843
434.78        56.46486
435.23        56.93494
435.67        58.39587
436.12         58.0449
436.57        58.10492
437.01        57.57099
437.46        57.27988
437.90        57.86768
438.35        57.81968
438.79        58.14301
439.24        58.21354
439.68        58.30463
440.13        58.15574
440.57        57.88604
441.02        58.23734
441.46        58.96136
441.91        58.81727
442.35        57.99115
442.80        57.91763
443.24        58.48653
443.69        58.68798
444.13        58.44677
444.58         58.2695
445.02        58.21358
445.47        58.28241
445.91        58.55434
446.36        58.65079
446.80        58.58873
447.24        58.48994
447.69        58.42397
448.13        58.58447
448.58        58.76567
449.02        58.80733
449.47        58.67495
449.91        58.63303
450.36        58.70425
450.80        58.66103
451.25        58.53866
451.69        58.53714
452.13        58.61983
452.58        58.49532
453.02        58.20393
453.47         58.0678
453.91         58.0987
454.36        58.13804
454.80        58.14607
455.24        58.16263
455.69        58.19343
456.13        58.13352
456.58        58.01994
457.02        58.11604
457.46        58.07437
457.91        57.98804
458.35         57.8731
458.79        57.78023
459.24        57.76094
459.68        57.71542
460.13        57.70328
460.57        57.68476
461.01        57.66197
461.46        57.75092
461.90        58.07364
462.34        57.62054
462.79        57.34156
463.23        57.34159
463.68        57.78302
464.12        57.65157
464.56        57.07058
465.01        57.26489
465.45        57.90943
465.89        57.84409
466.34        57.22027
466.78        56.71368
467.22        56.42113
467.67        57.19403
468.11        57.07936
468.55        57.29007
468.99        57.21671
469.44        57.19953
469.88        57.22055
470.32        57.03424
470.77        56.73328
471.21        56.58234
471.65        56.61637
472.10        56.74224
472.54        56.88621
472.98        56.94358
473.42        56.89521
473.87        56.82471
474.31        56.70095
474.75         56.5361
475.20        56.41186
475.64        56.12427
476.08        56.43964
476.52        56.45799
476.97         56.3629
477.41        56.49319
477.85        56.82681
478.29        56.45274
478.74        56.32158
479.18        56.38996
479.62        56.48695
480.06        56.59949
480.50        56.62976
480.95        56.64852
481.39        56.54589
481.83        56.92637
482.27        56.95511
482.72        56.49707
483.16        56.53961
483.60        56.74677
484.04        56.71907
484.48        56.59527
484.93         56.7972
485.37        56.37769
485.81        56.48023
486.25        55.93878
486.69        56.76803
487.14        56.53877
487.58        56.50501
488.02        56.37487
488.46        56.24886
488.90        56.47351
489.34        56.24035
489.79        55.82767
490.23        56.48018
490.67        56.51986
491.11        56.37947
491.55        56.17528
491.99        56.01319
492.43        55.95848
492.88        56.02682
493.32         56.1996
493.76        56.34784
494.20        56.44602
494.64            56.5
495.08        56.03086
495.52        55.78017
495.96        55.93134
496.41        56.48784
496.85        56.42637
497.29        55.79819
497.73        55.62995
498.17        55.65918
498.61        55.88957
499.05        56.08685
499.49        55.82998
499.93        55.28233
500.37        55.26832
500.82        55.71887
501.26         55.9427
501.70        55.86127
502.14         55.4693
502.58        55.32101
503.02        55.21991
503.46         55.2837
503.90        55.42877
504.34         55.5701
504.78        55.67044
505.22        55.72242
505.66        55.64006
506.10        55.44722
506.54        55.49718
506.98        55.84347
507.42        55.30205
507.86         55.6735
508.30        55.62281
508.74        55.56551
509.18        55.50387
509.62        55.42871
510.06        55.40352
510.50        55.40113
510.94        55.35909
511.38        55.27971
511.82        55.22739
512.26        55.20555
512.70        55.17613
513.14         55.1328
513.58        55.11005
514.02        55.11368
514.46        55.08298
514.90        54.99487
515.34        55.13277
515.78        55.07079
516.22        55.09711
516.66        54.93213
517.10        55.23049
517.54        54.98095
517.98        54.98434
518.42        54.96083
518.86        54.95527
519.30        54.97092
519.74        54.97023
520.18         54.9772
520.62        55.09009
521.06        55.26687
521.50        55.30502
521.93        55.20907
522.37        55.16327
522.81        55.17887
523.25        55.14565
523.69        55.07625
524.13        55.04289
524.57        55.05222
525.01        55.08662
525.45        55.13092
525.89        55.15892
526.32        55.16073
526.76        55.14835
527.20        55.13179
527.64        55.12949
528.08        55.14363
528.52        55.16754
528.96        55.18803
529.40         55.1783
529.83        55.13424
530.27        55.09616
530.71         55.0611
531.15        55.02184
531.59        54.98289
532.03        54.94678
532.46         54.9277
532.90        54.96044
533.34        55.03917
533.78        55.15081
534.22        55.24909
534.66        55.26283
535.09        55.17481
535.53        55.03007
535.97        54.86774
536.41        54.76585
536.85        54.74569
537.28         54.7823
537.72        54.85375
538.16        54.92371
538.60        54.97381
539.04        55.01545
539.47        55.02639
539.91        55.01797
540.35        54.97862
540.79        54.91089
541.22        54.83181
541.66        54.78588
542.10        54.77737
542.54        54.79248
542.97        54.81181
543.41        54.83089
543.85        54.84176
544.29        54.86303
544.72        54.87143
545.16        54.88028
545.60          54.881
546.04        54.80101
546.47        54.70699
546.91         54.8416
547.35        55.13425
547.79        55.27515
548.22        55.20502
548.66        55.03954
549.10        54.84708
549.53        54.74367
549.97        54.75186
550.41        54.73666
550.84        54.71206
551.28        54.76704
551.72         54.8639
552.15        54.97843
552.59        55.12608
553.03        54.87595
553.46        55.01714
553.90        54.94626
554.34        54.89493
554.77        54.83582
555.21        54.79654
555.65        54.79601
556.08        54.82621
556.52        54.88863
556.96        54.95609
557.39        55.04855
557.83        55.13807
558.27        55.08814
558.70        54.95083
559.14        54.90529
559.57        54.95818
560.01        55.12914
560.45        55.29241
560.88        55.16803
561.32        54.87005
561.75        54.61615
562.19        54.53455
562.63        54.80298
563.06        55.25175
563.50        55.23618
563.93        54.79914
564.37        54.59667
564.80        54.67137
565.24        54.81163
565.68        54.96694
566.11         55.0646
566.55        55.09819
566.98        55.18949
567.42        55.32108
567.85        55.21804
568.29        54.97239
568.72        54.90618
569.16        55.06609
569.60        55.01183
570.03         54.9904
570.47        55.05213
570.90        55.23421
571.34        55.14748
571.77        55.10409
572.21        55.23627
572.64        55.17733
573.08        54.84814
573.51        55.28984
573.95        55.62967
574.38        55.41372
574.82         55.5719
