SpectraSmart Spectrum 2.9.0.0
--------- Device Information -----------
Spectrum Name :  反射率_0
Saving Time :  2024/04/21 00:08:27
Spectro-Module Model Name : SE2030-DUVN
Spectro-Module Serial Number : OS361AC55029948
Wavelength Start : 200
Wavelength End : 1025
Wavelength Unit : Wavelength(nm)
Spectrum Unit : Reflectance(%)
-----------Spectrum Setting ------------
Integration Time : 20ms
Average : 10
Boxcar : 0
Background removal :  enabled
linearity correction :  enabled
SC :  disabled
Intensity correction :  disabled
DWT denoise :  enabled
savitzky-golay :  disabled
FFT :  disabled
Running average :  disabled
Kalman :  disabled
High pass :  disabled
---------------BEGIN--------------------
Wavelength(nm)             Reflectance(%)
200.29               0
200.75        5.379257
201.21        24.46021
201.67          30.785
202.13        31.31021
202.58        28.44966
203.04        22.64521
203.50        14.89227
203.96        9.076189
204.42        7.291183
204.88        8.206151
205.34        9.814786
205.80        8.455484
206.26        3.142883
206.72       -3.476758
207.18       -12.06351
207.64       -23.58093
208.10       -34.96363
208.55        -46.2087
209.01       -42.69433
209.47        -13.0336
209.93        18.88251
210.39        42.09743
210.85        55.66906
211.31        60.17078
211.77        57.71032
212.23        48.25029
212.69        27.54672
213.14       -8.767128
213.60       -68.78703
214.06       -226.7688
214.52       -542.4115
214.98        -202.412
215.44       -26.78666
215.90        28.14722
216.36        44.50577
216.81        42.79528
217.27        23.39275
217.73       -69.52086
218.19        1048.933
218.65        462.9831
219.11        -1015.97
219.57       -40.93528
220.02        22.13929
220.48        34.99329
220.94        32.62603
221.40        16.47716
221.86       -24.47116
222.32       -51.38895
222.77       -14.42283
223.23        17.37317
223.69        33.18669
224.15        38.28577
224.61        37.80883
225.06        34.95372
225.52        30.49486
225.98        25.10878
226.44        19.52317
226.90        12.43491
227.36        7.657004
227.81         11.9384
228.27        21.75315
228.73        32.01918
229.19        38.40013
229.65        38.45222
230.10         32.9405
230.56        23.18254
231.02        10.80773
231.48         2.86071
231.93        4.212197
232.39        11.97287
232.85        20.71104
233.31        26.00289
233.77        28.07369
234.22        28.81307
234.68        28.65487
235.14        28.22117
235.60         28.1035
236.05        27.27419
236.51        25.90191
236.97        30.00024
237.43        39.93834
237.88        46.33127
238.34        45.60178
238.80        65.51942
239.26        57.26762
239.71        56.60001
240.17        51.21771
240.63        47.01597
241.08        47.86702
241.54        55.88493
242.00         68.5091
242.46        75.58938
242.91        74.42382
243.37         64.1334
243.83        46.84013
244.28        34.76746
244.74        36.21282
245.20        46.04519
245.66         55.9711
246.11        57.15592
246.57        48.48886
247.03        32.94255
247.48        13.05032
247.94       -7.250227
248.40       -29.97967
248.85       -74.60346
249.31       -193.8553
249.77         -255.91
250.22       -63.22057
250.68        8.230075
251.14        30.35077
251.59        38.19999
252.05        41.66948
252.51        43.37967
252.96        43.16819
253.42         41.5786
253.88        39.93681
254.33        39.47982
254.79        43.07182
255.25        50.35802
255.70        58.06363
256.16        64.55178
256.62        69.22848
257.07        71.99688
257.53        73.75542
257.99        74.61528
258.44        74.36863
258.90        73.58044
259.35        71.95849
259.81        70.30353
260.27        68.58711
260.72         66.9167
261.18        65.74699
261.63        64.62949
262.09        63.84189
262.55        63.15296
263.00        62.38899
263.46        61.78167
263.91        61.02856
264.37        60.23203
264.83        59.31425
265.28        58.25642
265.74        57.28628
266.19        56.43523
266.65        55.77006
267.11        55.17167
267.56        54.49107
268.02        53.61331
268.47         52.4646
268.93        51.16094
269.38        49.75834
269.84        48.41788
270.30        47.18322
270.75        46.01493
271.21        44.96498
271.66        44.03212
272.12        43.23536
272.57        42.54566
273.03        41.90969
273.48        41.17715
273.94        40.35442
274.39        39.43926
274.85        38.54558
275.31        37.76743
275.76        37.11703
276.22        36.60046
276.67        36.13604
277.13        35.70926
277.58        35.25254
278.04        34.80913
278.49         34.3442
278.95         33.9115
279.40         33.4605
279.86        33.02458
280.31        32.52774
280.77        31.96803
281.22        31.32046
281.68        30.67607
282.13        30.05766
282.59        29.58804
283.04        29.25227
283.50        29.03551
283.95        28.91042
284.41        28.87562
284.86        28.89573
285.32        28.99189
285.77        29.07002
286.22        29.02257
286.68        28.86252
287.13          28.581
287.59        28.35219
288.04        28.33066
288.50        28.52056
288.95        28.96298
289.41        29.53963
289.86        29.60986
290.32        29.07795
290.77        29.80591
291.22        28.91166
291.68        29.01309
292.13         29.2799
292.59        29.75106
293.04        30.39886
293.50        31.25127
293.95        32.30384
294.40        33.52564
294.86        34.85079
295.31        36.15842
295.77        37.41245
296.22        38.61422
296.68        39.81588
297.13        41.09666
297.58        42.49497
298.04         43.9898
298.49        45.54937
298.95        47.14722
299.40        48.74554
299.85        50.35586
300.31        51.97422
300.76         53.5624
301.21        55.12514
301.67        56.69455
302.12        58.25531
302.58        59.89973
303.03        61.61477
303.48        63.43421
303.94        65.34955
304.39        67.28625
304.84          69.228
305.30        71.18848
305.75        73.13445
306.20          75.136
306.66        77.18434
307.11        79.18519
307.57        81.09271
308.02        82.75864
308.47        84.19435
308.93        85.49559
309.38        86.68289
309.83        87.85736
310.29        89.11027
310.74        90.35998
311.19        91.65247
311.65        93.01803
312.10        94.42845
312.55        95.87544
313.00        97.27525
313.46        98.49818
313.91        99.48878
314.36        100.2743
314.82        100.9381
315.27        101.6113
315.72        102.3408
316.18        103.1016
316.63        103.8193
317.08        104.3725
317.53        104.7417
317.99        104.9753
318.44        105.1851
318.89        105.5275
319.35        106.0338
319.80        106.6557
320.25        107.2877
320.70        107.7665
321.16        108.0346
321.61        108.1562
322.06        108.1972
322.51        108.2729
322.97        108.4109
323.42        108.6244
323.87        108.8633
324.32        109.0659
324.78        109.1987
325.23        109.3215
325.68        109.4805
326.13        109.7763
326.59         110.195
327.04        110.7548
327.49        111.3176
327.94        111.6924
328.39        111.8354
328.85        111.7718
329.30        111.6981
329.75        111.8093
330.20        112.1707
330.66        112.6784
331.11        113.3067
331.56        113.8619
332.01        114.2865
332.46        114.6346
332.92        114.8817
333.37        115.1378
333.82        115.3867
334.27        115.6179
334.72         115.887
335.17        116.2932
335.63        116.8253
336.08        117.5263
336.53        118.2968
336.98        119.0143
337.43        119.6278
337.88        120.1443
338.34        120.5737
338.79        121.0063
339.24        121.4387
339.69        121.8664
340.14        122.2453
340.59        122.5129
341.05        122.6779
341.50        122.7813
341.95        122.9482
342.40        123.3796
342.85        124.0991
343.30        125.0252
343.75        125.9652
344.20        126.6191
344.66        126.9167
345.11        126.9237
345.56        126.7825
346.01         126.727
346.46        126.8386
346.91        127.0311
347.36        127.2275
347.81         127.396
348.26        127.5283
348.72        127.3461
349.17        127.4713
349.62        127.5254
350.07        127.6971
350.52        127.9293
350.97         128.151
351.42        128.2467
351.87        128.1711
352.32        127.9497
352.77        127.6382
353.22        127.3215
353.67        127.0251
354.13         126.754
354.58        126.4242
355.03        125.9573
355.48        125.3567
355.93        124.6693
356.38        124.0208
356.83        123.5914
357.28        123.3991
357.73        123.3695
358.18        123.3478
358.63        123.0897
359.08        122.5328
359.53        121.7527
359.98        120.8605
360.43        120.0281
360.88        119.3042
361.33        118.6347
361.78        117.9777
362.23        117.2703
362.68        116.4989
363.13        115.7041
363.58        114.8954
364.03        114.0772
364.48        113.2498
364.93        112.3934
365.38         111.537
365.83        110.7336
366.28        109.9904
366.73        109.3035
367.18        108.5992
367.63         107.758
368.08        106.7748
368.53        105.7038
368.98        104.6634
369.43        103.8247
369.88        103.2171
370.33        102.7794
370.78        102.4111
371.23        101.9525
371.68        101.3523
372.13        100.6509
372.58        99.90765
373.03        99.20784
373.48        98.56922
373.93        97.96175
374.38        97.34061
374.83        96.64809
375.28        95.89199
375.72        95.09909
376.17        94.37014
376.62        93.75562
377.07        93.25504
377.52        92.82934
377.97        92.44112
378.42        92.04376
378.87         91.6244
379.32        91.20079
379.77         90.7609
380.22        90.27682
380.67         89.7352
381.11        89.13571
381.56        88.50359
382.01        87.91566
382.46        87.40775
382.91        86.98172
383.36         86.5848
383.81          86.126
384.26        85.58742
384.71        84.99211
385.15        84.41183
385.60        84.02538
386.05        83.82588
386.50        83.75623
386.95        83.68082
387.40        83.39561
387.85        82.87772
388.29        82.16821
388.74        81.50497
389.19        80.99749
389.64        80.66911
390.09        80.45514
390.54        80.29903
390.98        80.09699
391.43        79.85571
391.88        79.59512
392.33        79.32322
392.78        79.01437
393.23        78.67426
393.67        78.35957
394.12        78.15251
394.57        77.79472
395.02        77.37496
395.47         77.3359
395.91        77.60967
396.36        77.64116
396.81        77.40292
397.26         77.2096
397.71        77.04816
398.15        76.78008
398.60        76.50926
399.05        76.08585
399.50        75.64094
399.95        75.63503
400.39        75.94894
400.84        75.86611
401.29        75.37122
401.74        74.91168
402.18        74.59826
402.63        74.41248
403.08         74.3134
403.53        74.09664
403.97        73.74731
404.42        73.45488
404.87        73.25179
405.32        73.10584
405.76        73.01196
406.21        73.00903
406.66        73.02025
407.11        72.91873
407.55        72.71613
408.00         72.4203
408.45        72.13035
408.90        72.00928
409.34        72.04063
409.79         72.0639
410.24        72.02858
410.68         71.9928
411.13        71.94137
411.58        71.80996
412.03        71.62966
412.47         71.5231
412.92        71.48543
413.37        71.48962
413.81         71.4979
414.26         71.5132
414.71        71.50496
415.15        71.49799
415.60        71.44849
416.05         71.3438
416.49         71.1906
416.94        70.99164
417.39        70.78695
417.83        70.62737
418.28        70.52832
418.73        70.47305
419.17         70.4373
419.62         70.3894
420.07        70.31895
420.51        70.22887
420.96        70.15087
421.41        70.08984
421.85        70.02196
422.30        69.95992
422.74        69.88112
423.19        69.91988
423.64         70.0309
424.08        70.09613
424.53        70.04052
424.98        70.01409
425.42        70.04354
425.87        69.93926
426.31        69.76526
426.76        69.90678
427.21        70.29008
427.65        70.30778
428.10        69.93791
428.54        70.09805
428.99        70.02902
429.44        70.21078
429.88        70.28358
430.33        70.10143
430.77        69.73245
431.22        69.61243
431.66         69.7254
432.11        70.03204
432.56        70.47988
433.00        70.17582
433.45         69.5248
433.89        69.39244
434.34        70.12273
434.78        68.86137
435.23        68.70706
435.67        69.72803
436.12        69.97726
436.57        70.19866
437.01        69.71004
437.46        69.44891
437.90        70.16409
438.35        70.04565
438.79        70.25868
439.24        70.22701
439.68        70.22668
440.13        70.36728
440.57         70.5518
441.02        70.26112
441.46        69.66047
441.91        69.69283
442.35        70.16978
442.80        70.60295
443.24         70.9026
443.69        70.99076
444.13        70.75604
444.58        71.17178
445.02        70.52415
445.47        70.41643
445.91        70.61505
446.36        70.60435
446.80        70.44551
447.24        70.41357
447.69        70.57564
448.13         70.5365
448.58        70.80092
449.02        70.87276
449.47        70.88975
449.91        70.86772
450.36        70.82504
450.80        70.67424
451.25         70.4824
451.69         70.3877
452.13        70.39956
452.58        70.38649
453.02        70.31176
453.47        70.23375
453.91        70.13641
454.36        69.99486
454.80        69.80135
455.24        69.62627
455.69        69.51086
456.13        69.27666
456.58        68.99574
457.02        69.12966
457.46        69.20405
457.91         69.0558
458.35        68.72514
458.79        68.53561
459.24        68.55568
459.68        68.48624
460.13        68.37481
460.57        68.32797
461.01         68.1063
461.46        67.96388
461.90        68.39469
462.34        67.39415
462.79        67.58244
463.23        67.48231
463.68        67.72966
464.12        67.62402
464.56        67.22918
465.01        67.30621
465.45        67.62395
465.89        67.60289
466.34        67.33659
466.78        67.07435
467.22        66.77552
467.67         67.4164
468.11        66.59718
468.55        66.52442
468.99        66.48574
469.44        66.40605
469.88        66.26913
470.32        66.15266
470.77        66.07968
471.21        65.99481
471.65        65.90067
472.10        65.81575
472.54        65.72916
472.98        65.65643
473.42        65.60558
473.87        65.55533
474.31         65.4866
474.75        65.54697
475.20        65.67526
475.64        65.63464
476.08        65.46892
476.52        65.36722
476.97        65.29449
477.41        65.39538
477.85         65.6281
478.29        65.12398
478.74        64.62022
479.18         64.9925
479.62        65.09003
480.06         65.3238
480.50        65.30239
480.95        65.33537
481.39        65.34058
481.83         65.5508
482.27        65.75307
482.72        65.32606
483.16        65.45243
483.60         65.6729
484.04        65.47046
484.48        65.49592
484.93         65.0435
485.37        65.13668
485.81        65.55381
486.25        64.98273
486.69        66.22098
487.14        65.58518
487.58        65.16202
488.02        65.78941
488.46        64.83858
488.90        65.27943
489.34        64.91391
489.79        64.34617
490.23        64.94723
490.67        65.02372
491.11        65.08252
491.55        65.00532
491.99        64.86614
492.43        64.81657
492.88        64.85197
493.32        64.88256
493.76        64.85062
494.20        64.84502
494.64        64.88368
495.08        64.61795
495.52        64.57635
495.96        64.62103
496.41        64.80087
496.85        64.75334
497.29        64.46339
497.73        64.37379
498.17        64.18188
498.61        64.27859
499.05        64.47907
499.49         64.3476
499.93        63.99599
500.37        64.02499
500.82        64.40306
501.26        64.61084
501.70        64.91072
502.14         64.4614
502.58        64.04282
503.02        63.80539
503.46        63.90388
503.90         64.0435
504.34        64.13655
504.78        64.22485
505.22        64.27708
505.66        64.27666
506.10        64.23724
506.54        64.19975
506.98        64.17239
507.42        64.01814
507.86        64.12529
508.30        63.94469
508.74        64.11485
509.18        64.16769
509.62        64.23151
510.06        64.26955
510.50        64.24958
510.94        64.11562
511.38        63.88712
511.82        63.68005
512.26        63.51707
512.70        63.34464
513.14        63.20775
513.58        63.19836
514.02        63.32152
514.46        63.54987
514.90        63.78722
515.34        63.90692
515.78        63.87829
516.22        63.71935
516.66        63.35301
517.10        63.47928
517.54        63.30031
517.98        63.41748
518.42        63.53832
518.86        63.60913
519.30         63.6049
519.74        63.52182
520.18        63.40667
520.62        63.40569
521.06        63.48812
521.50        63.40952
521.93         63.2069
522.37        63.14507
522.81        63.24044
523.25        63.35067
523.69        63.43224
524.13        63.47523
524.57        63.46526
525.01        63.40517
525.45        63.32558
525.89          63.277
526.32        63.27049
526.76        63.29689
527.20        63.33236
527.64        63.34235
528.08        63.31772
528.52         63.2719
528.96        63.22185
529.40        63.18968
529.83         63.1755
530.27        63.18924
530.71        63.20632
531.15        63.19778
531.59        63.15944
532.03         63.1036
532.46        63.04479
532.90        63.02334
533.34        63.04055
533.78        63.08158
534.22        63.12901
534.66        63.15637
535.09          63.148
535.53        63.13655
535.97        63.11181
536.41        63.07519
536.85        63.03152
537.28        62.97841
537.72        62.93911
538.16        62.95338
538.60        63.02208
539.04        63.13108
539.47         63.2224
539.91         63.2608
540.35        63.21955
540.79        63.12025
541.22        62.99649
541.66        62.91859
542.10        62.89962
542.54        62.91652
542.97        62.94412
543.41        62.97497
543.85        62.99734
544.29        63.03194
544.72        63.05369
545.16        63.07832
545.60        63.09501
546.04        63.02095
546.47        62.92102
546.91        63.05536
547.35        63.34182
547.79        63.43703
548.22        63.29803
548.66        63.08136
549.10        62.87542
549.53        62.83231
549.97         62.9504
550.41        62.96596
550.84        62.86108
551.28        62.86948
551.72        63.00325
552.15        62.90231
552.59        62.98365
553.03        62.98881
553.46        62.99829
553.90        62.92132
554.34         62.7085
554.77        62.87012
555.21         62.7821
555.65        62.48429
556.08        62.70794
556.52        62.71255
556.96        62.75554
557.39        62.86827
557.83        63.03253
558.27        63.07151
558.70         62.9984
559.14        62.96798
559.57        62.97163
560.01        63.04614
560.45        63.10581
560.88        62.89878
561.32        62.56908
561.75        62.40891
562.19        62.48759
562.63         62.7514
563.06        63.05887
563.50        63.01208
563.93        62.66315
564.37        62.54258
564.80        62.65676
565.24         62.7816
565.68        62.87731
566.11          62.891
566.55        62.90918
566.98         62.9495
567.42        63.02156
567.85        62.84368
568.29         62.5561
568.72        62.54644
569.16        62.81996
569.60        62.99104
570.03        62.90755
570.47        62.97931
570.90        63.16529
571.34        63.06218
571.77         63.4342
572.21        63.34366
572.64        63.44884
573.08        63.10887
573.51        63.06138
573.95        63.46832
574.38        63.60864
574.82        63.85793
