SpectraSmart Spectrum 2.9.0.0
--------- Device Information -----------
Spectrum Name :  反射率_0
Saving Time :  2024/04/21 00:07:42
Spectro-Module Model Name : SE2030-DUVN
Spectro-Module Serial Number : OS361AC55029948
Wavelength Start : 200
Wavelength End : 1025
Wavelength Unit : Wavelength(nm)
Spectrum Unit : Reflectance(%)
-----------Spectrum Setting ------------
Integration Time : 20ms
Average : 10
Boxcar : 0
Background removal :  enabled
linearity correction :  enabled
SC :  disabled
Intensity correction :  disabled
DWT denoise :  enabled
savitzky-golay :  disabled
FFT :  disabled
Running average :  disabled
Kalman :  disabled
High pass :  disabled
---------------BEGIN--------------------
Wavelength(nm)             Reflectance(%)
200.29               0
200.75       -66.85403
201.21       -19.83229
201.67        6.159677
202.13        15.96541
202.58        16.40734
203.04        11.58222
203.50        4.038382
203.96       0.2268493
204.42        2.676324
204.88        7.637722
205.34        12.64966
205.80        14.36584
206.26        11.96387
206.72        8.867165
207.18        1.489146
207.64       -17.69115
208.10       -46.82593
208.55       -82.66983
209.01       -95.78386
209.47       -57.68542
209.93       -7.069692
210.39        32.73442
210.85        57.25602
211.31         66.3944
211.77        63.79115
212.23        49.64307
212.69        18.22492
213.14       -34.17567
213.60       -113.0262
214.06        -303.841
214.52       -659.9214
214.98       -255.6586
215.44       -55.93736
215.90        7.189975
216.36        26.36048
216.81          24.931
217.27        3.886551
217.73       -99.23381
218.19        1124.328
218.65        456.9499
219.11       -914.1807
219.57       -20.76041
220.02         35.0845
220.48        45.16671
220.94        40.33314
221.40        19.62329
221.86       -32.60291
222.32        -73.5552
222.77        -34.2031
223.23        4.015511
223.69        24.18649
224.15        31.42471
224.61        31.95089
225.06        29.85757
225.52        25.93197
225.98        20.65072
226.44        14.78662
226.90        7.065406
227.36         1.76558
227.81        6.559808
228.27        17.59808
228.73        29.07202
229.19        36.48669
229.65         37.5618
230.10        33.27925
230.56        25.19386
231.02        14.64213
231.48        7.366971
231.93        7.640828
232.39        13.32523
232.85        20.08403
233.31        24.23054
233.77         25.9092
234.22        26.79081
234.68         27.0403
235.14        26.78803
235.60        26.45035
236.05        25.08184
236.51        23.14219
236.97        27.42585
237.43        38.37998
237.88        46.06105
238.34        46.69659
238.80        66.54851
239.26        57.71339
239.71        54.91731
240.17        46.08792
240.63        38.38888
241.08        37.28939
241.54        45.96499
242.00        61.84935
242.46        72.44257
242.91        74.67695
243.37        68.84756
243.83        57.01282
244.28        49.66503
244.74         53.2167
245.20        62.21852
245.66        70.83888
246.11        73.47588
246.57        69.43613
247.03        61.10367
247.48        49.18386
247.94        33.93951
248.40         11.2067
248.85       -41.97281
249.31        -206.402
249.77        -350.372
250.22       -103.5604
250.68        4.135976
251.14        40.78681
251.59        53.99304
252.05        59.30367
252.51        61.45728
252.96        61.18425
253.42        60.56348
253.88        60.83417
254.33        61.20053
254.79         63.5294
255.25        67.35403
255.70        71.01613
256.16        74.36691
256.62        76.74346
257.07        77.83318
257.53         78.4585
257.99        78.51344
258.44        77.87043
258.90        77.26795
259.35        76.13893
259.81         74.9918
260.27        73.57712
260.72        71.77273
261.18         70.1434
261.63        68.45767
262.09        67.00627
262.55        65.49085
263.00        63.80859
263.46        62.24287
263.91        60.75292
264.37        59.81101
264.83        59.29281
265.28        58.95966
265.74        58.70606
266.19        58.12653
266.65        57.24268
267.11        56.10885
267.56        54.76691
268.02        53.39643
268.47         52.0094
268.93        50.61449
269.38        49.23166
269.84         47.9678
270.30        46.83273
270.75        45.82724
271.21        44.92371
271.66        43.98518
272.12        43.01926
272.57        42.02636
273.03        41.10021
273.48        40.31755
273.94         39.7122
274.39        39.20572
274.85        38.73577
275.31          38.132
275.76        37.36476
276.22        36.53943
276.67        35.74302
277.13        35.19932
277.58        34.87445
278.04        34.71094
278.49        34.54124
278.95        34.23722
279.40        33.71558
279.86        33.08395
280.31        32.34772
280.77        31.61859
281.22        30.90052
281.68        30.24262
282.13        29.63405
282.59        29.15003
283.04        28.76768
283.50        28.50113
283.95        28.33766
284.41        28.29016
284.86        28.33119
285.32        28.47169
285.77        28.62642
286.22        28.70364
286.68        28.71072
287.13        28.62627
287.59        28.59416
288.04        28.72348
288.50        29.00678
288.95        29.49519
289.41        30.09261
289.86         30.1957
290.32        29.72456
290.77        30.52363
291.22        29.73403
291.68        29.93575
292.13        30.31248
292.59        30.91681
293.04        31.74566
293.50        32.86142
293.95        34.26031
294.40        35.89105
294.86        37.65828
295.31        39.39501
295.77         41.0459
296.22        42.61877
296.68        44.16806
297.13        45.77821
297.58        47.50276
298.04        49.33084
298.49        51.25031
298.95        53.26437
299.40        55.34006
299.85        57.47843
300.31        59.67102
300.76        61.86489
301.21        64.04889
301.67        66.24457
302.12        68.40497
302.58        70.59763
303.03        72.79913
303.48        75.05962
303.94        77.38624
304.39        79.71656
304.84        82.04981
305.30        84.40872
305.75        86.76461
306.20        89.20975
306.66        91.74155
307.11        94.24382
307.57        96.67176
308.02        98.85513
308.47        100.8031
308.93        102.6051
309.38         104.252
309.83        105.8505
310.29        107.4288
310.74         108.942
311.19        110.4442
311.65        112.0086
312.10        113.6113
312.55        115.2381
313.00        116.7751
313.46        118.0404
313.91        118.9801
314.36        119.6644
314.82        120.2315
315.27        120.8837
315.72        121.6935
316.18        122.6066
316.63         123.542
317.08        124.3667
317.53        125.0326
317.99        125.5736
318.44        126.0401
318.89        126.4902
319.35         126.941
319.80        127.3859
320.25         127.781
320.70        128.0695
321.16        128.2379
321.61        128.3302
322.06        128.4235
322.51        128.6489
322.97        129.0089
323.42        129.5024
323.87        130.0074
324.32        130.3415
324.78        130.4387
325.23        130.4122
325.68        130.3332
326.13        130.3578
326.59        130.5107
327.04        130.8105
327.49        131.2136
327.94        131.6882
328.39        132.2059
328.85        132.7367
329.30        133.3079
329.75        133.7926
330.20        134.1665
330.66        134.3965
331.11        134.6147
331.56        134.8847
332.01        135.2388
332.46        135.6508
332.92        136.0394
333.37        136.4401
333.82        136.7874
334.27        137.1211
334.72        137.4558
335.17        137.8108
335.63        138.1612
336.08        138.5625
336.53        139.0252
336.98        139.6303
337.43        140.3761
337.88        141.2308
338.34        142.0337
338.79        142.6009
339.24        142.8527
339.69         142.854
340.14        142.7738
340.59        142.8843
341.05        143.2635
341.50        143.8626
341.95        144.5543
342.40        145.1265
342.85        145.5186
343.30        145.7874
343.75        146.0425
344.20        146.4626
344.66        147.0756
345.11        147.7652
345.56        148.3866
346.01        148.7283
346.46        148.7627
346.91        148.5437
347.36        148.1566
347.81        147.8791
348.26        147.8004
348.72        147.3091
349.17        147.4483
349.62        147.4856
350.07        147.7157
350.52        148.0905
350.97         148.473
351.42         148.615
351.87        148.4377
352.32        147.9924
352.77        147.4161
353.22        146.9308
353.67        146.5891
354.13        146.3528
354.58        146.0589
355.03        145.5067
355.48        144.6726
355.93        143.6499
356.38        142.6348
356.83         141.909
357.28        141.5143
357.73        141.3419
358.18        141.1877
358.63        140.7322
359.08        139.8953
359.53        138.7824
359.98        137.5439
360.43        136.4068
360.88        135.4329
361.33        134.5493
361.78        133.6889
362.23        132.7503
362.68        131.7139
363.13        130.6399
363.58        129.5597
364.03        128.5085
364.48        127.4958
364.93        126.4905
365.38        125.5126
365.83        124.6032
366.28        123.7587
366.73        122.9695
367.18        122.1559
367.63          121.19
368.08        120.0636
368.53        118.8351
368.98        117.6087
369.43        116.5342
369.88        115.6394
370.33         114.865
370.78        114.1566
371.23        113.4381
371.68        112.6788
372.13        111.9011
372.58        111.0967
373.03        110.2348
373.48        109.3128
373.93         108.346
374.38        107.3617
374.83         106.424
375.28        105.5723
375.72        104.7782
376.17        104.1067
376.62        103.5471
377.07        103.0657
377.52        102.6328
377.97        102.1799
378.42        101.6117
378.87        100.9246
379.32         100.171
379.77        99.39342
380.22        98.63882
380.67        97.91225
381.11        97.19231
381.56        96.50955
382.01        95.94682
382.46        95.52593
382.91        95.24274
383.36         94.9762
383.81        94.53253
384.26        93.87643
384.71        93.05453
385.15        92.22148
385.60        91.69505
386.05        91.49674
386.50        91.52934
386.95        91.57549
387.40        91.30073
387.85        90.65627
388.29        89.72738
388.74        88.83787
389.19        88.19151
389.64        87.82592
390.09        87.63897
390.54        87.52035
390.98        87.28172
391.43        86.92413
391.88        86.50592
392.33        86.07886
392.78        85.70242
393.23        85.39151
393.67         85.0853
394.12        84.86535
394.57        84.61627
395.02        84.34591
395.47        84.12623
395.91        83.93952
396.36        83.65293
396.81        83.28152
397.26        82.91148
397.71        82.56342
398.15        82.22206
398.60         81.9946
399.05        81.73109
399.50        81.46866
399.95        81.48139
400.39        81.67625
400.84        81.45464
401.29        80.86927
401.74        80.54655
402.18        80.50006
402.63        80.24238
403.08        79.77571
403.53        79.40032
403.97        79.14218
404.42          78.907
404.87        78.67249
405.32         78.5007
405.76        78.37648
406.21        78.18291
406.66        77.95756
407.11        77.99026
407.55        78.17729
408.00        77.98978
408.45        77.45628
408.90        76.86914
409.34        76.41125
409.79        76.40294
410.24        76.71309
410.68        76.76531
411.13        76.51434
411.58        76.30933
412.03        76.19419
412.47        76.08839
412.92        75.97907
413.37          75.905
413.81        75.84314
414.26        75.81655
414.71        75.79945
415.15        75.80476
415.60         75.7786
416.05        75.70015
416.49        75.56857
416.94        75.38488
417.39        75.18457
417.83        75.01441
418.28        74.88737
418.73        74.78169
419.17        74.68009
419.62        74.56364
420.07        74.43021
420.51        74.28948
420.96        74.16302
421.41        74.03802
421.85        73.89278
422.30        73.74123
422.74        73.59753
423.19        73.67658
423.64        73.92984
424.08        74.16679
424.53        74.25597
424.98         74.3315
425.42        74.39355
425.87        74.18051
426.31        73.81998
426.76        73.86875
427.21        74.22205
427.65        74.11696
428.10        73.57102
428.54        73.31583
428.99        73.39661
429.44        73.40138
429.88        73.29897
430.33        73.29078
430.77        73.29207
431.22         73.4037
431.66        73.53996
432.11        73.45592
432.56        73.23228
433.00        73.06899
433.45        72.85555
433.89        72.91483
434.34        73.32521
434.78        72.46288
435.23        72.67285
435.67        73.22189
436.12        73.18484
436.57        73.23693
437.01        73.00863
437.46        72.78077
437.90        73.37052
438.35        72.96019
438.79        73.35072
439.24        73.29457
439.68          73.274
440.13        73.20313
440.57        73.09849
441.02        73.16686
441.46        73.32061
441.91        73.17442
442.35        72.80875
442.80        73.04772
443.24        73.71722
443.69        73.94889
444.13         73.6683
444.58        73.46095
445.02        73.26798
445.47        73.28545
445.91        73.41392
446.36        73.40725
446.80        73.24609
447.24        73.06673
447.69        72.94516
448.13        73.09838
448.58        73.25999
449.02         73.2943
449.47        73.05892
449.91        72.95715
450.36        72.98981
450.80        72.87791
451.25        72.67744
451.69        72.66185
452.13        72.78569
452.58        72.67231
453.02        72.35178
453.47        72.19479
453.91        72.20427
454.36        72.19149
454.80        72.10732
455.24        71.99416
455.69        71.86978
456.13        71.63567
456.58         71.3595
457.02        71.33808
457.46        71.16969
457.91        71.07081
458.35        71.02276
458.79        70.91576
459.24        70.78422
459.68        70.65362
460.13        70.60416
460.57        70.38662
461.01        69.97906
461.46        70.20206
461.90         70.1135
462.34        69.45879
462.79        69.58267
463.23        69.56224
463.68        69.94942
464.12        69.70147
464.56        69.06406
465.01        69.27434
465.45        70.01601
465.89        70.06492
466.34        69.50199
466.78        69.07607
467.22        68.89648
467.67        69.07907
468.11        68.95371
468.55        68.85172
468.99        68.59041
469.44         68.4275
469.88        68.36095
470.32         68.2021
470.77        67.98081
471.21        67.83431
471.65         67.7763
472.10         67.7732
472.54        67.76402
472.98        67.69592
473.42        67.56651
473.87        67.36643
474.31         67.1375
474.75        67.16401
475.20        67.37602
475.64        67.40131
476.08        67.27851
476.52         67.2152
476.97        67.15468
477.41         67.3259
477.85        67.72146
478.29        66.84254
478.74         66.6292
479.18        66.84454
479.62        66.85825
480.06        67.04321
480.50        67.04884
480.95        67.18451
481.39        67.32052
481.83        67.46072
482.27        67.49415
482.72        67.18039
483.16        66.91781
483.60        67.11012
484.04        67.01134
484.48        66.78896
484.93        66.95335
485.37        66.57321
485.81        67.31061
486.25        66.72397
486.69          68.587
487.14        68.62669
487.58        67.84361
488.02        67.38364
488.46          66.805
488.90        66.38099
489.34        66.58668
489.79        66.05431
490.23        66.72158
490.67        66.80112
491.11        66.79235
491.55        66.58628
491.99         66.2822
492.43        66.10312
492.88        66.06982
493.32        66.11642
493.76        66.15615
494.20        66.19205
494.64        66.21954
495.08        65.93367
495.52        65.86964
495.96        65.90135
496.41        66.09064
496.85        66.15099
497.29        65.99026
497.73        65.86909
498.17        65.49585
498.61         65.3952
499.05        65.46845
499.49        65.43058
499.93        65.32472
500.37        65.44277
500.82        65.70493
501.26        65.88419
501.70        65.92652
502.14        65.52778
502.58        65.31572
503.02        65.12534
503.46        65.09904
503.90        65.15917
504.34        65.23676
504.78        65.29376
505.22        65.32095
505.66         65.2726
506.10        65.15416
506.54        65.19995
506.98        65.46091
507.42        65.02077
507.86        65.37907
508.30        65.37322
508.74         65.3056
509.18        65.24522
509.62        65.16869
510.06        65.11669
510.50        65.06213
510.94        64.94121
511.38        64.77106
511.82        64.64761
512.26        64.58194
512.70        64.52012
513.14        64.44748
513.58        64.42513
514.02        64.46281
514.46        64.42889
514.90        64.27074
515.34        64.58692
515.78        64.34509
516.22        64.35188
516.66        64.15958
517.10         64.3775
517.54        64.19118
517.98        64.23747
518.42        64.26504
518.86        64.24873
519.30        64.18525
519.74        64.05165
520.18        63.91779
520.62        63.97171
521.06        64.17938
521.50        64.28034
521.93        64.24732
522.37        64.24267
522.81        64.26165
523.25        64.19328
523.69        64.06106
524.13        63.96123
524.57        63.91121
525.01        63.88919
525.45        63.88866
525.89        63.89875
526.32        63.91125
526.76        63.93349
527.20        63.96976
527.64        64.02701
528.08        64.09904
528.52        64.17916
528.96        64.23895
529.40        64.22933
529.83        64.14442
530.27        64.03502
530.71        63.92173
531.15        63.83548
531.59        63.79116
532.03        63.78426
532.46         63.8049
532.90        63.85001
533.34        63.90422
533.78        63.96626
534.22        64.01309
534.66        64.00935
535.09        63.94196
535.53        63.84448
535.97        63.72989
536.41        63.63821
536.85        63.58435
537.28        63.56099
537.72        63.56701
538.16        63.59979
538.60        63.65087
539.04        63.71767
539.47        63.77326
539.91        63.82956
540.35        63.86688
540.79        63.89036
541.22         63.8917
541.66        63.87671
542.10        63.84224
542.54         63.7802
542.97          63.712
543.41        63.70363
543.85         63.7549
544.29        63.86972
544.72        63.98443
545.16        63.98387
545.60        63.83397
546.04        63.62401
546.47        63.51281
546.91        63.22737
547.35        63.81445
547.79        63.96524
548.22        63.92545
548.66        63.85503
549.10        63.78697
549.53        63.69337
549.97        63.60003
550.41        63.50638
550.84        63.41477
551.28        63.41476
551.72        63.51578
552.15        63.54656
552.59        63.47667
553.03        63.87949
553.46        63.75411
553.90        63.79744
554.34        63.69995
554.77        63.59349
555.21        63.55723
555.65         63.2598
556.08        63.46425
556.52        63.53899
556.96        63.66063
557.39        63.77455
557.83        63.83792
558.27        63.78116
558.70        63.67356
559.14        63.38266
559.57        63.50537
560.01        63.58963
560.45        63.70446
560.88        63.54499
561.32        63.24396
561.75        63.11835
562.19        63.23056
562.63        63.46965
563.06        63.71229
563.50        63.69851
563.93         63.4473
564.37        63.28101
564.80        63.24515
565.24        63.34902
565.68        63.53386
566.11        63.62569
566.55        63.62634
566.98        63.63908
567.42        63.69377
567.85        63.70267
568.29        63.70295
568.72        63.70107
569.16        63.77495
569.60         63.7516
570.03        63.93768
570.47        64.09721
570.90        64.25336
571.34        64.23148
571.77         64.7969
572.21        64.37007
572.64        64.37377
573.08        64.39758
573.51        64.32264
573.95        64.71957
574.38        64.40484
574.82         65.0477
