SpectraSmart Spectrum 2.9.0.0
--------- Device Information -----------
Spectrum Name :  反射率_0
Saving Time :  2024/04/21 00:05:08
Spectro-Module Model Name : SE2030-DUVN
Spectro-Module Serial Number : OS361AC55029948
Wavelength Start : 200
Wavelength End : 1025
Wavelength Unit : Wavelength(nm)
Spectrum Unit : Reflectance(%)
-----------Spectrum Setting ------------
Integration Time : 20ms
Average : 10
Boxcar : 0
Background removal :  enabled
linearity correction :  enabled
SC :  disabled
Intensity correction :  disabled
DWT denoise :  enabled
savitzky-golay :  disabled
FFT :  disabled
Running average :  disabled
Kalman :  disabled
High pass :  disabled
---------------BEGIN--------------------
Wavelength(nm)             Reflectance(%)
200.29               0
200.75       -5.612522
201.21        21.48419
201.67        33.63907
202.13        35.78405
202.58         31.7751
203.04        23.14584
203.50         12.9735
203.96        10.15135
204.42        17.78125
204.88        31.41892
205.34        45.25677
205.80        51.77494
206.26          48.866
206.72         38.3119
207.18        18.82631
207.64       -8.708685
208.10       -38.09664
208.55       -67.43079
209.01       -75.28042
209.47       -43.05028
209.93       -2.611444
210.39        28.83042
210.85        48.14575
211.31        55.34998
211.77        53.39035
212.23        42.58439
212.69        17.91554
213.14       -25.70918
213.60       -97.42615
214.06        -285.943
214.52       -664.1334
214.98       -260.5685
215.44       -50.38095
215.90        16.01336
216.36        36.55028
216.81        36.54419
217.27        18.09834
217.73       -74.20343
218.19        1038.836
218.65        450.3012
219.11       -970.8005
219.57       -36.30433
220.02         23.1667
220.48        33.61341
220.94        27.65739
221.40        4.010727
221.86       -54.15956
222.32       -96.53848
222.77       -49.12051
223.23       -5.132784
223.69        17.64387
224.15        25.58547
224.61        25.94377
225.06        23.27779
225.52        18.96646
225.98        14.56608
226.44        11.07552
226.90        6.748441
227.36        5.063622
227.81        11.50442
228.27        21.97137
228.73        32.06822
229.19        37.98902
229.65        37.52814
230.10        31.43544
230.56        20.90365
231.02        7.688572
231.48      -0.5967813
231.93         1.16343
232.39        9.737869
232.85          19.238
233.31        24.88696
233.77        26.92421
234.22        27.38568
234.68        26.65279
235.14        25.27864
235.60        23.92506
236.05        21.51692
236.51        18.49609
236.97        22.07221
237.43        32.91738
237.88        40.34159
238.34        40.19898
238.80        62.34116
239.26        53.04536
239.71        51.45224
240.17        43.82815
240.63        36.46474
241.08        33.70932
241.54        38.37617
242.00         49.4364
242.46        56.18699
242.91        55.82405
243.37        48.63288
243.83        36.79454
244.28        30.22215
244.74        34.66608
245.20        44.85683
245.66        53.47684
246.11        53.12395
246.57         43.1251
247.03        26.09596
247.48        4.619012
247.94       -17.17113
248.40       -41.73341
248.85       -90.66054
249.31       -222.6514
249.77       -295.8652
250.22       -84.22577
250.68       -3.690121
251.14        20.26416
251.59        25.43337
252.05        22.81306
252.51        14.60073
252.96         2.85299
253.42      -0.5683035
253.88        11.28578
254.33        31.22226
254.79        50.86375
255.25        62.97403
255.70        68.00674
256.16        69.70585
256.62        69.97088
257.07        69.95128
257.53        70.23017
257.99          70.258
258.44        69.48454
258.90        68.18269
259.35        66.07546
259.81        64.00528
260.27          62.142
260.72        60.76081
261.18        60.14793
261.63        59.72107
262.09        59.45014
262.55        58.87169
263.00        57.87656
263.46         56.8048
263.91        55.63116
264.37        54.78341
264.83        54.18368
265.28        53.65867
265.74        53.15304
266.19        52.35512
266.65        51.30649
267.11         50.0477
267.56        48.66992
268.02        47.41053
268.47        46.27736
268.93        45.25299
269.38         44.2354
269.84        43.13582
270.30        41.92666
270.75        40.65876
271.21        39.44599
271.66        38.38152
272.12        37.52138
272.57        36.80808
273.03        36.19175
273.48        35.54685
273.94        34.87277
274.39        34.17071
274.85        33.52248
275.31        32.97681
275.76        32.52727
276.22        32.16974
276.67        31.83653
277.13        31.52761
277.58         31.1798
278.04        30.82099
278.49        30.39942
278.95        29.93236
279.40        29.38247
279.86        28.80584
280.31        28.17166
280.77        27.52863
281.22        26.86943
281.68        26.26163
282.13        25.71978
282.59        25.33903
283.04        25.10171
283.50        25.00245
283.95        24.99974
284.41        25.06173
284.86        25.15385
285.32        25.29143
285.77        25.42814
286.22        25.52435
286.68        25.59218
287.13        25.59514
287.59        25.62576
288.04        25.71751
288.50        25.85321
288.95        26.12859
289.41        26.50698
289.86        26.45597
290.32        25.89968
290.77        26.73746
291.22        25.90598
291.68        26.05642
292.13        26.30251
292.59        26.71823
293.04        27.28761
293.50        28.05237
293.95        29.02516
294.40        30.17185
294.86        31.45437
295.31        32.79908
295.77        34.17242
296.22        35.55649
296.68         36.9668
297.13        38.42748
297.58        39.95867
298.04        41.55502
298.49        43.19232
298.95        44.85477
299.40        46.52098
299.85        48.21062
300.31        49.93867
300.76        51.69855
301.21        53.49756
301.67        55.34825
302.12        57.23464
302.58        59.24568
303.03          61.355
303.48        63.59094
303.94        65.89086
304.39        68.09841
304.84        70.18982
305.30        72.20927
305.75        74.20489
306.20        76.37041
306.66        78.72498
307.11        81.14015
307.57         83.5008
308.02        85.55164
308.47        87.28018
308.93        88.80588
309.38        90.20667
309.83        91.68474
310.29        93.32532
310.74        95.00546
311.19        96.67987
311.65         98.2472
312.10        99.65604
312.55        100.9583
313.00        102.1481
313.46        103.2163
313.91        104.1555
314.36        104.9677
314.82        105.7346
315.27        106.5786
315.72        107.5305
316.18        108.5629
316.63        109.5603
317.08         110.331
317.53        110.8309
317.99        111.1132
318.44        111.3111
318.89        111.6254
319.35        112.1059
319.80        112.7018
320.25        113.3028
320.70         113.736
321.16        113.9476
321.61        114.0134
322.06        114.0249
322.51         114.134
322.97        114.3682
323.42        114.7234
323.87        115.1065
324.32         115.386
324.78        115.5089
325.23        115.5625
325.68        115.6161
326.13        115.8133
326.59         116.159
327.04        116.6602
327.49        117.1998
327.94        117.6247
328.39        117.8875
328.85        117.9978
329.30        118.0913
329.75        118.2505
330.20        118.5123
330.66        118.8008
331.11        119.1521
331.56        119.4745
332.01        119.7494
332.46        120.0069
332.92        120.2097
333.37        120.4463
333.82        120.6863
334.27        120.9366
334.72        121.2306
335.17        121.6274
335.63        122.1008
336.08        122.6858
336.53        123.3245
336.98         123.972
337.43        124.5956
337.88         125.196
338.34        125.6906
338.79        126.0217
339.24         126.159
339.69         126.136
340.14        126.0773
340.59        126.1822
341.05        126.5052
341.50         127.017
341.95        127.6135
342.40         128.117
342.85        128.4747
343.30        128.7294
343.75        128.9629
344.20        129.3127
344.66        129.8063
345.11        130.3575
345.56        130.8656
346.01         131.181
346.46        131.2862
346.91        131.2257
347.36        131.0634
347.81        130.9935
348.26        131.0707
348.72        130.8791
349.17        131.0839
349.62        131.2073
350.07        131.4306
350.52        131.7228
350.97        131.9475
351.42        131.8698
351.87        131.4403
352.32        130.7298
352.77        129.9243
353.22        129.3113
353.67        128.9556
354.13        128.7972
354.58        128.6445
355.03        128.2433
355.48        127.5413
355.93        126.6345
356.38        125.6962
356.83        124.9806
357.28        124.5281
357.73        124.2354
358.18        123.9405
358.63         123.394
359.08        122.5433
359.53        121.4948
359.98        120.3641
360.43        119.3187
360.88        118.4076
361.33        117.5646
361.78        116.7837
362.23          116.06
362.68        115.3761
363.13        114.7513
363.58        114.0918
364.03          113.24
364.48        112.1741
364.93        110.9285
365.38        109.6674
365.83        108.6681
366.28        107.9827
366.73        107.5187
367.18        107.0883
367.63        106.3881
368.08        105.3542
368.53        104.1078
368.98        102.7853
369.43        101.5815
369.88        100.5564
370.33        99.64135
370.78        98.82736
371.23        98.11839
371.68         97.5042
372.13        96.99445
372.58        96.52518
373.03        95.97367
373.48        95.30103
373.93         94.5219
374.38        93.68481
374.83        92.89624
375.28         92.1965
375.72        91.54245
376.17        90.93755
376.62        90.29984
377.07        89.60066
377.52        88.85497
377.97        88.09077
378.42        87.37267
378.87         86.7351
379.32        86.16897
379.77        85.64269
380.22        85.09319
380.67        84.49311
381.11        83.86037
381.56        83.21288
382.01        82.60915
382.46         82.0815
382.91        81.62447
383.36        81.21042
383.81        80.79269
384.26        80.35543
384.71        79.90545
385.15        79.46175
385.60        79.12022
386.05        78.85907
386.50        78.64305
386.95         78.3998
387.40        78.02878
387.85        77.52608
388.29        76.89937
388.74        76.31331
389.19        75.78719
389.64        75.33199
390.09        74.92356
390.54        74.56034
390.98        74.22948
391.43        73.96433
391.88        73.75211
392.33        73.57186
392.78        73.36881
393.23         73.1268
393.67        72.87633
394.12        72.69015
394.57        72.36651
395.02        71.96578
395.47        71.80344
395.91        71.83076
396.36        71.65581
396.81        71.27372
397.26        70.91899
397.71        70.63309
398.15        70.35617
398.60         70.1712
399.05        69.98766
399.50        69.82021
399.95         69.7566
400.39         69.7495
400.84        69.61847
401.29        69.34221
401.74        68.89273
402.18        68.38107
402.63        68.11237
403.08        68.07803
403.53        67.94426
403.97        67.69336
404.42         67.5645
404.87        67.52627
405.32        67.44907
405.76        67.31561
406.21        67.12923
406.66        66.90221
407.11        66.78696
407.55        66.76721
408.00        66.50425
408.45        66.06973
408.90        65.90563
409.34        65.98444
409.79        65.91576
410.24        65.71024
410.68        65.65744
411.13        65.75631
411.58        65.84906
412.03        65.89465
412.47        65.90304
412.92        65.83602
413.37        65.71208
413.81        65.55812
414.26        65.46371
414.71        65.42994
415.15        65.45679
415.60        65.49799
416.05        65.52716
416.49        65.53281
416.94        65.51472
417.39        65.48822
417.83        65.46581
418.28        65.45494
418.73        65.44916
419.17        65.42613
419.62        65.36418
420.07        65.26096
420.51        65.11864
420.96         65.0042
421.41        64.96285
421.85        64.97353
422.30        65.07862
422.74        65.19409
423.19        65.25366
423.64        65.25237
424.08         65.3413
424.53        65.45612
424.98        65.54547
425.42        65.62431
425.87        65.58009
426.31        65.50237
426.76        65.79594
427.21        66.34728
427.65        66.46578
428.10        66.11241
428.54        65.90856
428.99        65.91067
429.44        65.73876
429.88        65.44939
430.33        65.39334
430.77        65.50328
431.22        65.75542
431.66        66.04275
432.11        66.16003
432.56        66.14305
433.00        66.06497
433.45        65.80954
433.89        65.82252
434.34        66.19718
434.78        65.17564
435.23        65.27585
435.67        65.73306
436.12        66.08051
436.57         66.3714
437.01        66.30058
437.46        66.23375
437.90         66.8866
438.35        66.58797
438.79        66.82566
439.24         66.7002
439.68         66.6205
440.13        66.49837
440.57         66.3765
441.02        66.44862
441.46        66.65062
441.91          66.717
442.35        66.62393
442.80        66.92896
443.24        67.52065
443.69        67.75616
444.13        67.51704
444.58         67.6284
445.02        67.14661
445.47         67.0872
445.91        67.14721
446.36        67.12234
446.80        66.99724
447.24        66.94991
447.69        67.01991
448.13        67.09148
448.58          67.314
449.02        67.21557
449.47        66.92377
449.91        66.80741
450.36        66.91431
450.80        66.94893
451.25        66.92455
451.69        67.04694
452.13        67.25358
452.58        67.20541
453.02        66.93171
453.47         66.7862
453.91        66.78308
454.36        66.71864
454.80        66.61449
455.24        66.48364
455.69         66.3705
456.13        66.15421
456.58        65.91967
457.02        66.03099
457.46        66.08437
457.91        66.13188
458.35        66.13943
458.79        66.09629
459.24         66.0285
459.68         65.9146
460.13        65.85562
460.57        65.64368
461.01        65.25014
461.46        65.63251
461.90        65.49777
462.34        64.94687
462.79        65.19937
463.23        65.18143
463.68        65.26952
464.12        64.92739
464.56        64.36014
465.01        64.45814
465.45        64.99819
465.89        65.25309
466.34        65.17548
466.78        64.92294
467.22        64.55844
467.67        64.71126
468.11        64.26118
468.55        64.28918
468.99        64.36357
469.44        64.28094
469.88        64.01216
470.32        63.67878
470.77        63.39779
471.21        63.26774
471.65        63.32296
472.10        63.54126
472.54        63.77512
472.98        63.84406
473.42         63.7181
473.87        63.38242
474.31        62.97619
474.75        63.00828
475.20        63.40837
475.64        63.58071
476.08        63.48411
476.52        63.47668
476.97        63.51448
477.41        63.49207
477.85        63.44987
478.29        63.10926
478.74         62.9847
479.18        63.27487
479.62        63.35661
480.06        63.48495
480.50        63.43298
480.95         63.3726
481.39        63.28278
481.83        63.27116
482.27        63.45925
482.72        63.28042
483.16        63.30381
483.60        63.64348
484.04        63.66546
484.48        63.27435
484.93        63.00445
485.37        63.31865
485.81        63.42759
486.25        63.41233
486.69        65.10378
487.14        64.86469
487.58        63.80339
488.02        63.24458
488.46        63.11817
488.90        63.28921
489.34        63.15337
489.79        62.80482
490.23        62.90084
490.67        62.84056
491.11        62.87402
491.55        62.92098
491.99        62.96766
492.43        62.97236
492.88        62.92347
493.32        62.88486
493.76        62.81639
494.20        62.74644
494.64        62.70441
495.08        62.33674
495.52        62.23742
495.96        62.32254
496.41        62.63298
496.85        62.71388
497.29        62.51147
497.73        62.42972
498.17        62.19629
498.61        62.31747
499.05        62.57737
499.49        62.37993
499.93        61.86828
500.37        61.73367
500.82        61.98281
501.26        62.38305
501.70        62.75797
502.14        62.40488
502.58        61.95087
503.02        61.70734
503.46        61.82293
503.90         61.9101
504.34        61.87941
504.78         61.8565
505.22         61.8514
505.66        61.69165
506.10        61.42883
506.54        61.57222
506.98        62.12684
507.42         61.6155
507.86        61.91864
508.30          61.846
508.74        61.82938
509.18         61.7481
509.62        61.60544
510.06        61.56373
510.50        61.60197
510.94        61.62082
511.38         61.6025
511.82        61.58644
512.26        61.56439
512.70        61.50766
513.14        61.42248
513.58        61.33575
514.02        61.25543
514.46        61.17703
514.90        61.09766
515.34        61.05028
515.78         61.0432
516.22        61.04237
516.66        60.89199
517.10         61.1761
517.54        61.00779
517.98        61.07199
518.42        61.10503
518.86        61.12766
519.30        61.13485
519.74        61.08762
520.18         61.0203
520.62        61.06145
521.06        61.17224
521.50        61.12864
521.93        60.94057
522.37        60.81735
522.81        60.77592
523.25        60.69915
523.69        60.60413
524.13        60.57174
524.57         60.6069
525.01        60.68552
525.45          60.784
525.89        60.86388
526.32         60.9082
526.76         60.9282
527.20         60.9309
527.64        60.93259
528.08        60.93641
528.52        60.93787
528.96        60.92815
529.40        60.88711
529.83        60.81341
530.27        60.74913
530.71        60.69387
531.15         60.6423
531.59        60.59963
532.03        60.57153
532.46        60.56164
532.90        60.58887
533.34        60.64495
533.78        60.71957
534.22        60.78568
534.66        60.80338
535.09        60.75597
535.53        60.67599
535.97        60.57316
536.41        60.48051
536.85        60.41197
537.28        60.36364
537.72        60.33612
538.16        60.32969
538.60        60.34144
539.04        60.37217
539.47        60.40458
539.91        60.46161
540.35        60.52387
540.79        60.58763
541.22        60.63696
541.66        60.66389
542.10        60.65958
542.54        60.62212
542.97        60.56151
543.41        60.52679
543.85        60.52305
544.29        60.55401
544.72        60.57792
545.16        60.58278
545.60        60.55584
546.04        60.43385
546.47        60.29409
546.91        60.42001
547.35        60.74029
547.79        60.86947
548.22          60.763
548.66        60.66466
549.10        60.60651
549.53        60.52113
549.97        60.43699
550.41          60.374
550.84        60.35426
551.28        60.37558
551.72        60.40934
552.15         60.4809
552.59        60.61266
553.03        60.35264
553.46         60.5694
553.90        60.42958
554.34         60.4593
554.77        60.39705
555.21        60.36265
555.65        60.40373
556.08        60.49901
556.52        60.59394
556.96        60.64531
557.39        60.69841
557.83        60.73092
558.27        60.59466
558.70        60.36616
559.14        60.28327
559.57        60.36181
560.01        60.58448
560.45        60.82862
560.88        60.82917
561.32        60.64677
561.75        60.47479
562.19        60.40421
562.63        60.42043
563.06        60.48442
563.50        60.46174
563.93         60.3445
564.37        60.28812
564.80        60.29144
565.24        60.37282
565.68        60.50037
566.11        60.55185
566.55        60.52875
566.98        60.55104
567.42        60.67389
567.85        60.51957
568.29        60.67969
568.72        60.78361
569.16        61.00932
569.60         61.0512
570.03        61.19467
570.47        61.23932
570.90        61.24019
571.34        61.26392
571.77        61.61351
572.21         61.2907
572.64        61.36076
573.08        61.20594
573.51        61.39645
573.95        61.75301
574.38         61.3176
574.82        62.12901
