SpectraSmart Spectrum 2.9.0.0
--------- Device Information -----------
Spectrum Name :  反射率_0
Saving Time :  2024/04/21 00:45:16
Spectro-Module Model Name : SE2030-DUVN
Spectro-Module Serial Number : OS361AC55029948
Wavelength Start : 200
Wavelength End : 1025
Wavelength Unit : Wavelength(nm)
Spectrum Unit : Reflectance(%)
-----------Spectrum Setting ------------
Integration Time : 20ms
Average : 10
Boxcar : 0
Background removal :  enabled
linearity correction :  enabled
SC :  disabled
Intensity correction :  disabled
DWT denoise :  enabled
savitzky-golay :  disabled
FFT :  disabled
Running average :  disabled
Kalman :  disabled
High pass :  disabled
---------------BEGIN--------------------
Wavelength(nm)             Reflectance(%)
200.29               0
200.75        22.97333
201.21        43.24047
201.67        51.67682
202.13        55.02105
202.58        55.90779
203.04        55.19204
203.50        52.07281
203.96         45.6672
204.42        36.48656
204.88        25.08971
205.34        13.91616
205.80        4.552451
206.26       -2.941724
206.72       -5.354799
207.18       -6.216312
207.64       -15.49488
208.10       -34.02656
208.55        -59.0323
209.01       -65.52331
209.47       -29.74806
209.93        15.08067
210.39        49.54854
210.85        70.58685
211.31        78.72077
211.77        77.18314
212.23        66.08826
212.69        41.53196
213.14        3.190019
213.60       -48.62381
214.06       -157.8276
214.52       -334.0278
214.98       -107.9691
215.44       -7.787022
215.90        23.32331
216.36        32.11547
216.81        29.30454
217.27        13.65899
217.73       -59.86696
218.19        812.2838
218.65        341.2635
219.11       -679.8792
219.57       -11.66387
220.02        30.93648
220.48        39.38235
220.94        37.56522
221.40        26.02904
221.86       -2.548396
222.32       -18.94658
222.77         9.29283
223.23         32.2312
223.69        43.26735
224.15         46.4514
224.61        45.55011
225.06        42.95314
225.52        39.17793
225.98        34.59136
226.44        29.87679
226.90        24.09144
227.36        21.05186
227.81        26.89919
228.27        37.71368
228.73         48.2786
229.19        54.94953
229.65        56.09774
230.10        52.62981
230.56        45.73869
231.02        36.47976
231.48        29.86613
231.93        29.65279
232.39        34.11305
232.85         39.6199
233.31        43.07612
233.77        44.54323
234.22        45.39732
234.68        45.73716
235.14        45.59165
235.60         45.2539
236.05        44.01398
236.51        42.21363
236.97        45.08617
237.43        53.06351
237.88        58.60878
238.34        58.68845
238.80        73.86188
239.26        66.84118
239.71        64.79187
240.17        57.99504
240.63        51.27485
241.08        48.32635
241.54        51.53804
242.00        60.44517
242.46        66.68519
242.91        68.22945
243.37        65.44113
243.83        59.96598
244.28        58.10646
244.74        62.85044
245.20        70.60864
245.66        76.29475
246.11        74.84588
246.57         65.9613
247.03        51.21623
247.48        33.43525
247.94        17.54188
248.40        3.674905
248.85       -16.12735
249.31       -54.74459
249.77       -50.94246
250.22        17.53351
250.68        36.84996
251.14        42.29559
251.59         45.7823
252.05         50.1045
252.51        56.16486
252.96         63.1188
253.42        66.85193
253.88        64.59454
254.33        59.48488
254.79        57.51855
255.25        60.89307
255.70        66.42732
256.16        71.63641
256.62        75.43049
257.07        77.41307
257.53        78.47271
257.99        78.77316
258.44        78.05791
258.90        76.88037
259.35        74.92517
259.81        72.99021
260.27        71.12778
260.72        69.52494
261.18         68.6021
261.63        67.82993
262.09        67.34625
262.55        66.77161
263.00        65.94372
263.46        65.14438
263.91        64.23396
264.37        63.54815
264.83         62.9842
265.28        62.42143
265.74        61.84699
266.19        60.95331
266.65        59.81784
267.11        58.46603
267.56        57.04185
268.02        55.87889
268.47        54.97981
268.93        54.29392
269.38        53.61924
269.84        52.71867
270.30        51.52757
270.75        50.13937
271.21        48.73885
271.66         47.5268
272.12        46.59432
272.57         45.8349
273.03        45.18304
273.48        44.47252
273.94        43.69722
274.39        42.87206
274.85        42.07161
275.31        41.31348
275.76        40.59814
276.22        39.94995
276.67        39.34367
277.13        38.86149
277.58        38.43982
278.04        38.09145
278.49        37.71032
278.95        37.25957
279.40          36.677
279.86        36.04562
280.31        35.34853
280.77        34.67625
281.22        34.01765
281.68        33.42962
282.13         32.8958
282.59        32.49194
283.04         32.1815
283.50        31.96532
283.95        31.81219
284.41        31.72123
284.86        31.65793
285.32        31.64483
285.77        31.59674
286.22        31.42712
286.68        31.15359
287.13        30.76304
287.59        30.42761
288.04         30.2917
288.50          30.366
288.95        30.70056
289.41        31.17728
289.86        31.16138
290.32        30.55705
290.77        31.17647
291.22        30.22194
291.68        30.30156
292.13        30.59537
292.59        31.12561
293.04        31.79066
293.50        32.50322
293.95        33.24474
294.40         34.0277
294.86        34.88947
295.31        35.87555
295.77         36.9889
296.22         38.1781
296.68        39.41336
297.13        40.64244
297.58        41.86773
298.04        43.11617
298.49        44.39425
298.95        45.73291
299.40        47.12388
299.85        48.56382
300.31        50.05499
300.76         51.5751
301.21        53.11914
301.67         54.7002
302.12        56.28464
302.58        57.93378
303.03        59.61632
303.48        61.36462
303.94        63.14181
304.39        64.83687
304.84        66.44408
305.30        68.00862
305.75        69.56281
306.20        71.26646
306.66        73.13657
307.11        75.06379
307.57        76.97105
308.02        78.66499
308.47        80.13282
308.93        81.47179
309.38        82.70259
309.83        83.91879
310.29        85.21326
310.74        86.47926
311.19        87.74019
311.65         88.9948
312.10        90.21295
312.55        91.40247
313.00        92.51558
313.46        93.47626
313.91        94.25639
314.36        94.88841
314.82        95.44227
315.27        96.02233
315.72        96.66879
316.18         97.3595
316.63        98.05105
317.08        98.67352
317.53        99.20014
317.99         99.6433
318.44        100.0372
318.89        100.4192
319.35           100.8
319.80        101.1812
320.25        101.5217
320.70        101.7634
321.16         101.895
321.61         101.956
322.06        102.0301
322.51        102.2566
322.97        102.6479
323.42        103.1974
323.87        103.7759
324.32        104.1849
324.78        104.3509
325.23        104.3609
325.68         104.315
326.13        104.4118
326.59        104.6818
327.04        105.1238
327.49         105.607
327.94        105.9479
328.39        106.0975
328.85        106.0829
329.30        106.0817
329.75        106.2547
330.20        106.6508
330.66        107.1744
331.11        107.7747
331.56         108.229
332.01        108.4864
332.46        108.6172
332.92        108.6674
333.37        108.8603
333.82        109.2079
334.27        109.6578
334.72        110.1975
335.17        110.8099
335.63        111.4331
336.08        112.1248
336.53         112.784
336.98        113.2891
337.43        113.6115
337.88        113.7775
338.34        113.8395
338.79        113.9574
339.24        114.1616
339.69        114.4325
340.14        114.7549
340.59           115.1
341.05        115.4553
341.50        115.8375
341.95        116.2447
342.40        116.6715
342.85        117.1063
343.30        117.5366
343.75        117.9224
344.20        118.2151
344.66        118.4147
345.11         118.514
345.56        118.5733
346.01        118.6876
346.46        118.8833
346.91        119.1242
347.36        119.3336
347.81        119.4514
348.26        119.4729
348.72        119.2111
349.17         119.149
349.62        119.1161
350.07        119.2613
350.52        119.5169
350.97        119.7782
351.42        119.8698
351.87        119.7377
352.32        119.4377
352.77        119.0449
353.22        118.6722
353.67        118.3557
354.13        118.0806
354.58        117.7869
355.03        117.4354
355.48        117.0189
355.93        116.5612
356.38        116.1061
356.83        115.7117
357.28        115.3735
357.73        115.0516
358.18        114.6806
358.63        114.1647
359.08        113.4899
359.53        112.7054
359.98        111.8536
360.43        110.9945
360.88        110.1525
361.33        109.3078
361.78        108.5011
362.23        107.7955
362.68        107.1958
363.13        106.6941
363.58        106.1869
364.03        105.5031
364.48        104.6128
364.93        103.5633
365.38        102.4965
365.83        101.6494
366.28        101.0708
366.73         100.676
367.18        100.3245
367.63        99.79253
368.08        99.02406
368.53        98.10451
368.98         97.1108
369.43        96.14783
369.88        95.25417
370.33        94.39317
370.78        93.58179
371.23           92.87
371.68          92.269
372.13        91.77215
372.58         91.3371
373.03         90.8744
373.48        90.34916
373.93        89.77995
374.38        89.16179
374.83         88.5048
375.28        87.83515
375.72        87.14124
376.17        86.50637
376.62        85.98149
377.07         85.5608
377.52         85.1993
377.97        84.81729
378.42        84.40533
378.87        83.97165
379.32        83.34817
379.77        82.50682
380.22        82.40682
380.67        81.40926
381.11        80.81776
381.56        80.19632
382.01        79.69353
382.46        79.32911
382.91        79.10192
383.36        78.92184
383.81        78.59967
384.26        78.10046
384.71        77.46786
385.15        76.81062
385.60        76.36538
386.05        76.14947
386.50        76.09656
386.95        76.05547
387.40        75.79758
387.85        75.29064
388.29        74.58173
388.74        73.92541
389.19        73.47207
389.64        73.24549
390.09        73.17316
390.54         73.1335
390.98        72.91989
391.43        72.52981
391.88        72.03136
392.33        71.54169
392.78        71.19064
393.23        71.00011
393.67        70.96563
394.12        71.06222
394.57        70.89986
395.02        70.53485
395.47        70.44727
395.91        70.61295
396.36         70.5593
396.81        70.28197
397.26        70.06407
397.71        69.89528
398.15        69.62262
398.60        69.33656
399.05        68.97993
399.50        68.64321
399.95        68.56732
400.39        68.70777
400.84        68.71823
401.29        68.55483
401.74        68.32325
402.18        68.06743
402.63        67.85518
403.08        67.68498
403.53        67.43591
403.97        67.11999
404.42        66.86907
404.87        66.67832
405.32        66.52748
405.76        66.41296
406.21        66.26344
406.66        66.09059
407.11        66.13906
407.55        66.32648
408.00        66.09898
408.45        65.53216
408.90        65.23088
409.34        65.23552
409.79         65.2023
410.24        65.09343
410.68        65.07729
411.13        65.15279
411.58         65.1655
412.03        65.07451
412.47        65.37644
412.92        65.18275
413.37        65.19151
413.81         65.1376
414.26         65.0769
414.71        64.99417
415.15        64.91267
415.60        64.81731
416.05        64.71637
416.49        64.62006
416.94        64.51985
417.39        64.42844
417.83        64.35287
418.28        64.29461
418.73        64.24976
419.17         64.1924
419.62        64.09228
420.07        63.94932
420.51        63.77177
420.96        63.62384
421.41         63.5634
421.85        63.57651
422.30        63.65595
422.74        63.73893
423.19        63.89643
423.64        64.06929
424.08        64.14085
424.53        64.07443
424.98        64.07501
425.42         64.1767
425.87        64.20528
426.31        64.17876
426.76        64.29454
427.21        64.48919
427.65        64.46741
428.10        64.25272
428.54        64.13829
428.99        64.16511
429.44        64.29144
429.88        64.40488
430.33         64.1768
430.77        63.70465
431.22        63.73465
431.66        64.16959
432.11        64.30556
432.56         64.1167
433.00        64.03865
433.45        63.98515
433.89        63.91021
434.34        63.86277
434.78         63.5768
435.23         63.4043
435.67        63.99807
436.12        64.84991
436.57        65.21224
437.01        64.65514
437.46        64.32912
437.90         64.8137
438.35        65.06898
438.79        64.83211
439.24        64.73991
439.68        64.68416
440.13        64.62478
440.57        64.56734
441.02        64.56127
441.46        64.60585
441.91        64.69804
442.35        64.77789
442.80        65.08942
443.24        65.50597
443.69        65.66188
444.13        65.51529
444.58        65.29138
445.02        65.06454
445.47        65.03777
445.91        65.17777
446.36        65.20732
446.80        65.10209
447.24        65.04785
447.69        65.09991
448.13        65.12955
448.58        65.40054
449.02        65.34583
449.47          65.096
449.91        64.96523
450.36         64.9949
450.80        64.91827
451.25         64.7772
451.69        64.81245
452.13        64.97803
452.58        64.94213
453.02        64.72143
453.47        64.62951
453.91        64.66329
454.36        64.65769
454.80        64.58725
455.24        64.48883
455.69        64.37716
456.13        64.24228
456.58        64.12647
457.02        64.00819
457.46        63.81951
457.91        63.83311
458.35        64.05128
458.79        64.07553
459.24        63.93555
459.68        63.79665
460.13        63.71977
460.57        63.59213
461.01        63.44648
461.46        63.62671
461.90        63.11208
462.34        63.49215
462.79        63.44033
463.23        63.01781
463.68        63.63729
464.12        63.24946
464.56        62.58965
465.01        62.53666
465.45        62.95402
465.89        63.19498
466.34        63.20191
466.78        63.03067
467.22        62.68834
467.67        62.96827
468.11        62.42728
468.55        62.36916
468.99        62.34099
469.44        62.27837
469.88        62.17063
470.32        62.10046
470.77        62.09015
471.21        62.08356
471.65        62.08002
472.10        62.10313
472.54        62.10813
472.98        62.07087
473.42        61.99667
473.87         61.8274
474.31        61.60765
474.75         61.6895
475.20        61.97474
475.64        61.94911
476.08        61.66727
476.52        61.53265
476.97        61.48821
477.41        61.60687
477.85        61.89229
478.29        61.28281
478.74         60.7292
479.18        61.57441
479.62        61.14479
480.06        61.38202
480.50         61.4144
480.95        61.52058
481.39        61.61238
481.83        61.79269
482.27         62.0294
482.72        61.88242
483.16        61.84483
483.60        62.17181
484.04        62.22683
484.48        61.92473
484.93        61.64862
485.37         61.7332
485.81        61.80172
486.25        61.06274
486.69        61.75488
487.14        62.44494
487.58        61.77025
488.02        61.47184
488.46        61.20145
488.90        61.27974
489.34        61.35949
489.79        61.02366
490.23        61.42913
490.67        61.61331
491.11        61.85428
491.55        61.65827
491.99        61.16637
492.43        60.98322
492.88        61.15012
493.32           61.37
493.76        61.50613
494.20        61.59723
494.64        61.63385
495.08        61.25558
495.52        61.08698
495.96        61.06585
496.41        61.26699
496.85        61.21883
497.29        60.90918
497.73        60.86462
498.17        60.78543
498.61        60.92559
499.05        61.09219
499.49        60.97898
499.93        60.68687
500.37        60.63306
500.82        60.80856
501.26        61.09522
501.70        61.36361
502.14         60.9879
502.58        60.58716
503.02        60.38367
503.46        60.51865
503.90        60.68025
504.34        60.77086
504.78        60.83069
505.22        60.85364
505.66        60.75087
506.10        60.55544
506.54        60.58768
506.98        60.91742
507.42        60.40579
507.86         61.0088
508.30        60.87026
508.74        60.89801
509.18        60.78655
509.62        60.67019
510.06        60.59055
510.50        60.52845
510.94        60.41571
511.38        60.27036
511.82        60.19943
512.26         60.2072
512.70        60.24263
513.14        60.27448
513.58         60.2683
514.02         60.2138
514.46        60.12482
514.90        60.01599
515.34        59.95315
515.78        59.95465
516.22        59.96544
516.66        59.83351
517.10        60.16024
517.54        60.03373
517.98        60.15975
518.42        60.24371
518.86        60.26337
519.30        60.21189
519.74        60.07074
520.18         59.9171
520.62        59.94446
521.06         60.1277
521.50        60.21929
521.93        60.19682
522.37        60.21428
522.81        60.26511
523.25        60.24712
523.69        60.17139
524.13        60.09515
524.57        60.02694
525.01        59.98016
525.45        59.97632
525.89          59.892
526.32        59.97852
526.76        60.03444
527.20        60.10988
527.64        60.15915
528.08        60.17125
528.52        60.15281
528.96        60.11635
529.40        60.08284
529.83         60.0561
530.27        60.05951
530.71        60.06572
531.15        60.02947
531.59        59.94795
532.03        59.84382
532.46        59.74508
532.90        59.70772
533.34        59.73611
533.78        59.81004
534.22        59.89426
534.66         59.9349
535.09        59.91018
535.53        59.85813
535.97        59.78611
536.41        59.72226
536.85        59.67886
537.28        59.64818
537.72        59.63539
538.16        59.65132
538.60        59.69156
539.04        59.75025
539.47         59.7981
539.91        59.83955
540.35        59.85416
540.79        59.84991
541.22        59.82237
541.66        59.78038
542.10        59.72596
542.54        59.65787
542.97        59.59398
543.41        59.59272
543.85        59.65638
544.29        59.78038
544.72        59.90745
545.16        60.00025
545.60         60.0335
546.04        59.94845
546.47        59.81995
546.91        59.90892
547.35        60.14567
547.79        60.21638
548.22        60.08841
548.66        59.87849
549.10        59.69309
549.53        59.77216
549.97        60.05836
550.41         60.1488
550.84        60.02209
551.28        59.89022
551.72        59.79134
552.15        59.79069
552.59        59.93644
553.03        59.73584
553.46        59.99844
553.90        59.95345
554.34        59.82662
554.77        59.69125
555.21        59.63927
555.65        59.42536
556.08        59.62241
556.52        59.75589
556.96        59.92851
557.39        60.05446
557.83        60.11774
558.27        60.08414
558.70        59.97829
559.14        59.89611
559.57        59.84406
560.01        59.84592
560.45        59.85888
560.88        59.78334
561.32        59.69225
561.75        59.62925
562.19        59.64837
562.63        59.82176
563.06        60.04138
563.50         59.9514
563.93        59.59895
564.37        59.40789
564.80        59.41148
565.24        59.52161
565.68        59.68871
566.11        59.79309
566.55        59.82534
566.98        59.90779
567.42        60.05046
567.85        59.93827
568.29        59.85971
568.72        59.84902
569.16        60.01776
569.60        59.98664
570.03        60.03999
570.47        60.16517
570.90        60.18712
571.34        60.20997
571.77        60.59626
572.21        60.23122
572.64        60.30862
573.08        60.12447
573.51        60.17743
573.95        60.54749
574.38        60.39518
574.82        60.62227
