SpectraSmart Spectrum 2.9.0.0
--------- Device Information -----------
Spectrum Name :  反射率_0
Saving Time :  2024/04/21 00:16:38
Spectro-Module Model Name : SE2030-DUVN
Spectro-Module Serial Number : OS361AC55029948
Wavelength Start : 200
Wavelength End : 1025
Wavelength Unit : Wavelength(nm)
Spectrum Unit : Reflectance(%)
-----------Spectrum Setting ------------
Integration Time : 20ms
Average : 10
Boxcar : 0
Background removal :  enabled
linearity correction :  enabled
SC :  disabled
Intensity correction :  disabled
DWT denoise :  enabled
savitzky-golay :  disabled
FFT :  disabled
Running average :  disabled
Kalman :  disabled
High pass :  disabled
---------------BEGIN--------------------
Wavelength(nm)             Reflectance(%)
200.29               0
200.75       -36.07957
201.21        5.463665
201.67         28.3117
202.13        35.50785
202.58        33.09124
203.04        24.59249
203.50        13.20821
203.96        8.058984
204.42        12.88139
204.88        23.03264
205.34        33.69971
205.80        38.68474
206.26        36.30494
206.72        29.27452
207.18        15.78987
207.64       -6.156379
208.10       -32.17236
208.55       -60.16471
209.01       -67.70316
209.47       -34.57706
209.93        7.075087
210.39        39.38693
210.85        59.42508
211.31        67.57529
211.77        67.09737
212.23        58.86972
212.69        39.20452
213.14          5.4203
213.60       -47.73925
214.06       -182.4659
214.52       -438.2885
214.98       -143.1329
215.44        1.959744
215.90        46.45826
216.36        60.11956
216.81        60.47945
217.27        49.52609
217.73         -5.9672
218.19        668.9621
218.65        317.1476
219.11       -592.8512
219.57        7.140885
220.02        45.62997
220.48        52.80875
220.94        49.70587
221.40        36.22486
221.86        1.394954
222.32       -29.01048
222.77       -6.289958
223.23        17.42845
223.69        30.29984
224.15        35.17163
224.61        35.87653
225.06        35.26259
225.52        33.14602
225.98        28.41001
226.44        21.27177
226.90         10.9657
227.36        2.633026
227.81        6.057654
228.27        17.66005
228.73        30.37285
229.19        38.83246
229.65        40.41512
230.10        36.19099
230.56        27.79162
231.02        16.73842
231.48        9.380846
231.93        10.20001
232.39         16.7056
232.85        24.04703
233.31        28.17676
233.77        29.28448
234.22        29.13912
234.68        28.30437
235.14        27.69273
235.60        27.97607
236.05        28.05978
236.51         27.8749
236.97        32.70925
237.43        42.58241
237.88        48.64459
238.34        47.47808
238.80         66.1804
239.26        57.22181
239.71        55.44468
240.17        48.64091
240.63        43.10788
241.08        43.27964
241.54        51.94118
242.00        66.58677
242.46        76.12631
242.91        77.98322
243.37        71.99816
243.83        60.27023
244.28        53.44054
244.74        57.77431
245.20        67.95439
245.66        77.86528
246.11         81.4985
246.57        78.31863
247.03        70.88984
247.48        60.32261
247.94        47.94469
248.40        31.38347
248.85       -5.782708
249.31       -114.4127
249.77       -184.8407
250.22       -13.05081
250.68        54.91671
251.14        76.16623
251.59         82.2943
252.05        82.88788
252.51         79.7387
252.96        73.41873
253.42        68.76028
253.88        69.39294
254.33        73.17873
254.79        78.34788
255.25        81.63839
255.70        82.66242
256.16        83.13849
256.62        83.33555
257.07        83.40229
257.53        83.79447
257.99        83.91531
258.44        83.11944
258.90        81.74291
259.35        79.39679
259.81        76.97459
260.27        74.64028
260.72        72.69497
261.18         71.5504
261.63          70.607
262.09        69.86279
262.55         68.7559
263.00        67.17766
263.46          65.535
263.91        63.88071
264.37        62.81875
264.83        62.24694
265.28        61.89482
265.74        61.59669
266.19        60.85266
266.65         59.7002
267.11        58.24248
267.56        56.63935
268.02         55.2471
268.47        54.09343
268.93        53.10677
269.38        52.16612
269.84        51.16765
270.30         50.0559
270.75        48.88348
271.21        47.69434
271.66        46.46597
272.12        45.25476
272.57        44.04176
273.03        42.90396
273.48        41.88651
273.94        41.03022
274.39        40.28493
274.85        39.64227
275.31         38.9998
275.76        38.32571
276.22        37.68364
276.67        37.08612
277.13        36.65868
277.58        36.34579
278.04        36.12579
278.49        35.86895
278.95        35.50743
279.40        34.97278
279.86        34.35466
280.31          33.651
280.77        32.96724
281.22        32.30061
281.68        31.70704
282.13        31.16444
282.59        30.73289
283.04        30.38522
283.50        30.13815
283.95        29.98673
284.41        29.96269
284.86        30.03546
285.32        30.20422
285.77        30.37018
286.22        30.42644
286.68        30.37698
287.13        30.20933
287.59         30.0689
288.04        30.06278
288.50          30.198
288.95        30.53646
289.41        31.00413
289.86        31.03222
290.32        30.54255
290.77        31.33625
291.22         30.5823
291.68        30.82217
292.13        31.23342
292.59        31.86558
293.04        32.66943
293.50        33.63704
293.95        34.76171
294.40        36.02234
294.86        37.40255
295.31        38.86202
295.77        40.37795
296.22        41.92326
296.68        43.49266
297.13        45.07354
297.58        46.68684
298.04        48.34438
298.49        50.05708
298.95        51.86663
299.40        53.75123
299.85        55.69459
300.31        57.67054
300.76        59.60537
301.21        61.48746
301.67        63.35358
302.12        65.17896
302.58        67.05544
303.03        68.96336
303.48        70.93501
303.94        72.96344
304.39        74.97215
304.84        76.95206
305.30        78.93001
305.75        80.87486
306.20        82.86581
306.66         84.9071
307.11         86.9049
307.57        88.82885
308.02        90.54393
308.47        92.06551
308.93        93.44814
309.38        94.68952
309.83        95.94145
310.29        97.26807
310.74        98.35672
311.19        99.64389
311.65        100.7761
312.10        101.8526
312.55         102.878
313.00        103.8394
313.46        104.7071
313.91        105.4576
314.36        106.1161
314.82        106.7152
315.27        107.2965
315.72        107.8854
316.18        108.4725
316.63        109.0489
317.08        109.6004
317.53        110.1155
317.99        110.5938
318.44        111.0287
318.89        111.3929
319.35        111.6824
319.80        111.9152
320.25        112.1105
320.70        112.3083
321.16        112.5122
321.61        112.7294
322.06        112.9529
322.51        113.1783
322.97        113.3852
323.42        113.6174
323.87        113.8406
324.32         114.018
324.78        114.1243
325.23        114.2063
325.68        114.2909
326.13        114.4582
326.59        114.6954
327.04        115.0356
327.49          115.39
327.94        115.6465
328.39        115.7785
328.85          115.79
329.30        115.8145
329.75        115.9311
330.20        116.1755
330.66        116.4782
331.11         116.878
331.56        117.2853
332.01        117.6796
332.46        118.0874
332.92        118.4523
333.37        118.8341
333.82        119.1884
334.27        119.5114
334.72         119.861
335.17        120.3428
335.63        120.9381
336.08        121.6746
336.53        122.4287
336.98        123.0462
337.43        123.4809
337.88        123.7736
338.34        123.9663
338.79        124.2007
339.24        124.4994
339.69        124.8438
340.14        125.2237
340.59        125.6255
341.05        126.0416
341.50         126.482
341.95        126.9596
342.40        127.4917
342.85        128.0659
343.30         128.665
343.75        129.2058
344.20        129.5694
344.66        129.7469
345.11        129.7534
345.56        129.7101
346.01        129.8118
346.46        130.1062
346.91        130.5072
347.36          130.88
347.81        131.1123
348.26        131.1821
348.72        130.7877
349.17        130.6834
349.62          130.53
350.07        130.5704
350.52        130.7269
350.97        130.9127
351.42         130.977
351.87        130.8674
352.32        130.6337
352.77        130.3353
353.22        130.0577
353.67        129.8227
354.13        129.6165
354.58        129.3622
355.03             129
355.48        128.5213
355.93        127.9558
356.38        127.3743
356.83        126.8775
357.28        126.4718
357.73        126.1092
358.18        125.7031
358.63        125.1226
359.08        124.3439
359.53        123.4241
359.98         122.428
360.43         121.447
360.88        120.5133
361.33        119.6036
361.78        118.7253
362.23        117.8903
362.68        117.0983
363.13        116.3568
363.58        115.6248
364.03        114.8296
364.48         113.953
364.93        113.0045
365.38        112.0414
365.83        111.1639
366.28        110.3937
366.73        109.7017
367.18        109.0176
367.63        108.2312
368.08        107.3233
368.53         106.338
368.98        105.3432
369.43        104.4305
369.88        103.6167
370.33        102.8678
370.78        102.1401
371.23        101.3771
371.68        100.5735
372.13        99.75839
372.58        98.97504
373.03        98.27137
373.48        97.64988
373.93        97.08999
374.38        96.54508
374.83        95.95353
375.28         95.3055
375.72        94.59872
376.17        93.91623
376.62        93.29421
377.07        92.72668
377.52        92.18628
377.97        91.62327
378.42        90.97442
378.87        90.25491
379.32        89.52017
379.77        88.82729
380.22         88.2369
380.67        87.74747
381.11        87.32531
381.56        86.95052
382.01        86.61687
382.46         86.3148
382.91        86.05132
383.36        85.75519
383.81        85.31651
384.26        84.72295
384.71        84.00468
385.15        83.26955
385.60        82.75711
386.05         82.4809
386.50        82.37315
386.95        82.29205
387.40        82.01797
387.85        81.51465
388.29        80.82272
388.74        80.16164
389.19         79.6174
389.64        79.21056
390.09        78.88577
390.54        78.59909
390.98        78.27432
391.43        77.93796
391.88        77.60579
392.33        77.29572
392.78        77.02285
393.23        76.78522
393.67        76.53822
394.12        76.34472
394.57        76.09707
395.02        75.79059
395.47        75.47965
395.91        75.18688
396.36        74.87861
396.81        74.58516
397.26         74.3593
397.71        74.17437
398.15        73.93973
398.60        73.72825
399.05         73.4565
399.50        73.19645
399.95        73.13654
400.39        73.23041
400.84        73.21662
401.29        73.03563
401.74        72.63061
402.18        72.09755
402.63        71.76353
403.08        71.61021
403.53         71.2856
403.97        70.79182
404.42         70.3866
404.87        70.11966
405.32          69.973
405.76         69.9425
406.21        70.02927
406.66        70.12935
407.11        70.13535
407.55        70.01465
408.00        69.64361
408.45        69.16123
408.90        68.92965
409.34        68.96709
409.79        69.03829
410.24        69.04484
410.68        68.97974
411.13        68.81429
411.58        68.52107
412.03        68.16988
412.47        67.94381
412.92        67.86461
413.37        67.88463
413.81        67.94392
414.26        68.00893
414.71        68.03616
415.15        68.05993
415.60        68.03166
416.05        67.92596
416.49        67.74927
416.94        67.50467
417.39        67.24834
417.83         67.0602
418.28        66.95993
418.73        66.92125
419.17        66.90744
419.62        66.86548
420.07        66.77933
420.51          66.662
420.96          66.544
421.41        66.43816
421.85        66.32959
422.30        66.20688
422.74        66.06494
423.19        66.11173
423.64         66.2766
424.08        66.30373
424.53        66.14075
424.98        66.07174
425.42        66.12341
425.87        66.08679
426.31        65.99026
426.76        66.02144
427.21        66.15926
427.65        66.22755
428.10        66.16096
428.54         66.1846
428.99        66.03963
429.44        65.93853
429.88        65.78051
430.33        65.58181
430.77        65.33839
431.22        65.27592
431.66        65.33447
432.11        65.32336
432.56        65.25621
433.00        65.10902
433.45        64.76853
433.89        64.72337
434.34        65.07536
434.78        64.37382
435.23        64.38567
435.67        65.13448
436.12        65.24509
436.57         65.3082
437.01        64.98071
437.46        64.67735
437.90        65.07175
438.35        65.71638
438.79         65.6665
439.24        65.74413
439.68         65.6512
440.13        65.31232
440.57        64.85188
441.02        64.92144
441.46        65.42072
441.91        65.33936
442.35        64.81621
442.80        65.26064
443.24        66.40083
443.69        66.63662
444.13        65.95753
444.58        65.58713
445.02        65.58375
445.47        65.67014
445.91        65.75079
446.36        65.71667
446.80        65.54716
447.24        65.34771
447.69        65.18668
448.13        65.26254
448.58        65.34608
449.02        65.27274
449.47        65.03252
449.91        64.95985
450.36         65.0807
450.80        65.11914
451.25        65.07549
451.69         65.1151
452.13        65.17876
452.58        64.95814
453.02         64.5066
453.47        64.19653
453.91        64.04986
454.36        63.89222
454.80        63.71687
455.24        63.57428
455.69        63.47363
456.13        63.39642
456.58        63.36801
457.02        63.17702
457.46        63.18638
457.91        62.90995
458.35        62.63826
458.79        62.46189
459.24         62.4306
459.68        62.47429
460.13        62.59021
460.57        62.49406
461.01        62.16811
461.46         62.4406
461.90        61.96072
462.34        61.66018
462.79        61.90326
463.23        61.09895
463.68        61.77647
464.12        61.50154
464.56         61.1017
465.01        61.22168
465.45        61.63798
465.89         61.6981
466.34        61.40271
466.78        60.92672
467.22        60.39281
467.67        60.62379
468.11        60.48761
468.55        60.53579
468.99        60.39416
469.44        60.31851
469.88        60.28572
470.32        60.14073
470.77        59.91777
471.21        59.69942
471.65        59.56115
472.10        59.43727
472.54         59.3195
472.98        59.19847
473.42        59.07925
473.87        58.95593
474.31        58.83563
474.75        58.88691
475.20        59.04308
475.64        59.07842
476.08        59.01485
476.52        58.93917
476.97        58.80538
477.41        59.06496
477.85        59.02908
478.29         58.5827
478.74        58.28429
479.18        58.23174
479.62        58.51412
480.06        58.61658
480.50        58.50319
480.95        58.51256
481.39        58.61861
481.83        58.68023
482.27        58.73717
482.72        58.84188
483.16        58.79361
483.60        58.89904
484.04        59.00521
484.48        58.65422
484.93        58.52119
485.37        58.34217
485.81         58.9217
486.25        58.41672
486.69        60.26361
487.14        60.37014
487.58        59.47134
488.02        58.62074
488.46        58.19919
488.90        58.21696
489.34        57.76824
489.79        57.31961
490.23        57.99601
490.67        58.21019
491.11        58.30485
491.55        58.15892
491.99        57.87024
492.43         57.7087
492.88        57.70077
493.32        57.70407
493.76        57.65308
494.20        57.64399
494.64        57.69291
495.08        57.40167
495.52        57.39082
495.96         57.4533
496.41        57.67372
496.85        57.62325
497.29        57.29711
497.73        57.28654
498.17        57.28931
498.61        57.27088
499.05        57.13545
499.49        57.12248
499.93        57.23429
500.37        57.21943
500.82        57.08347
501.26        57.20755
501.70        57.49657
502.14         57.1334
502.58        56.70018
503.02        56.38751
503.46        56.52569
503.90        56.65571
504.34        56.74379
504.78        56.80706
505.22        56.83193
505.66        56.74559
506.10        56.57766
506.54        56.57538
506.98         56.7925
507.42        56.30158
507.86        56.86442
508.30        56.47656
508.74        56.56782
509.18        56.37035
509.62        56.21068
510.06        56.14932
510.50        56.17382
510.94        56.19886
511.38        56.18801
511.82        56.17331
512.26        56.14371
512.70        56.07627
513.14        55.98317
513.58         55.9023
514.02        55.84425
514.46         55.7945
514.90        55.75219
515.34        55.76396
515.78        55.83413
516.22        55.90225
516.66        55.79417
517.10        56.10833
517.54         55.8456
517.98        55.79576
518.42        55.69693
518.86        55.62811
519.30        55.60186
519.74        55.57195
520.18        55.55439
520.62         55.6351
521.06        55.76757
521.50        55.75331
521.93        55.60375
522.37        55.51351
522.81        55.49705
523.25        55.44157
523.69        55.35371
524.13        55.29677
524.57        55.27606
525.01        55.27704
525.45        55.29464
525.89        55.31831
526.32        55.34048
526.76        55.36755
527.20        55.39573
527.64        55.42146
528.08        55.44205
528.52        55.45757
528.96        55.46627
529.40        55.46025
529.83        55.43794
530.27        55.42899
530.71        55.42326
531.15        55.40237
531.59        55.36691
532.03        55.32691
532.46        55.28882
532.90         55.2752
533.34        55.28329
533.78        55.30495
534.22        55.32327
534.66        55.31203
535.09        55.25928
535.53         55.1951
535.97        55.11942
536.41        55.04783
536.85        54.98767
537.28        54.93346
537.72        54.89849
538.16        54.90447
538.60        54.94998
539.04        55.02932
539.47        55.09571
539.91        55.12381
540.35        55.09186
540.79        55.01382
541.22        54.92316
541.66        54.88852
542.10        54.91903
542.54        54.99089
542.97        55.06297
543.41        55.10005
543.85        55.08546
544.29        55.04546
544.72        54.98508
545.16        54.95023
545.60        54.94198
546.04        54.91408
546.47        54.89342
546.91        54.99454
547.35        55.17824
547.79        55.28331
548.22        55.26061
548.66        55.19388
549.10        55.09662
549.53        54.93766
549.97        54.77282
550.41        54.67226
550.84        54.64217
551.28        54.71436
551.72        54.85772
552.15        54.86847
552.59        54.70343
553.03        54.94464
553.46        54.69373
553.90        54.63674
554.34        54.48778
554.77        54.60363
555.21        54.41445
555.65        54.45361
556.08        54.54681
556.52        54.70233
556.96        54.84754
557.39        54.89921
557.83        54.84998
558.27         54.6786
558.70        54.46998
559.14        54.37679
559.57        54.41179
560.01        54.61149
560.45        54.84826
560.88        54.79218
561.32        54.52937
561.75        54.37183
562.19        54.39473
562.63         54.4689
563.06        54.54171
563.50        54.54482
563.93        54.46377
564.37        54.38442
564.80        54.33086
565.24        54.41594
565.68        54.60471
566.11        54.70135
566.55        54.70539
566.98        54.77736
567.42        54.90914
567.85        54.83548
568.29        54.65129
568.72        54.68171
569.16        54.96918
569.60        55.03304
570.03         55.1242
570.47        55.31685
570.90        55.49306
571.34        55.40379
571.77        55.87874
572.21        55.38981
572.64        55.52857
573.08        55.61872
573.51        55.33382
573.95        55.73604
574.38        55.65271
574.82        56.26226
