SpectraSmart Spectrum 2.9.0.0
--------- Device Information -----------
Spectrum Name :  反射率_0
Saving Time :  2024/04/20 23:57:55
Spectro-Module Model Name : SE2030-DUVN
Spectro-Module Serial Number : OS361AC55029948
Wavelength Start : 200
Wavelength End : 1025
Wavelength Unit : Wavelength(nm)
Spectrum Unit : Reflectance(%)
-----------Spectrum Setting ------------
Integration Time : 20ms
Average : 10
Boxcar : 0
Background removal :  enabled
linearity correction :  enabled
SC :  disabled
Intensity correction :  disabled
DWT denoise :  enabled
savitzky-golay :  disabled
FFT :  disabled
Running average :  disabled
Kalman :  disabled
High pass :  disabled
---------------BEGIN--------------------
Wavelength(nm)             Reflectance(%)
200.29               0
200.75       -3.904046
201.21        17.04629
201.67        27.36006
202.13        31.37425
202.58        32.03044
203.04         31.4062
203.50        29.75208
203.96         27.6676
204.42        25.45879
204.88        21.88221
205.34        18.94182
205.80        19.15612
206.26        23.49079
206.72         34.9883
207.18        46.73868
207.64        40.94783
208.10         12.2475
208.55       -33.41147
209.01       -63.86084
209.47       -40.76688
209.93        2.503902
210.39        39.07249
210.85        62.18408
211.31        70.41908
211.77        66.73715
212.23        51.12146
212.69         17.1161
213.14       -40.88052
213.60       -131.5167
214.06       -355.4479
214.52       -791.5493
214.98       -326.9636
215.44       -86.40964
215.90       -9.352475
216.36        15.24281
216.81        16.89707
217.27      -0.6185213
217.73       -92.68222
218.19        1014.055
218.65        415.8739
219.11       -872.1775
219.57       -30.21693
220.02        22.76608
220.48        31.92896
220.94          26.687
221.40        5.976136
221.86       -43.77576
222.32       -75.49977
222.77       -29.93252
223.23        9.391728
223.69        29.34011
224.15        36.56545
224.61        37.34886
225.06        35.25658
225.52         31.1855
225.98        25.88492
226.44        20.06642
226.90        12.51928
227.36        6.719159
227.81        9.251143
228.27        17.39858
228.73         26.5678
229.19        32.53382
229.65        32.83009
230.10        28.17253
230.56        19.97766
231.02        9.778216
231.48        3.544073
231.93        5.248753
232.39        12.35855
232.85        19.90749
233.31         23.7918
233.77        24.26599
234.22        23.10015
234.68        20.96652
235.14        19.08794
235.60        18.35769
236.05        17.60371
236.51        16.69112
236.97        21.58865
237.43        32.37658
237.88        38.59704
238.34        36.21219
238.80        58.57529
239.26        47.75468
239.71        46.44853
240.17        39.03113
240.63        30.43252
241.08        23.57732
241.54        21.51787
242.00        26.37765
242.46        29.93206
242.91        30.26528
243.37        29.09599
243.83        27.32266
244.28        27.30237
244.74        29.89915
245.20        32.38665
245.66        32.76652
246.11        29.56966
246.57        22.56272
247.03        12.56104
247.48     -0.09170859
247.94       -15.06372
248.40       -36.23748
248.85       -83.47034
249.31       -220.6648
249.77       -320.4657
250.22       -107.0514
250.68       -21.23814
251.14        6.983623
251.59        17.89985
252.05        23.57842
252.51        28.18241
252.96        31.49198
253.42          32.123
253.88        29.64495
254.33        25.92274
254.79        26.33256
255.25        32.66209
255.70        40.92378
256.16        48.23186
256.62        53.25978
257.07        55.42613
257.53          55.967
257.99        55.65572
258.44        54.74023
258.90        54.03654
259.35        53.16285
259.81         52.3394
260.27        51.47196
260.72        50.58529
261.18        49.94369
261.63        49.27039
262.09        48.56472
262.55        47.43433
263.00        45.86544
263.46        44.20679
263.91        42.57409
264.37         41.5027
264.83          40.942
265.28        40.65434
265.74        40.50734
266.19        40.16585
266.65        39.60709
267.11        38.87215
267.56        37.97646
268.02        37.02566
268.47        36.01768
268.93        34.97263
269.38        33.87631
269.84        32.77122
270.30        31.68177
270.75        30.63668
271.21        29.72547
271.66        29.00831
272.12        28.50781
272.57        28.16277
273.03        27.91036
273.48        27.62716
273.94        27.28899
274.39        26.89043
274.85        26.45258
275.31        25.95318
275.76        25.39987
276.22         24.8346
276.67        24.29601
277.13        23.90656
277.58        23.64468
278.04        23.49231
278.49        23.35369
278.95        23.15771
279.40        22.84795
279.86        22.48066
280.31        22.05387
280.77        21.63869
281.22        21.23126
281.68        20.87508
282.13        20.53512
282.59        20.22836
283.04        19.93945
283.50        19.68388
283.95        19.51383
284.41        19.52562
284.86        19.70692
285.32        20.02444
285.77         20.3349
286.22        20.44205
286.68        20.34041
287.13        20.06653
287.59        19.81142
288.04        19.76325
288.50        19.93149
288.95        20.36658
289.41        20.97224
289.86        21.10806
290.32        20.65598
290.77        21.66822
291.22        20.84533
291.68        20.99204
292.13        21.16187
292.59        21.43052
293.04        21.81607
293.50         22.4226
293.95         23.2795
294.40        24.33666
294.86        25.52477
295.31        26.71556
295.77        27.86787
296.22        28.99639
296.68        30.14317
297.13        31.37455
297.58        32.72047
298.04         34.1552
298.49        35.66073
298.95        37.22909
299.40        38.83251
299.85        40.48702
300.31        42.15827
300.76        43.77084
301.21        45.32467
301.67        46.85564
302.12        48.41935
302.58        50.20022
303.03        52.19292
303.48        54.38332
303.94        56.65166
304.39        58.76157
304.84        60.66643
305.30        62.44077
305.75        64.16309
306.20        66.05766
306.66        68.15688
307.11        70.33181
307.57        72.47232
308.02        74.34991
308.47        75.94343
308.93        77.36438
309.38        78.67281
309.83         80.0084
310.29        81.48099
310.74        82.95499
311.19        84.39992
311.65        85.72543
312.10        86.88957
312.55        87.93725
313.00        88.88579
313.46        89.76142
313.91        90.56557
314.36        91.29765
314.82        91.99091
315.27        92.69463
315.72        93.42229
316.18        94.16024
316.63        94.86471
317.08        95.46356
317.53        95.93478
317.99         96.2982
318.44         96.5808
318.89        96.81352
319.35        97.01572
319.80         97.1925
320.25        97.36205
320.70        97.55836
321.16        97.77865
321.61        98.03048
322.06          98.293
322.51        98.53471
322.97        98.73168
323.42        98.92918
323.87        99.10334
324.32        99.23619
324.78        99.31333
325.23        99.37103
325.68        99.44597
326.13         99.6302
326.59        99.91145
327.04        100.3086
327.49        100.7132
327.94         100.975
328.39        101.0554
328.85        100.9712
329.30        100.8584
329.75        100.8236
330.20        100.9136
330.66         101.059
331.11        101.2985
331.56        101.5603
332.01        101.8283
332.46        102.1348
332.92        102.4128
333.37        102.6774
333.82        102.8851
334.27        103.0395
334.72        103.2316
335.17        103.6235
335.63        104.2097
336.08        104.9882
336.53        105.7927
336.98        106.3907
337.43        106.7142
337.88        106.8273
338.34        106.8104
338.79        106.8624
339.24        107.0305
339.69        107.2733
340.14        107.5685
340.59        107.8831
341.05        108.2003
341.50        108.5411
341.95        108.8998
342.40        109.2599
342.85        109.6128
343.30        109.9558
343.75        110.2557
344.20        110.4744
344.66        110.6163
345.11        110.6684
345.56        110.7057
346.01        110.8441
346.46        111.1021
346.91        111.4379
347.36        111.7303
347.81        111.8288
348.26        111.7135
348.72        111.3173
349.17        111.0028
349.62        110.8137
350.07        110.8691
350.52        111.0838
350.97        111.3251
351.42        111.3731
351.87        111.1632
352.32        110.7698
352.77        110.2804
353.22        109.8222
353.67        109.4382
354.13        109.1068
354.58        108.7709
355.03        108.3992
355.48          107.98
355.93        107.5259
356.38         107.071
356.83        106.6595
357.28        106.2796
357.73        105.8967
358.18        105.4307
358.63        104.7646
359.08        103.8927
359.53        102.8823
359.98        101.8229
360.43        100.8427
360.88        99.98109
361.33         99.1993
361.78        98.49828
362.23        97.87597
362.68        97.31198
363.13        96.80558
363.58        96.27045
364.03        95.56707
364.48        94.67029
364.93         93.6143
365.38        92.51383
365.83        91.56482
366.28        90.81802
366.73         90.2185
367.18        89.67176
367.63        89.02357
368.08         88.2337
368.53        87.35719
368.98         86.4495
369.43         85.5822
369.88        84.77237
370.33        83.98963
370.78        83.21107
371.23        82.42188
371.68        81.62915
372.13        80.84976
372.58         80.1185
373.03        79.46799
373.48         78.8921
373.93        78.37694
374.38        77.86378
374.83        77.26717
375.28        76.58434
375.72        75.84029
376.17         75.1311
376.62        74.53829
377.07        74.06416
377.52        73.65722
377.97        73.27317
378.42        72.85326
378.87        72.38531
379.32        71.90475
379.77        71.39513
380.22        70.81554
380.67        70.15923
381.11        69.43118
381.56        68.70508
382.01        68.13066
382.46        67.75105
382.91        67.53387
383.36        67.36346
383.81        67.05345
384.26        66.56197
384.71        65.94244
385.15        65.29728
385.60        64.84574
386.05        64.60598
386.50        64.50959
386.95        64.43916
387.40        64.21831
387.85        63.82098
388.29        63.28771
388.74        62.79412
389.19        62.41704
389.64        62.16854
390.09        61.98763
390.54        61.84511
390.98        61.68932
391.43        61.54117
391.88        61.41653
392.33        61.27533
392.78        61.09392
393.23        60.88131
393.67        60.50383
394.12        60.13212
394.57        60.12603
395.02        60.37493
395.47        60.24923
395.91         59.7767
396.36        59.51203
396.81        59.49767
397.26        59.43245
397.71        59.26563
398.15        59.07856
398.60        58.93562
399.05        58.63301
399.50        58.30738
399.95        58.42296
400.39        58.85339
400.84        58.92201
401.29        58.57543
401.74        58.11934
402.18        57.69573
402.63         57.5046
403.08         57.5279
403.53        57.41054
403.97        57.14731
404.42        57.04325
404.87        57.06717
405.32        57.05458
405.76        56.98527
406.21        56.83582
406.66        56.66404
407.11        56.72472
407.55        56.95758
408.00        56.96277
408.45        56.73312
408.90        56.43867
409.34        56.19504
409.79        56.24257
410.24        56.51512
410.68        56.63735
411.13        56.58586
411.58        56.60891
412.03        56.70369
412.47        56.74177
412.92        56.69985
413.37        56.63277
413.81        56.58036
414.26        56.64526
414.71        56.82848
415.15        57.11334
415.60        57.41487
416.05        57.63101
416.49        57.72701
416.94        57.72211
417.39        57.66978
417.83        57.64989
418.28        57.68841
418.73        57.75616
419.17        57.82825
419.62        57.87576
420.07        57.89029
420.51        57.88895
420.96        57.89942
421.41        57.91867
421.85        57.92684
422.30         57.9483
422.74        57.98687
423.19        58.15091
423.64        58.44036
424.08        58.85387
424.53        59.23517
424.98        59.51222
425.42        59.67328
425.87        59.50042
426.31        59.20452
426.76        59.59501
427.21        60.52245
427.65         60.7992
428.10        60.38972
428.54        60.28706
428.99        60.53931
429.44        60.63073
429.88         60.5353
430.33        60.41694
430.77        60.29881
431.22        60.47321
431.66        60.89544
432.11        61.20053
432.56        61.39697
433.00        61.72194
433.45        61.87937
433.89        61.79714
434.34        61.80331
434.78        60.50371
435.23          61.022
435.67        62.26229
436.12        62.45912
436.57          62.703
437.01        62.39223
437.46        62.28028
437.90        63.03917
438.35        63.21562
438.79        63.42976
439.24        63.47543
439.68         63.5187
440.13        63.39568
440.57        63.21436
441.02        63.45709
441.46        64.01624
441.91        64.20642
442.35        64.02023
442.80        64.36581
443.24        65.09345
443.69        65.22241
444.13        64.75688
444.58        64.77857
445.02        64.69702
445.47        65.05343
445.91        65.51943
446.36        65.75455
446.80        65.70544
447.24        65.56444
447.69        65.46063
448.13        65.53962
448.58        65.81074
449.02        65.90589
449.47        65.83184
449.91        65.85172
450.36        65.98358
450.80        65.97684
451.25        65.88623
451.69        65.96894
452.13        66.17937
452.58         66.1645
453.02        65.93565
453.47        65.80935
453.91        65.79657
454.36        65.74809
454.80        65.63306
455.24        65.54099
455.69        65.50488
456.13        65.32952
456.58        65.11347
457.02         65.3885
457.46        65.68087
457.91        65.70328
458.35        65.47118
458.79        65.33015
459.24        65.33176
459.68        65.24033
460.13        65.10203
460.57         64.8921
461.01        64.61819
461.46        64.72839
461.90        64.36968
462.34        64.41412
462.79        64.30588
463.23         64.4535
463.68        64.65131
464.12        64.39106
464.56        63.85283
465.01        63.99346
465.45        64.50396
465.89        64.74634
466.34        64.04202
466.78         63.7226
467.22        63.60168
467.67        64.21244
468.11        63.94038
468.55        63.93753
468.99        63.75735
469.44        63.64985
469.88        63.61496
470.32        63.48087
470.77        63.28965
471.21         63.1759
471.65        63.15379
472.10        63.18266
472.54        63.21368
472.98        63.19124
473.42        63.10823
473.87         63.0111
474.31        62.89779
474.75        62.85774
475.20         62.8825
475.64         62.8925
476.08        62.88785
476.52        62.93381
476.97        63.00853
477.41        63.15204
477.85        63.24738
478.29        63.22031
478.74        62.52159
479.18        62.54201
479.62        62.75118
480.06        62.85212
480.50        62.71751
480.95        62.84137
481.39        63.16861
481.83        62.94073
482.27        63.29374
482.72        63.01312
483.16        62.82811
483.60        63.09938
484.04        63.12259
484.48        62.97364
484.93        63.15996
485.37         62.7909
485.81        63.48133
486.25        62.64582
486.69        64.01189
487.14        63.38095
487.58        63.02444
488.02        63.17518
488.46        62.84034
488.90        62.90242
489.34        62.83828
489.79        62.24724
490.23        62.66102
490.67        62.79334
491.11        63.02774
491.55         62.9438
491.99        62.62605
492.43        62.54493
492.88        62.68062
493.32        62.82349
493.76         62.8598
494.20        62.88188
494.64        62.89832
495.08        62.51693
495.52        62.36096
495.96        62.43739
496.41        62.79938
496.85        62.90437
497.29        62.67374
497.73        62.61642
498.17         62.4197
498.61        62.32174
499.05        62.22583
499.49        62.04321
499.93        61.87561
500.37        61.97291
500.82        62.27069
501.26        62.63906
501.70        62.92039
502.14        62.54858
502.58        62.03131
503.02        61.73019
503.46        61.76349
503.90        61.81622
504.34        61.82475
504.78        61.87212
505.22        61.93921
505.66        61.98808
506.10        62.01462
506.54        62.05754
506.98        62.11883
507.42        61.94701
507.86        62.10845
508.30        61.91127
508.74        61.99254
509.18         61.9411
509.62        61.90218
510.06        61.89518
510.50         61.9006
510.94        61.84907
511.38        61.73703
511.82        61.63872
512.26        61.55909
512.70        61.45288
513.14        61.35316
513.58         61.3338
514.02        61.40137
514.46        61.53459
514.90        61.66317
515.34        61.70854
515.78        61.65613
516.22        61.50862
516.66        61.18029
517.10        61.37006
517.54        61.22754
517.98        61.39942
518.42        61.58139
518.86         61.7221
519.30        61.79439
519.74        61.78679
520.18        61.74542
520.62         61.8179
521.06         61.9705
521.50        61.95687
521.93         61.7999
522.37        61.73822
522.81         61.7865
523.25        61.82026
523.69         61.8063
524.13        61.74727
524.57        61.64062
525.01        61.49129
525.45        61.35246
525.89        61.30788
526.32        61.36996
526.76        61.51576
527.20        61.68479
527.64        61.78147
528.08        61.78101
528.52        61.71678
528.96        61.62728
529.40          61.566
529.83        61.54762
530.27        61.57882
530.71        61.63272
531.15        61.66721
531.59        61.67044
532.03        61.66161
532.46        61.63639
532.90         61.5985
533.34        61.54844
533.78        61.49022
534.22        61.42926
534.66        61.37561
535.09        61.32407
535.53        61.29072
535.97        61.27208
536.41        61.27806
536.85        61.30696
537.28        61.35622
537.72        61.40144
538.16        61.40513
538.60        61.35972
539.04        61.27618
539.47        61.17412
539.91        61.13568
540.35        61.15549
540.79        61.21677
541.22        61.27861
541.66        61.28971
542.10        61.23222
542.54        61.12341
542.97        60.99562
543.41        60.92837
543.85        60.93724
544.29        61.01796
544.72        61.11303
545.16        61.18815
545.60        61.21727
546.04        61.13335
546.47        61.02974
546.91        61.19672
547.35        61.55748
547.79        61.78107
548.22        61.77148
548.66        61.55345
549.10        61.23021
549.53        61.08868
549.97         61.1517
550.41        61.13003
550.84        61.02354
551.28        61.05909
551.72        61.21154
552.15        61.29454
552.59        61.30054
553.03        61.34441
553.46        61.31122
553.90        61.31354
554.34        61.31123
554.77        61.28653
555.21        61.28395
555.65        61.34911
556.08        61.47354
556.52        61.69467
556.96        61.91379
557.39        61.91433
557.83        61.72258
558.27        61.52837
558.70        61.40591
559.14        61.31659
559.57        61.26975
560.01        61.43745
560.45        61.68313
560.88        61.59062
561.32        61.27071
561.75        61.08071
562.19        61.11324
562.63         61.2878
563.06         61.5062
563.50        61.52098
563.93        61.33448
564.37        61.23009
564.80        61.23501
565.24        61.34897
565.68        61.53766
566.11        61.64854
566.55        61.67675
566.98        61.79552
567.42        61.97554
567.85        61.83229
568.29        61.50411
568.72        61.49926
569.16        61.82799
569.60         61.8345
570.03        61.79977
570.47        61.77922
570.90        61.85317
571.34        61.83301
571.77         62.0677
572.21        61.94067
572.64        62.04526
573.08         61.5997
573.51        62.07961
573.95        62.36533
574.38        61.83935
574.82        62.62458
