SpectraSmart Spectrum 2.9.0.0
--------- Device Information -----------
Spectrum Name :  反射率_0
Saving Time :  2024/04/21 00:00:51
Spectro-Module Model Name : SE2030-DUVN
Spectro-Module Serial Number : OS361AC55029948
Wavelength Start : 200
Wavelength End : 1025
Wavelength Unit : Wavelength(nm)
Spectrum Unit : Reflectance(%)
-----------Spectrum Setting ------------
Integration Time : 20ms
Average : 10
Boxcar : 0
Background removal :  enabled
linearity correction :  enabled
SC :  disabled
Intensity correction :  disabled
DWT denoise :  enabled
savitzky-golay :  disabled
FFT :  disabled
Running average :  disabled
Kalman :  disabled
High pass :  disabled
---------------BEGIN--------------------
Wavelength(nm)             Reflectance(%)
200.29               0
200.75       -55.63935
201.21        2.221562
201.67        35.10022
202.13        49.61643
202.58        54.10389
203.04        53.98317
203.50        49.57121
203.96        41.50084
204.42        31.55706
204.88        19.29374
205.34        7.969629
205.80        1.084501
206.26      -0.7852357
206.72        5.621921
207.18        15.38707
207.64         13.4247
208.10       -4.578609
208.55       -33.49994
209.01       -49.97518
209.47       -27.28453
209.93         7.97068
210.39        35.91638
210.85        53.86103
211.31         62.6433
211.77        65.36744
212.23        64.42602
212.69         57.2239
213.14        35.98914
213.60       -17.93375
214.06       -197.9404
214.52       -650.0016
214.98       -287.1391
215.44       -49.93872
215.90        29.68366
216.36         57.7177
216.81         66.1223
217.27         63.9045
217.73        36.52893
218.19        419.1956
218.65        250.4756
219.11       -546.9504
219.57        -9.53342
220.02        26.00672
220.48        31.11741
220.94        24.97823
221.40        5.915804
221.86       -36.95166
222.32       -59.27757
222.77       -14.97138
223.23        20.34298
223.69        37.43386
224.15        43.08171
224.61        42.84264
225.06        39.63658
225.52        34.33438
225.98        27.84884
226.44         21.0099
226.90        12.69113
227.36        6.463979
227.81        9.031255
228.27        17.51145
228.73        27.06234
229.19        33.38653
229.65        34.07243
230.10        29.90537
230.56        22.37013
231.02        12.82481
231.48         6.67181
231.93        7.690728
232.39         13.7078
232.85        20.36154
233.31        23.97932
233.77        24.77577
234.22        24.42723
234.68        23.32301
235.14        22.11501
235.60        21.46784
236.05        20.31263
236.51        18.95405
236.97        24.07126
237.43        35.83526
237.88        43.94804
238.34        44.59722
238.80        65.19229
239.26        55.94098
239.71        52.90099
240.17        43.26677
240.63        33.95701
241.08        30.26478
241.54        35.69535
242.00        49.06178
242.46        58.24945
242.91        60.15033
243.37        55.48132
243.83        45.99949
244.28        40.12964
244.74        43.04895
245.20        50.30693
245.66         56.2182
246.11        55.16789
246.57        46.58353
247.03        32.54768
247.48        15.48168
247.94      -0.5679129
248.40       -16.28172
248.85       -43.07042
249.31       -104.5745
249.77        -114.345
250.22       -7.756895
250.68        25.99109
251.14        35.57528
251.59        39.71715
252.05        43.01233
252.51        46.33005
252.96        49.53215
253.42        52.00459
253.88        52.48648
254.33        51.78391
254.79        52.07836
255.25        53.34873
255.70        54.83612
256.16        56.28561
256.62        57.57833
257.07        58.73402
257.53         60.0129
257.99        61.06451
258.44        61.32214
258.90        60.95478
259.35        59.68511
259.81         58.2575
260.27        56.81135
260.72         55.6002
261.18        54.93287
261.63        54.34351
262.09        53.86858
262.55        53.13858
263.00        52.07611
263.46        51.00693
263.91        49.88518
264.37         49.0704
264.83        48.49626
265.28        48.00339
265.74        47.60866
266.19        47.13126
266.65        46.58733
267.11        45.95562
267.56        45.16752
268.02        44.21646
268.47         43.0657
268.93        41.77232
269.38        40.39319
269.84        39.08322
270.30        37.88862
270.75        36.81082
271.21        35.84804
271.66        34.91302
272.12        34.02746
272.57        33.19963
273.03        32.51262
273.48        32.04123
273.94        31.78803
274.39        31.65166
274.85        31.53828
275.31        31.24426
275.76        30.73109
276.22        30.12048
276.67        29.47029
277.13        28.94826
277.58        28.55057
278.04        28.23766
278.49        27.98168
278.95        27.83049
279.40        27.71164
279.86        27.64353
280.31        27.46509
280.77        27.02738
281.22         26.3001
281.68        25.42355
282.13          24.532
282.59        23.89848
283.04         23.5527
283.50        23.43406
283.95        23.46399
284.41        23.54825
284.86        23.63401
285.32        23.76714
285.77        23.89554
286.22        23.96029
286.68        23.97724
287.13        23.91286
287.59        23.89478
288.04        24.01602
288.50        24.26491
288.95        24.72171
289.41        25.30119
289.86        25.39556
290.32        24.91087
290.77        25.78502
291.22        24.95118
291.68          25.154
292.13        25.50362
292.59        26.05107
293.04        26.72898
293.50         27.5012
293.95        28.36587
294.40        29.31616
294.86        30.37283
295.31        31.55361
295.77        32.84976
296.22        34.22054
296.68        35.62888
297.13        37.01834
297.58        38.38712
298.04        39.74861
298.49        41.13183
298.95        42.60381
299.40        44.15984
299.85         45.7948
300.31        47.44958
300.76        49.00793
301.21        50.46463
301.67         51.8755
302.12        53.32064
302.58        55.02555
303.03        56.98396
303.48        59.16208
303.94        61.40847
304.39        63.43729
304.84        65.19324
305.30         66.7718
305.75        68.27055
306.20        69.94771
306.66        71.85147
307.11         73.8457
307.57        75.82471
308.02        77.55863
308.47        79.02712
308.93        80.34394
309.38        81.56561
309.83        82.83163
310.29        84.24285
310.74        85.67219
311.19        87.08668
311.65        88.39697
312.10        89.55992
312.55        90.61624
313.00        91.58909
313.46        92.51435
313.91        93.39198
314.36        94.21836
314.82        95.00576
315.27        95.77055
315.72        96.52205
316.18        97.25453
316.63        97.95625
317.08        98.60738
317.53         99.1956
317.99        99.72403
318.44        100.1803
318.89        100.5313
319.35        100.7815
319.80         100.957
320.25        101.1112
320.70        101.3362
321.16        101.6438
321.61          102.02
322.06        102.4205
322.51        102.7774
322.97        103.0545
323.42        103.3147
323.87        103.5349
324.32        103.6986
324.78        103.7947
325.23        103.8552
325.68        103.9411
326.13        104.1863
326.59        104.5859
327.04        105.1581
327.49        105.7459
327.94        106.1154
328.39        106.2108
328.85        106.0691
329.30        105.9033
329.75        105.9451
330.20        106.2706
330.66        106.7697
331.11        107.3946
331.56        107.9219
332.01        108.2876
332.46        108.5572
332.92        108.7327
333.37        108.9611
333.82         109.235
334.27        109.5226
334.72        109.8516
335.17        110.2783
335.63        110.7747
336.08        111.3919
336.53         112.033
336.98        112.5766
337.43        112.9877
337.88        113.2901
338.34        113.5234
338.79        113.8223
339.24        114.1975
339.69        114.6219
340.14        115.0578
340.59        115.4482
341.05        115.7858
341.50        116.1083
341.95        116.4485
342.40        116.8601
342.85        117.3475
343.30        117.8709
343.75        118.3929
344.20        118.8667
344.66        119.2716
345.11        119.5924
345.56        119.8104
346.01        119.8964
346.46        119.8716
346.91        119.7565
347.36        119.5911
347.81        119.4961
348.26        119.5115
348.72         119.393
349.17        119.5651
349.62        119.7544
350.07        120.0656
350.52        120.4495
350.97        120.7867
351.42        120.8765
351.87          120.67
352.32        120.2376
352.77        119.6808
353.22        119.1598
353.67        118.7336
354.13        118.3813
354.58        118.0749
355.03        117.8209
355.48        117.6008
355.93        117.4081
356.38        117.2086
356.83         116.939
357.28        116.5752
357.73        116.1264
358.18        115.5729
358.63        114.9031
359.08        114.1346
359.53        113.2758
359.98        112.4144
360.43        111.6762
360.88        111.0791
361.33        110.5971
361.78        110.1119
362.23        109.4303
362.68        108.5209
363.13        107.4485
363.58        106.3574
364.03        105.4742
364.48        104.8471
364.93        104.4021
365.38        104.0071
365.83        103.4521
366.28        102.6814
366.73        101.7595
367.18        100.7875
367.63        99.92846
368.08        99.22461
368.53        98.61941
368.98        98.03034
369.43        97.32188
369.88        96.45938
370.33        95.49667
370.78        94.49815
371.23        93.58749
371.68        92.81912
372.13        92.15422
372.58        91.59313
373.03        91.12038
373.48        90.70789
373.93        90.36675
374.38        90.00552
374.83        89.48158
375.28        88.78408
375.72        87.93554
376.17        87.11996
376.62        86.54155
377.07        86.21858
377.52        86.06655
377.97        85.92377
378.42        85.53101
378.87        84.84335
379.32        83.97861
379.77        83.06924
380.22        82.28421
380.67        81.65938
381.11        81.13393
381.56        80.68118
382.01        80.28463
382.46        79.93352
382.91        79.64893
383.36         79.3696
383.81        78.99106
384.26         78.4959
384.71         77.9039
385.15        77.29582
385.60           76.87
386.05        76.63465
386.50         76.5358
386.95        76.45853
387.40        76.22677
387.85        75.81272
388.29        75.24086
388.74        74.71013
389.19        74.29624
389.64        74.01455
390.09        73.81525
390.54         73.6395
390.98        73.38464
391.43        73.06895
391.88        72.71833
392.33        72.37782
392.78        72.09257
393.23        71.87025
393.67        71.69093
394.12        71.58859
394.57        71.36707
395.02        71.04312
395.47        70.81056
395.91        70.68732
396.36        70.50373
396.81         70.2831
397.26        70.16378
397.71        70.07789
398.15        69.86024
398.60        69.58112
399.05        69.14239
399.50        68.72047
399.95        68.72029
400.39        69.06989
400.84        69.33447
401.29        69.35248
401.74        68.93744
402.18        68.22651
402.63        67.81518
403.08        67.73817
403.53        67.49363
403.97         67.0908
404.42        66.90642
404.87        66.93555
405.32        66.97223
405.76         66.9774
406.21        67.06158
406.66        67.12061
407.11        66.91804
407.55        66.48871
408.00         66.0033
408.45        65.60555
408.90        65.37149
409.34        65.33076
409.79        65.48453
410.24         65.7081
410.68        65.81291
411.13        65.74966
411.58        65.55332
412.03        65.29967
412.47        65.15715
412.92        65.14893
413.37        65.23147
413.81        65.32843
414.26        65.38529
414.71        65.36421
415.15        65.30405
415.60        65.21557
416.05        65.17105
416.49        65.18633
416.94        65.22229
417.39        65.23868
417.83         65.1694
418.28        65.00516
418.73        64.77167
419.17        64.50284
419.62        64.26373
420.07        64.08162
420.51        63.93975
420.96        63.86221
421.41        63.83114
421.85        63.81293
422.30        63.85778
422.74        63.92155
423.19        64.02331
423.64        64.14799
424.08        64.34762
424.53        64.52686
424.98        64.63497
425.42        64.67336
425.87        64.56884
426.31        64.40678
426.76        64.48779
427.21        64.75363
427.65        64.77644
428.10         64.5489
428.54        64.47393
428.99         64.5935
429.44        64.68138
429.88        64.68591
430.33        64.67773
430.77        64.61031
431.22         64.6156
431.66        64.67103
432.11        64.73082
432.56        64.85579
433.00        64.87595
433.45        64.58833
433.89        64.73896
434.34        65.47124
434.78        64.07051
435.23        64.11337
435.67        65.16755
436.12        65.07161
436.57        65.24517
437.01        64.92932
437.46        64.65842
437.90        65.07726
438.35        65.58319
438.79        65.52687
439.24        65.60235
439.68        65.57468
440.13        65.45088
440.57        65.27882
441.02        65.23258
441.46         65.3196
441.91        65.41215
442.35        65.45313
442.80        65.77174
443.24        66.23507
443.69        66.41628
444.13        66.27248
444.58        66.07051
445.02        65.88284
445.47        65.88671
445.91        66.03893
446.36         66.0759
446.80        65.97962
447.24        65.91357
447.69        65.90218
448.13        66.02286
448.58        66.06225
449.02        66.00089
449.47        65.84264
449.91        65.83102
450.36        65.99514
450.80        66.12399
451.25        66.18747
451.69        66.27046
452.13        66.30813
452.58        66.01802
453.02        65.50182
453.47        65.21025
453.91        65.18103
454.36         65.2049
454.80        65.22168
455.24        65.24506
455.69        65.26818
456.13         65.2019
456.58        65.06767
457.02        65.09309
457.46        64.90076
457.91        64.67434
458.35        64.46159
458.79        64.28936
459.24          64.215
459.68        64.20226
460.13        64.26493
460.57        64.19103
461.01        63.95967
461.46        64.07898
461.90        63.89351
462.34         63.6452
462.79        63.66615
463.23         63.7339
463.68        64.01993
464.12        63.89518
464.56        63.48798
465.01        63.53569
465.45        63.85589
465.89        63.85831
466.34        63.59607
466.78        63.33009
467.22         63.0491
467.67        63.38132
468.11        62.63264
468.55        62.65001
468.99        62.79678
469.44        62.81771
469.88        62.66005
470.32        62.51716
470.77        62.43794
471.21        62.37418
471.65        62.33543
472.10        62.33018
472.54        62.32387
472.98         62.2895
473.42        62.22404
473.87         62.1386
474.31        62.02621
474.75        62.00187
475.20        62.03861
475.64        62.00916
476.08        61.94846
476.52        61.90526
476.97         61.8279
477.41        61.96202
477.85        62.32694
478.29        61.66805
478.74        61.62202
479.18        61.90256
479.62        61.55709
480.06         61.6078
480.50        61.64037
480.95        61.76765
481.39        61.89289
481.83        61.89912
482.27        62.19823
482.72        61.78533
483.16        61.98863
483.60        61.90371
484.04        62.07892
484.48        61.75998
484.93        61.80948
485.37        61.46731
485.81         61.9456
486.25        61.58804
486.69        62.64606
487.14        62.14561
487.58        61.90628
488.02        61.38711
488.46        61.41814
488.90        61.61189
489.34        61.48537
489.79        61.03846
490.23        61.43633
490.67        61.45301
491.11        61.46038
491.55        61.35794
491.99        61.20217
492.43        61.12167
492.88          61.122
493.32        61.16224
493.76        61.16515
494.20        61.15775
494.64        61.15252
495.08        60.78035
495.52        60.66835
495.96        60.73377
496.41        61.04425
496.85        61.15205
497.29        60.97927
497.73        60.93261
498.17        60.71802
498.61        60.67961
499.05        60.69968
499.49        60.53159
499.93        60.27417
500.37        60.32547
500.82        60.61909
501.26        60.86636
501.70         60.9776
502.14        60.61687
502.58        60.37827
503.02        60.20935
503.46        60.24699
503.90        60.34548
504.34        60.41848
504.78        60.46452
505.22        60.48679
505.66        60.35066
506.10        60.10654
506.54        60.24636
506.98        60.76788
507.42         60.1875
507.86        60.51679
508.30        60.27204
508.74        60.45668
509.18        60.48418
509.62        60.45847
510.06        60.43191
510.50        60.36885
510.94        60.20369
511.38        59.98442
511.82         59.8667
512.26        59.86971
512.70        59.92834
513.14        60.00573
513.58        60.05716
514.02        60.06266
514.46        60.03739
514.90        59.97989
515.34        59.92726
515.78        59.89483
516.22        59.83991
516.66        59.62545
517.10        59.88171
517.54        59.70228
517.98        59.78991
518.42        59.86071
518.86        59.91072
519.30        59.92935
519.74         59.8907
520.18        59.83143
520.62        59.88229
521.06        60.00592
521.50        59.97065
521.93        59.79964
522.37         59.7225
522.81        59.75309
523.25        59.76866
523.69        59.73909
524.13        59.67036
524.57        59.56244
525.01        59.42375
525.45        59.30044
525.89        59.26528
526.32        59.32906
526.76        59.46655
527.20         59.6369
527.64        59.77962
528.08        59.86946
528.52        59.91603
528.96        59.91512
529.40        59.87429
529.83        59.79097
530.27        59.65582
530.71        59.50111
531.15        59.41747
531.59        59.41919
532.03        59.47037
532.46        59.53747
532.90        59.58826
533.34        59.60061
533.78        59.58549
534.22        59.53945
534.66        59.45705
535.09         59.3386
535.53        59.21177
535.97        59.09151
536.41         59.0186
536.85        59.00407
537.28         59.0366
537.72        59.10808
538.16        59.20303
538.60        59.30489
539.04        59.40998
539.47        59.48195
539.91        59.51813
540.35        59.50097
540.79        59.44134
541.22        59.35551
541.66        59.28551
542.10        59.24159
542.54        59.21562
542.97        59.20358
543.41         59.2264
543.85        59.27441
544.29        59.35298
544.72        59.42485
545.16        59.46544
545.60        59.45213
546.04        59.37532
546.47        59.28592
546.91        59.27382
547.35        59.33222
547.79        59.45827
548.22        59.55765
548.66        59.41754
549.10        59.11483
549.53        59.01488
549.97        59.13534
550.41        59.16506
550.84        59.08668
551.28        59.12904
551.72        59.27914
552.15        59.30769
552.59        59.19213
553.03        59.39174
553.46        59.17472
553.90        59.15645
554.34        59.11976
554.77        59.07238
555.21        59.03763
555.65        59.05421
556.08        59.12128
556.52        59.22391
556.96         59.3226
557.39        59.39083
557.83        59.41216
558.27         59.3292
558.70        59.17854
559.14        59.05245
559.57         58.9711
560.01        59.02569
560.45        59.14285
560.88        59.06793
561.32        58.88101
561.75        58.80866
562.19         58.8926
562.63        59.00465
563.06        59.10205
563.50        59.09652
563.93        58.99443
564.37        59.02203
564.80        59.13024
565.24        59.12185
565.68        59.01316
566.11        58.96638
566.55        59.00367
566.98        59.07976
567.42        59.17165
567.85        59.08024
568.29        58.89825
568.72        58.91175
569.16        59.13444
569.60        59.16377
570.03        59.28773
570.47         59.3117
570.90        59.18966
571.34        59.58732
571.77        59.71073
572.21        59.44865
572.64        59.51244
573.08         59.4302
573.51        59.40441
573.95        59.75411
574.38        59.56668
574.82        59.82073
