SpectraSmart Spectrum 2.9.0.0
--------- Device Information -----------
Spectrum Name :  反射率_0
Saving Time :  2024/04/21 00:21:21
Spectro-Module Model Name : SE2030-DUVN
Spectro-Module Serial Number : OS361AC55029948
Wavelength Start : 200
Wavelength End : 1025
Wavelength Unit : Wavelength(nm)
Spectrum Unit : Reflectance(%)
-----------Spectrum Setting ------------
Integration Time : 20ms
Average : 10
Boxcar : 0
Background removal :  enabled
linearity correction :  enabled
SC :  disabled
Intensity correction :  disabled
DWT denoise :  enabled
savitzky-golay :  disabled
FFT :  disabled
Running average :  disabled
Kalman :  disabled
High pass :  disabled
---------------BEGIN--------------------
Wavelength(nm)             Reflectance(%)
200.29               0
200.75       -18.47286
201.21      -0.4455806
201.67        9.712623
202.13        15.58812
202.58        19.51478
203.04        23.70896
203.50        27.31871
203.96        26.78505
204.42        20.68744
204.88        9.814009
205.34       -2.156455
205.80       -11.26002
206.26       -16.64927
206.72        -15.9198
207.18       -12.99244
207.64       -19.06004
208.10       -36.14529
208.55       -60.48534
209.01       -69.19855
209.47       -39.39331
209.93      -0.3509052
210.39        29.59003
210.85        47.88938
211.31         55.0826
211.77         53.9921
212.23        45.31063
212.69        24.31868
213.14       -16.01042
213.60       -90.03911
214.06        -299.817
214.52       -768.0103
214.98       -341.9127
215.44       -91.42137
215.90       -7.801431
216.36        19.58098
216.81        21.71693
217.27        2.823124
217.73       -95.45701
218.19        1082.787
218.65        445.2497
219.11       -919.5778
219.57       -28.33984
220.02        27.76153
220.48        38.13761
220.94          33.895
221.40        14.67067
221.86       -33.36164
222.32       -68.52818
222.77       -29.37887
223.23        6.885313
223.69        25.70751
224.15        32.43325
224.61        32.92863
225.06        30.81911
225.52        27.02271
225.98        22.30367
226.44        17.38075
226.90        11.00911
227.36        6.472086
227.81        9.793816
228.27        18.03362
228.73        26.82164
229.19        32.36522
229.65        32.41339
230.10        27.64701
230.56        19.51746
231.02        9.257785
231.48        2.183784
231.93        2.374099
232.39        7.859747
232.85        14.52061
233.31        18.83141
233.77        20.95867
234.22        22.57137
234.68        23.61749
235.14        23.80219
235.60        23.41884
236.05        21.56364
236.51        19.14634
236.97        24.13161
237.43        37.01074
237.88        47.14147
238.34        50.81792
238.80        70.60104
239.26        63.05464
239.71        59.06258
240.17        48.08532
240.63        38.16352
241.08        36.04994
241.54        45.15124
242.00        62.84311
242.46        75.76066
242.91        80.60978
243.37        78.42341
243.83         70.2009
244.28        62.53543
244.74         60.6729
245.20        61.56186
245.66        62.76909
246.11        61.99731
246.57         58.5904
247.03         53.9876
247.48        47.92501
247.94        39.31128
248.40        24.60464
248.85       -12.49181
249.31       -131.4569
249.77       -244.7291
250.22        -69.1699
250.68        9.853937
251.14        36.70927
251.59        45.32423
252.05         47.1864
252.51        46.07735
252.96        43.11688
253.42        42.99873
253.88         48.1671
254.33        55.40731
254.79        63.72842
255.25        70.94946
255.70        75.79778
256.16        79.21001
256.62        81.04837
257.07        81.31679
257.53        81.05167
257.99        80.19625
258.44        78.81457
258.90        77.82272
259.35        76.59585
259.81        75.54642
260.27        74.27636
260.72        72.50438
261.18        70.82178
261.63        69.06709
262.09        67.60789
262.55        66.22375
263.00        64.78012
263.46        63.48623
263.91        62.24547
264.37        61.46558
264.83        61.00586
265.28        60.66768
265.74        60.33555
266.19        59.57491
266.65        58.43056
267.11        56.97393
267.56        55.33448
268.02        53.82962
268.47        52.48666
268.93        51.26118
269.38        50.07102
269.84        48.86322
270.30        47.60396
270.75        46.34295
271.21        45.11443
271.66        43.87644
272.12        42.68054
272.57        41.51912
273.03        40.46951
273.48        39.58456
273.94        38.89235
274.39         38.3175
274.85        37.84253
275.31         37.3596
275.76        36.82624
276.22        36.30759
276.67        35.77782
277.13        35.30517
277.58        34.84753
278.04        34.41517
278.49        33.96781
278.95        33.55608
279.40        33.12663
279.86        32.71998
280.31        32.25146
280.77        31.70163
281.22        31.04102
281.68        30.36031
282.13        29.69752
282.59        29.19556
283.04        28.84876
283.50        28.65031
283.95        28.55006
284.41        28.50979
284.86        28.49726
285.32        28.54499
285.77        28.62207
286.22        28.71366
286.68        28.83255
287.13        28.92463
287.59        29.06493
288.04        29.25717
288.50        29.47783
288.95        29.82003
289.41        30.24715
289.86        30.24452
290.32         29.7512
290.77        30.57341
291.22        29.83289
291.68        30.07777
292.13        30.47505
292.59         31.0886
293.04        31.89093
293.50         32.9021
293.95          34.122
294.40        35.52155
294.86        37.05701
295.31        38.64514
295.77         40.2518
296.22        41.85638
296.68        43.48275
297.13        45.16867
297.58        46.93737
298.04        48.77356
298.49        50.64672
298.95        52.53389
299.40        54.40308
299.85        56.27579
300.31        58.15326
300.76        59.99857
301.21        61.82717
301.67        63.67479
302.12        65.54865
302.58        67.58876
303.03        69.76673
303.48        72.07949
303.94        74.46098
304.39        76.74287
304.84        78.88351
305.30        80.92992
305.75        82.85454
306.20        84.75135
306.66        86.64718
307.11        88.45718
307.57        90.19894
308.02        91.79928
308.47        93.28587
308.93        94.72465
309.38         96.0853
309.83        97.41196
310.29        98.73239
310.74        99.98965
311.19        101.2152
311.65        102.4374
312.10         103.629
312.55        104.7852
313.00        105.8386
313.46        106.6865
313.91        107.3025
314.36        107.7446
314.82        108.1154
315.27        108.5608
315.72        109.1337
316.18        109.7918
316.63        110.4883
317.08        111.1451
317.53        111.7216
317.99        112.2294
318.44        112.6579
318.89        112.9744
319.35        113.1792
319.80         113.294
320.25        113.3484
320.70        113.4039
321.16        113.4783
321.61         113.581
322.06        113.7263
322.51         113.939
322.97        114.1981
323.42         114.536
323.87        114.8789
324.32         115.122
324.78         115.222
325.23         115.247
325.68        115.2505
326.13          115.36
326.59        115.5829
327.04        115.9404
327.49        116.3507
327.94        116.7138
328.39        116.9958
328.85         117.191
329.30        117.4008
329.75        117.6476
330.20        117.9467
330.66        118.2364
331.11        118.5659
331.56        118.8692
332.01        119.1404
332.46        119.4035
332.92        119.6213
333.37        119.8857
333.82        120.1618
334.27        120.4465
334.72        120.7769
335.17        121.2173
335.63        121.7348
336.08        122.3632
336.53        122.9968
336.98        123.5134
337.43        123.8755
337.88        124.1165
338.34        124.2538
338.79        124.3912
339.24        124.5464
339.69        124.7168
340.14        124.9344
340.59        125.2489
341.05        125.6656
341.50        126.1778
341.95        126.7492
342.40        127.3155
342.85        127.8441
343.30        128.3382
343.75        128.7668
344.20        129.0965
344.66        129.3323
345.11        129.4521
345.56        129.5197
346.01        129.6412
346.46        129.8461
346.91        130.0893
347.36        130.2741
347.81        130.3411
348.26        130.2914
348.72        129.8216
349.17        129.6759
349.62        129.5492
350.07        129.6688
350.52        129.9428
350.97        130.2471
351.42        130.3699
351.87        130.2371
352.32        129.9116
352.77        129.4608
353.22        128.9864
353.67        128.5268
354.13        128.0731
354.58          127.58
355.03        127.0378
355.48        126.4511
355.93        125.8392
356.38        125.2506
356.83        124.7444
357.28        124.3143
357.73        123.9271
358.18        123.4939
358.63        122.8811
359.08        122.0698
359.53        121.1138
359.98        120.1031
360.43        119.1732
360.88        118.3542
361.33        117.5962
361.78        116.8627
362.23        116.0964
362.68        115.2776
363.13        114.4386
363.58        113.5532
364.03         112.573
364.48        111.5023
364.93        110.3562
365.38        109.2288
365.83        108.2764
366.28        107.5301
366.73        106.9428
367.18        106.4084
367.63        105.7542
368.08         104.936
368.53         104.008
368.98        103.0339
369.43        102.1041
369.88        101.2403
370.33        100.4047
370.78        99.57795
371.23        98.75138
371.68        97.93009
372.13        97.13065
372.58        96.37015
373.03        95.64944
373.48        94.96148
373.93        94.30981
374.38        93.65887
374.83        92.96449
375.28        92.23322
375.72        91.46191
376.17        90.75883
376.62        90.20167
377.07        89.78443
377.52        89.46243
377.97        89.13278
378.42        88.64234
378.87        87.97116
379.32        87.18445
379.77         86.3841
380.22        85.69906
380.67        85.14732
381.11        84.69123
381.56        84.26237
382.01        83.77428
382.46        83.21881
382.91        82.64135
383.36        82.08762
383.81        81.61922
384.26        81.24095
384.71        80.91335
385.15        80.59443
385.60        80.29013
386.05         79.9612
386.50        79.61797
386.95        79.22832
387.40        78.75198
387.85        78.21125
388.29        77.59045
388.74        77.05956
389.19        76.65434
389.64        76.36725
390.09        76.14635
390.54        75.95182
390.98        75.70518
391.43        75.43667
391.88        75.17665
392.33        74.89235
392.78        74.56761
393.23        74.22198
393.67        73.72653
394.12        73.29443
394.57        73.29028
395.02         73.6133
395.47        73.67033
395.91        73.41552
396.36        73.22836
396.81        73.11832
397.26        72.85529
397.71        72.44391
398.15        72.01465
398.60        71.67561
399.05        71.24033
399.50        70.83407
399.95        70.82705
400.39        71.12062
400.84        71.20409
401.29        70.99257
401.74        70.57839
402.18        70.07446
402.63        69.76576
403.08        69.64257
403.53         69.3588
403.97         68.9207
404.42        68.60758
404.87        68.45506
405.32        68.39751
405.76         68.4201
406.21        68.54064
406.66        68.65864
407.11        68.65868
407.55        68.51367
408.00        68.12964
408.45        67.63912
408.90        67.35553
409.34         67.3144
409.79        67.35158
410.24        67.37849
410.68        67.35228
411.13        67.24383
411.58        67.04939
412.03        66.82219
412.47        66.69685
412.92        66.67911
413.37        66.72884
413.81        66.79701
414.26        66.86929
414.71        66.90995
415.15        66.94849
415.60        66.93199
416.05        66.82762
416.49        66.64137
416.94        66.38106
417.39        66.11594
417.83        65.94347
418.28        65.88625
418.73        65.91451
419.17        65.97272
419.62        65.97581
420.07        65.90327
420.51        65.78041
420.96        65.66056
421.41        65.59518
421.85        65.57156
422.30        65.55213
422.74        65.52014
423.19        65.67204
423.64        65.93999
424.08        66.07722
424.53        65.99421
424.98        65.96155
425.42        66.00578
425.87        65.79497
426.31        65.46944
426.76        65.64403
427.21        66.20824
427.65        66.34685
428.10        65.99627
428.54        65.82587
428.99         65.8844
429.44        65.71314
429.88        65.38081
430.33        65.40261
430.77        65.66211
431.22        65.83143
431.66        65.85117
432.11        65.97878
432.56        66.23374
433.00        66.00706
433.45         65.2004
433.89        65.16423
434.34        66.06208
434.78        64.46944
435.23        65.11438
435.67        65.29228
436.12        66.10033
436.57        66.26981
437.01        65.86282
437.46        65.60598
437.90        66.21199
438.35        65.97216
438.79        66.07426
439.24        65.93616
439.68        65.87948
440.13        65.82075
440.57        65.78188
441.02        65.89111
441.46        66.09578
441.91        66.19409
442.35        66.16264
442.80        66.50665
443.24         67.0686
443.69        67.20445
444.13        66.88989
444.58        66.58416
445.02        66.37318
445.47        66.34199
445.91        66.46327
446.36        66.47697
446.80        66.36959
447.24        66.26193
447.69        66.21151
448.13        66.40807
448.58        66.60809
449.02        66.64159
449.47        66.46342
449.91        66.36845
450.36        66.38561
450.80        66.25294
451.25        66.04723
451.69        66.05628
452.13        66.24037
452.58        66.24567
453.02        66.04935
453.47        65.91149
453.91        65.82745
454.36        65.65536
454.80        65.41399
455.24        65.25646
455.69        65.21263
456.13        65.13895
456.58        65.06554
457.02        65.21964
457.46        65.12588
457.91        65.24467
458.35        64.71816
458.79        64.57256
459.24        64.63254
459.68         64.6409
460.13        64.58352
460.57         64.6068
461.01        64.75762
461.46          64.257
461.90        64.53478
462.34        64.25524
462.79        64.30585
463.23        64.22445
463.68        64.42542
464.12        64.07029
464.56        63.44543
465.01        63.47914
465.45        63.93297
465.89        64.19793
466.34        63.74697
466.78        63.52705
467.22        63.46375
467.67        63.54872
468.11        63.53486
468.55        63.47921
468.99        63.31377
469.44        63.17828
469.88        63.07809
470.32        62.90863
470.77        62.70445
471.21        62.57542
471.65        62.53595
472.10        62.55579
472.54        62.59519
472.98        62.62234
473.42        62.62758
473.87        62.60302
474.31        62.52473
474.75        62.54169
475.20        62.59304
475.64        62.41707
476.08        62.11693
476.52        61.98088
476.97         61.9673
477.41        62.24075
477.85        62.72505
478.29        62.26741
478.74        61.59674
479.18        62.33187
479.62        61.96035
480.06        62.15639
480.50        62.11677
480.95        62.25387
481.39        62.47322
481.83        62.29642
482.27        62.94485
482.72        62.16161
483.16        62.35249
483.60         62.5153
484.04        62.46794
484.48        62.05239
484.93        61.78963
485.37        61.98981
485.81        62.33779
486.25        62.12926
486.69        63.16606
487.14        63.10187
487.58        62.66982
488.02        61.94808
488.46        61.97318
488.90         61.8984
489.34        61.78638
489.79        61.28588
490.23        61.97713
490.67        62.00276
491.11        61.85524
491.55        61.72186
491.99        61.66856
492.43        61.63688
492.88        61.62669
493.32         61.6993
493.76        61.76694
494.20        61.80061
494.64        61.81447
495.08        61.43694
495.52         61.2807
495.96        61.35983
496.41         61.7024
496.85         61.6127
497.29        61.13387
497.73        61.08181
498.17        61.13254
498.61        61.34696
499.05        61.51776
499.49        61.23101
499.93        60.62829
500.37        60.63864
500.82        61.27683
501.26        60.94777
501.70        61.41112
502.14        60.98441
502.58        60.78704
503.02        60.60537
503.46        60.57365
503.90        60.54878
504.34        60.48043
504.78        60.46858
505.22        60.52519
505.66        60.53715
506.10        60.50168
506.54        60.63197
506.98        60.95006
507.42        60.42889
507.86        61.09243
508.30        60.53996
508.74        60.80799
509.18        60.65073
509.62        60.53148
510.06        60.47853
510.50        60.47535
510.94        60.44383
511.38        60.36489
511.82        60.31519
512.26        60.29101
512.70        60.25025
513.14        60.20206
513.58        60.17915
514.02        60.18457
514.46        60.21063
514.90        60.22599
515.34        60.22079
515.78        60.19445
516.22        60.11798
516.66        59.87624
517.10        60.12995
517.54        59.98453
517.98         60.1272
518.42        60.24335
518.86        60.27955
519.30        60.21821
519.74         60.0518
520.18        59.86557
520.62        59.86319
521.06         60.0225
521.50        60.09103
521.93        60.04212
522.37        60.02469
522.81        60.03315
523.25        59.96991
523.69         59.8495
524.13        59.74799
524.57        59.68023
525.01        59.62731
525.45        59.60033
525.89        59.61774
526.32        59.67518
526.76        59.76926
527.20        59.87637
527.64        59.95942
528.08        60.00357
528.52        60.01664
528.96        59.99966
529.40        59.95008
529.83        59.87234
530.27        59.79894
530.71        59.72897
531.15        59.65955
531.59        59.59553
532.03        59.54436
532.46        59.50927
532.90        59.50481
533.34        59.52554
533.78        59.56903
534.22        59.60919
534.66        59.60666
535.09        59.54711
535.53        59.46006
535.97        59.37007
536.41        59.33344
536.85        59.36234
537.28        59.44143
537.72        59.53403
538.16        59.58138
538.60        59.56796
539.04        59.51225
539.47        59.43627
539.91        59.42316
540.35        59.46868
540.79        59.55284
541.22        59.63518
541.66        59.66513
542.10        59.62626
542.54        59.53926
542.97        59.43135
543.41        59.37303
543.85        59.37389
544.29        59.42552
544.72         59.4873
545.16         59.5303
545.60        59.52673
546.04        59.47079
546.47        59.41173
546.91        59.42206
547.35        59.48993
547.79        59.64368
548.22        59.77607
548.66        59.59204
549.10         59.2005
549.53        59.11052
549.97        59.32087
550.41        59.38308
550.84        59.29206
551.28        59.28543
551.72        59.35039
552.15        59.45086
552.59        59.61443
553.03        59.38214
553.46        59.57912
553.90        59.49823
554.34        59.38329
554.77        59.23384
555.21        59.11899
555.65        59.08138
556.08        59.37116
556.52        59.53031
556.96        59.59491
557.39         59.7004
557.83        59.81625
558.27         59.7186
558.70        59.46549
559.14         59.3255
559.57        59.31924
560.01          59.395
560.45        59.47113
560.88        59.42195
561.32         59.3073
561.75        59.15359
562.19        59.06306
562.63        59.23051
563.06        59.54197
563.50        59.53118
563.93        59.22009
564.37        59.04882
564.80         59.0575
565.24        59.19141
565.68        59.40164
566.11        59.52352
566.55        59.54842
566.98        59.65368
567.42        59.81599
567.85        59.68937
568.29        59.39806
568.72        59.36808
569.16        59.61926
569.60        59.64954
570.03        59.75512
570.47        59.79892
570.90        59.76117
571.34        60.09826
571.77        60.23173
572.21        59.85322
572.64        60.26206
573.08        60.36048
573.51         60.1167
573.95        60.38371
574.38         60.0806
574.82        60.82525
