SpectraSmart Spectrum 2.9.0.0
--------- Device Information -----------
Spectrum Name :  反射率_0
Saving Time :  2024/04/21 00:52:26
Spectro-Module Model Name : SE2030-DUVN
Spectro-Module Serial Number : OS361AC55029948
Wavelength Start : 200
Wavelength End : 1025
Wavelength Unit : Wavelength(nm)
Spectrum Unit : Reflectance(%)
-----------Spectrum Setting ------------
Integration Time : 20ms
Average : 10
Boxcar : 0
Background removal :  enabled
linearity correction :  enabled
SC :  disabled
Intensity correction :  disabled
DWT denoise :  enabled
savitzky-golay :  disabled
FFT :  disabled
Running average :  disabled
Kalman :  disabled
High pass :  disabled
---------------BEGIN--------------------
Wavelength(nm)             Reflectance(%)
200.29               0
200.75       -49.28811
201.21        -4.69131
201.67        21.06027
202.13        34.47186
202.58        42.17835
203.04        48.05781
203.50        53.51828
203.96        59.25882
204.42        64.03642
204.88        66.15916
205.34         65.8621
205.80        63.56581
206.26        59.24745
206.72        54.15227
207.18        45.14924
207.64        26.17494
208.10       -1.071031
208.55       -32.70564
209.01       -44.93468
209.47       -15.13358
209.93        25.61005
210.39        58.39688
210.85        79.15848
211.31        87.96629
211.77        88.26346
212.23        80.83064
212.69        64.55786
213.14        46.72591
213.60          42.243
214.06        80.18609
214.52        273.1041
214.98        222.7708
215.44        133.5815
215.90        98.59892
216.36        84.05614
216.81        75.54159
217.27        65.47669
217.73        30.13083
218.19        433.8179
218.65        219.4156
219.11       -293.9686
219.57        44.87766
220.02        66.35132
220.48        69.76539
220.94        66.70227
221.40        55.69318
221.86        29.98589
222.32        15.75256
222.77        41.14502
223.23        62.20394
223.69        72.09798
224.15        74.22357
224.61        72.00476
225.06        67.34489
225.52        61.57063
225.98        56.59856
226.44        53.45629
226.90        51.02193
227.36        50.75579
227.81        54.50704
228.27        60.03322
228.73        65.28374
229.19        68.48944
229.65        68.71514
230.10        66.38673
230.56        62.17723
231.02        56.78901
231.48        53.37241
231.93        53.96157
232.39         57.3913
232.85        61.14895
233.31        63.15143
233.77         63.5446
234.22        63.37622
234.68        62.80127
235.14        62.10996
235.60        61.68067
236.05        60.93287
236.51        60.46415
236.97        64.46069
237.43        72.74429
237.88        80.43945
238.34        86.06638
238.80        93.82714
239.26        92.61495
239.71        89.38435
240.17          81.944
240.63        75.08871
241.08        73.75835
241.54        79.61585
242.00        90.92342
242.46        100.1573
242.91        105.4901
243.37        107.3079
243.83        105.7356
244.28        102.2431
244.74        98.54805
245.20        94.69279
245.66        90.05429
246.11         83.4395
246.57        74.51588
247.03        63.94217
247.48        52.82387
247.94        42.98471
248.40        33.96949
248.85        20.83578
249.31      -0.6479853
249.77        30.52803
250.22         79.6631
250.68        86.03829
251.14        86.17941
251.59        87.76997
252.05        91.91982
252.51        98.70585
252.96        107.6099
253.42        114.0858
253.88        113.8222
254.33        108.7473
254.79        104.7816
255.25          104.35
255.70        105.5591
256.16        107.4283
256.62        108.4204
257.07        107.6993
257.53        106.5087
257.99        104.9412
258.44        102.9391
258.90        101.5266
259.35        99.93135
259.81        98.61679
260.27        97.28197
260.72        95.78703
261.18        94.67348
261.63        93.41637
262.09        92.27267
262.55        90.69044
263.00        88.56529
263.46        86.40018
263.91        84.19531
264.37        82.64919
264.83        81.66595
265.28        80.96062
265.74        80.45954
266.19        79.67798
266.65        78.66098
267.11        77.44253
267.56        76.08865
268.02        74.84271
268.47        73.68021
268.93         72.5722
269.38        71.40607
269.84        70.12282
270.30        68.68813
270.75        67.14333
271.21        65.59206
271.66        64.08238
272.12        62.69794
272.57        61.40081
273.03        60.20822
273.48        59.03282
273.94        57.90765
274.39        56.79313
274.85         55.7862
275.31        54.91713
275.76        54.15959
276.22        53.53818
276.67         52.9228
277.13        52.28696
277.58        51.53813
278.04        50.74945
278.49        49.90253
278.95         49.1291
279.40        48.37319
279.86        47.68174
280.31        46.92776
280.77        46.07801
281.22        45.08598
281.68        44.07089
282.13        43.09855
282.59        42.38525
283.04        41.90929
283.50        41.64578
283.95        41.46194
284.41        41.22882
284.86        40.88779
285.32        40.52009
285.77        40.15249
286.22        39.87507
286.68        39.72634
287.13        39.61873
287.59         39.5858
288.04        39.55468
288.50        39.50441
288.95        39.52907
289.41        39.64694
289.86          39.459
290.32        38.92315
290.77         39.5722
291.22        38.85882
291.68        38.93587
292.13        39.05284
292.59        39.28525
293.04        39.63555
293.50        40.17533
293.95        40.91667
294.40        41.82003
294.86        42.82577
295.31        43.82523
295.77        44.79202
296.22        45.73537
296.68         46.7068
297.13        47.77079
297.58        48.95955
298.04        50.24647
298.49        51.60463
298.95        53.02083
299.40        54.45677
299.85        55.92512
300.31        57.39884
300.76        58.79722
301.21        60.13288
301.67        61.46657
302.12        62.83017
302.58          64.395
303.03        66.15079
303.48        68.08833
303.94        70.16472
304.39        72.24883
304.84        74.29969
305.30        76.35313
305.75        78.33797
306.20        80.27362
306.66        82.17065
307.11        83.96513
307.57        85.71351
308.02        87.41415
308.47        89.10062
308.93        90.80767
309.38        92.46832
309.83        94.05813
310.29         95.6032
310.74        97.07257
311.19        98.51204
311.65        99.96679
312.10        101.4233
312.55        102.8616
313.00        104.2539
313.46        105.5629
313.91        106.7516
314.36        107.8381
314.82         108.824
315.27         109.702
315.72        110.4949
316.18        111.2104
316.63        111.8847
317.08        112.5768
317.53        113.2972
317.99        114.0298
318.44        114.7411
318.89        115.3555
319.35        115.8555
319.80        116.2762
320.25        116.6494
320.70        117.0355
321.16          117.44
321.61        117.8512
322.06        118.2567
322.51        118.6489
322.97        119.0011
323.42        119.3637
323.87        119.6806
324.32        119.8784
324.78        119.9323
325.23        119.9111
325.68        119.8916
326.13        120.0364
326.59        120.3531
327.04        120.8556
327.49        121.4179
327.94        121.8607
328.39        122.1322
328.85        122.2533
329.30        122.3616
329.75        122.5389
330.20        122.8253
330.66        123.1355
331.11        123.5379
331.56        123.9918
332.01         124.482
332.46        125.0213
332.92        125.4959
333.37        125.8728
333.82        126.0863
334.27        126.1725
334.72        126.2522
335.17        126.5337
335.63        127.0362
336.08        127.7668
336.53        128.5911
336.98        129.3343
337.43        129.9293
337.88        130.4167
338.34        130.7975
338.79        131.1503
339.24        131.4761
339.69        131.7647
340.14         132.039
340.59        132.3466
341.05        132.7025
341.50        133.1101
341.95        133.5701
342.40        134.0778
342.85         134.613
343.30        135.1613
343.75        135.6631
344.20        136.0324
344.66        136.2622
345.11         136.359
345.56        136.3834
346.01        136.4369
346.46        136.5633
346.91        136.7086
347.36        136.8372
347.81        137.0075
348.26        137.2265
348.72          137.06
349.17        137.3001
349.62         137.348
350.07        137.4461
350.52        137.5627
350.97        137.6541
351.42        137.6421
351.87        137.4978
352.32        137.2361
352.77        136.9248
353.22        136.6684
353.67        136.4803
354.13        136.3474
354.58        136.1303
355.03        135.6654
355.48        134.9347
355.93         134.008
356.38        133.0526
356.83        132.3154
357.28        131.8371
357.73        131.5308
358.18        131.2383
358.63        130.7071
359.08        129.8813
359.53        128.8593
359.98        127.7586
360.43        126.7506
360.88        125.8862
361.33        125.1076
361.78        124.3856
362.23        123.6791
362.68        122.9692
363.13        122.2792
363.58        121.5827
364.03        120.8289
364.48        120.0071
364.93        119.1185
365.38        118.2095
365.83        117.3681
366.28        116.6095
366.73        115.9019
367.18        115.1901
367.63        114.3867
368.08        113.4758
368.53        112.5005
368.98        111.4902
369.43        110.4741
369.88        109.4651
370.33        108.4524
370.78        107.4692
371.23        106.5903
371.68        105.8434
372.13        105.2185
372.58         104.672
373.03        104.1145
373.48        103.5087
373.93        102.8688
374.38        102.2033
374.83        101.5435
375.28        100.9072
375.72        100.2607
376.17        99.64826
376.62        99.04493
377.07        98.43359
377.52         97.8091
377.97        97.16595
378.42         96.5113
378.87        95.86959
379.32        95.26147
379.77        94.68929
380.22        94.13757
380.67        93.59043
381.11         93.0452
381.56        92.51238
382.01        92.03983
382.46        91.64488
382.91        91.32333
383.36        91.00998
383.81        90.60344
384.26        90.08316
384.71        89.47059
385.15        88.84866
385.60         88.4183
386.05        88.18127
386.50        88.08332
386.95        87.98193
387.40        87.66071
387.85        87.09606
388.29         86.3294
388.74        85.62491
389.19        85.11481
389.64        84.82321
390.09        84.67979
390.54        84.58712
390.98        84.37125
391.43        84.02504
391.88        83.60695
392.33        83.23097
392.78        82.82805
393.23        82.38322
393.67        82.29709
394.12        82.64542
394.57        81.42709
395.02        81.44341
395.47        81.15445
395.91        81.32168
396.36        81.23154
396.81         80.8787
397.26         80.6198
397.71        80.42593
398.15        80.08709
398.60         79.6909
399.05        79.32656
399.50        79.06215
399.95        78.77331
400.39        78.55387
400.84        78.85352
401.29        79.48401
401.74        79.41831
402.18        78.71246
402.63        78.39748
403.08        78.47666
403.53        78.20164
403.97        77.57917
404.42        77.05566
404.87        76.71225
405.32        76.52448
405.76        76.50366
406.21        76.63268
406.66        76.76917
407.11        76.83421
407.55        76.75862
408.00        76.19314
408.45        75.36436
408.90        75.12138
409.34        75.42905
409.79        75.50461
410.24        75.25861
410.68        75.09555
411.13        74.99493
411.58        74.68978
412.03        74.27738
412.47        74.10576
412.92        74.20061
413.37        74.46048
413.81        74.74947
414.26        74.93227
414.71        74.94644
415.15        74.86198
415.60        74.69624
416.05         74.5457
416.49        74.44646
416.94        74.35704
417.39        74.27544
417.83        74.18678
418.28        74.09399
418.73        74.02253
419.17        73.94368
419.62        73.81232
420.07        73.62041
420.51        73.36395
420.96        73.16041
421.41        73.09046
421.85        73.12572
422.30        73.40392
422.74        73.72549
423.19        73.62518
423.64        73.17285
424.08        73.12495
424.53        73.42396
424.98        73.45533
425.42        73.21172
425.87        73.05867
426.31        73.04691
426.76        73.05788
427.21         73.1076
427.65        73.25986
428.10        73.38057
428.54        73.53511
428.99        73.34073
429.44        73.13448
429.88        72.88264
430.33        72.88004
430.77        73.02061
431.22        73.20568
431.66        73.35745
432.11        73.36083
432.56        73.26103
433.00        73.24206
433.45        73.11005
433.89        72.92436
434.34        72.85899
434.78        72.16259
435.23        71.88114
435.67        73.18228
436.12        72.97834
436.57        73.13172
437.01        72.77884
437.46        72.53213
437.90        73.19801
438.35         72.9933
438.79        73.27589
439.24        73.26199
439.68        73.29511
440.13        73.33854
440.57        73.35685
441.02        73.31654
441.46        73.21796
441.91        73.08703
442.35        72.93965
442.80        73.25137
443.24        73.82169
443.69        73.88741
444.13         73.4557
444.58        73.20503
445.02        73.09261
445.47        73.26065
445.91        73.55798
446.36        73.59133
446.80        73.30401
447.24        73.03186
447.69        72.95517
448.13        72.59583
448.58        73.09805
449.02        73.16661
449.47        73.10179
449.91         73.0724
450.36        73.09184
450.80        72.91002
451.25        72.62334
451.69        72.59403
452.13        72.78804
452.58        72.79626
453.02         72.5964
453.47        72.48307
453.91         72.4456
454.36        72.32662
454.80        72.11682
455.24        71.93082
455.69        71.79817
456.13        71.58749
456.58        71.37222
457.02        71.44906
457.46        71.32382
457.91        71.46904
458.35        71.01896
458.79        70.90248
459.24        70.94901
459.68         70.9115
460.13        70.73597
460.57        70.69608
461.01        70.87975
461.46        70.12699
461.90        69.79755
462.34        70.44749
462.79        69.69033
463.23        69.92484
463.68         70.1834
464.12        69.91369
464.56        69.25444
465.01        69.30025
465.45        69.84475
465.89        70.04466
466.34        69.55565
466.78          69.411
467.22        69.48904
467.67        69.45027
468.11        68.84037
468.55        68.66437
468.99        68.76465
469.44        68.71738
469.88        68.50739
470.32        68.36588
470.77        68.30282
471.21        68.21048
471.65        68.08564
472.10          67.965
472.54        67.84069
472.98        67.72534
473.42        67.63013
473.87        67.55712
474.31        67.48223
474.75        67.50408
475.20        67.58463
475.64        67.58514
476.08        67.52798
476.52        67.51611
476.97        67.49976
477.41         67.6431
477.85        67.88853
478.29        67.55354
478.74        66.70015
479.18        67.32016
479.62        67.26571
480.06        67.30411
480.50        67.20275
480.95        67.32014
481.39        67.77056
481.83        67.16946
482.27        67.53387
482.72        67.57504
483.16        67.09407
483.60        67.44905
484.04         67.5442
484.48        67.34954
484.93        67.27048
485.37        67.47307
485.81        67.55673
486.25        67.38763
486.69        68.96382
487.14        69.32458
487.58        67.99991
488.02        67.15584
488.46        67.07115
488.90        67.09367
489.34        66.92987
489.79         66.4402
490.23         66.5676
490.67        66.71131
491.11        67.05784
491.55        66.98021
491.99        66.55295
492.43        66.37328
492.88        66.46976
493.32        66.54792
493.76        66.52082
494.20        66.50857
494.64        66.52941
495.08        66.21884
495.52         66.1076
495.96        66.22122
496.41        66.56834
496.85        66.47737
497.29        65.99795
497.73        66.01351
498.17        66.16426
498.61        66.37747
499.05        66.42964
499.49         66.2144
499.93        65.86349
500.37        65.79227
500.82        65.99348
501.26        66.25768
501.70        66.48741
502.14        66.22781
502.58        66.07687
503.02        65.96355
503.46        66.01289
503.90        66.03632
504.34        65.98512
504.78        65.93722
505.22        65.90863
505.66        65.80605
506.10        65.66363
506.54        65.68414
506.98        65.90335
507.42        65.37801
507.86        66.31714
508.30        65.47776
508.74        66.04231
509.18        65.90208
509.62         65.8295
510.06        65.77767
510.50        65.72738
510.94        65.59218
511.38        65.38577
511.82        65.27669
512.26        65.27775
512.70         65.3205
513.14        65.34368
513.58        65.34302
514.02        65.31679
514.46        65.13287
514.90        64.79337
515.34          65.101
515.78        64.86209
516.22        65.00207
516.66        64.95774
517.10        65.23593
517.54         65.0173
517.98        64.96188
518.42        64.87471
518.86        64.80704
519.30        64.77772
519.74        64.73116
520.18        64.71178
520.62         64.8741
521.06        65.16602
521.50        65.33241
521.93        65.33451
522.37        65.31835
522.81        65.28201
523.25        65.12277
523.69        64.88694
524.13        64.70985
524.57        64.61971
525.01        64.58247
525.45        64.59386
525.89        64.64228
526.32        64.71324
526.76        64.81773
527.20        64.92408
527.64        64.98215
528.08        64.97939
528.52        64.92403
528.96        64.85017
529.40        64.80795
529.83        64.80764
530.27        64.86807
530.71        64.93777
531.15        64.93118
531.59        64.83772
532.03        64.69348
532.46         64.5516
532.90        64.50928
533.34        64.57793
533.78        64.72053
534.22        64.87755
534.66        64.95872
535.09        64.93285
535.53        64.85322
535.97        64.73756
536.41        64.63277
536.85        64.55597
537.28        64.48819
537.72        64.44051
538.16        64.43305
538.60         64.4634
539.04        64.53378
539.47        64.58614
539.91        64.58278
540.35         64.4999
540.79        64.35628
541.22        64.20975
541.66        64.17039
542.10         64.2526
542.54        64.41714
542.97        64.58863
543.41        64.68444
543.85        64.67593
544.29        64.60331
544.72        64.49487
545.16        64.45141
545.60        64.48659
546.04        64.49947
546.47        64.50182
546.91        64.68567
547.35        64.95612
547.79        64.93835
548.22        64.65845
548.66        64.51026
549.10        64.52721
549.53        64.51788
549.97        64.47057
550.41        64.41964
550.84        64.37417
551.28        64.30109
551.72        64.21574
552.15         64.2611
552.59        64.47959
553.03        64.31797
553.46        64.64209
553.90        64.63958
554.34        64.55566
554.77        64.41341
555.21        64.31091
555.65         64.1944
556.08        64.38293
556.52        64.51211
556.96        64.61646
557.39        64.66394
557.83         64.7201
558.27        64.55255
558.70        64.27131
559.14        64.13054
559.57        64.14471
560.01        64.31223
560.45        64.51981
560.88        64.44292
561.32        64.19183
561.75        64.15884
562.19        64.37234
562.63        64.49815
563.06        64.48557
563.50        64.45356
563.93        64.38848
564.37        64.25037
564.80        64.07677
565.24        64.09882
565.68        64.28367
566.11        64.35277
566.55        64.31107
566.98        64.38375
567.42        64.57158
567.85        64.47689
568.29        64.47627
568.72        64.52522
569.16        64.72956
569.60        64.99623
570.03        64.88086
570.47        65.01946
570.90        65.30718
571.34        64.98264
571.77        65.56783
572.21        65.54315
572.64        65.51726
573.08        65.39623
573.51        65.27633
573.95        65.66415
574.38        65.46059
574.82        66.19701
