SpectraSmart Spectrum 2.9.0.0
--------- Device Information -----------
Spectrum Name :  反射率_0
Saving Time :  2024/04/20 23:56:33
Spectro-Module Model Name : SE2030-DUVN
Spectro-Module Serial Number : OS361AC55029948
Wavelength Start : 200
Wavelength End : 1025
Wavelength Unit : Wavelength(nm)
Spectrum Unit : Reflectance(%)
-----------Spectrum Setting ------------
Integration Time : 20ms
Average : 10
Boxcar : 0
Background removal :  enabled
linearity correction :  enabled
SC :  disabled
Intensity correction :  disabled
DWT denoise :  enabled
savitzky-golay :  disabled
FFT :  disabled
Running average :  disabled
Kalman :  disabled
High pass :  disabled
---------------BEGIN--------------------
Wavelength(nm)             Reflectance(%)
200.29               0
200.75        11.19074
201.21        29.68022
201.67          35.798
202.13        35.64159
202.58        31.63132
203.04         24.2732
203.50        14.68042
203.96        7.774253
204.42        6.102132
204.88        7.391988
205.34        9.930649
205.80        10.74829
206.26        8.881599
206.72        7.207294
207.18        1.552525
207.64         -16.932
208.10       -47.52945
208.55       -86.51116
209.01       -104.8601
209.47       -72.49951
209.93       -25.75531
210.39        11.72296
210.85        34.90245
211.31        43.11878
211.77        39.72698
212.23        25.11461
212.69       -6.772557
213.14        -61.0153
213.60       -144.2465
214.06       -351.3116
214.52       -730.4612
214.98       -269.5536
215.44       -50.95063
215.90        14.91375
216.36         34.7333
216.81        34.99425
217.27         18.1666
217.73       -67.59872
218.19        967.5818
218.65        418.6103
219.11       -886.9316
219.57       -28.46695
220.02        25.87503
220.48        34.60236
220.94        27.45475
221.40        2.023925
221.86       -58.44555
222.32       -97.64693
222.77       -43.41596
223.23        3.993598
223.69        27.70845
224.15        35.22232
224.61        34.19434
225.06        29.13154
225.52        21.70512
225.98        14.14036
226.44        7.844473
226.90         1.00654
227.36       -2.645205
227.81        3.112943
228.27        14.03666
228.73        25.13313
229.19        32.13835
229.65        32.75272
230.10        27.92132
230.56        19.11819
231.02        7.853531
231.48        0.479035
231.93        1.460039
232.39        8.230424
232.85        15.90628
233.31        20.39968
233.77         21.8919
234.22        22.21738
234.68        21.56863
235.14        20.15698
235.60        18.56318
236.05        15.80642
236.51        12.48223
236.97        16.50817
237.43        28.57117
237.88        37.02652
238.34        37.58522
238.80         61.1448
239.26        51.91201
239.71        50.35734
240.17        41.97903
240.63        32.29927
241.08        25.02082
241.54        23.16404
242.00        27.92829
242.46        29.26285
242.91         24.1146
243.37        13.71077
243.83       0.8690398
244.28       -4.034333
244.74        4.307555
245.20        18.77257
245.66        31.35148
246.11        34.94676
246.57        29.10267
247.03        16.48248
247.48      -0.7109075
247.94       -18.71284
248.40       -39.41695
248.85       -81.59466
249.31        -192.784
249.77       -236.7021
250.22       -51.78514
250.68        12.41993
251.14        30.04893
251.59        33.10588
252.05        29.77429
252.51        21.27717
252.96        6.991125
253.42         -6.6929
253.88       -11.35654
254.33       -7.140776
254.79         4.63481
255.25        19.60601
255.70        32.79908
256.16        42.65825
256.62        49.32647
257.07         53.1662
257.53        55.31672
257.99        56.32457
258.44        55.92852
258.90        54.48141
259.35        52.01519
259.81        49.35017
260.27        47.04825
260.72        45.80323
261.18        45.67286
261.63        45.91404
262.09        46.13484
262.55        45.63623
263.00        44.40219
263.46        42.92718
263.91        41.38565
264.37         40.3614
264.83        39.83249
265.28        39.53719
265.74        39.38474
266.19        39.11259
266.65        38.69748
267.11        38.16517
267.56        37.47284
268.02        36.62628
268.47        35.61233
268.93        34.49364
269.38        33.31115
269.84        32.19649
270.30        31.18935
270.75        30.26756
271.21          29.505
271.66        28.93851
272.12        28.57164
272.57        28.36363
273.03        28.18247
273.48        27.80039
273.94        27.20326
274.39        26.43019
274.85        25.66239
275.31        25.11665
275.76        24.82704
276.22         24.7418
276.67        24.71564
277.13        24.60815
277.58        24.35402
278.04        24.03063
278.49        23.67857
278.95        23.42115
279.40         23.2357
279.86        23.10206
280.31        22.92726
280.77         22.6576
281.22        22.26115
281.68         21.8321
282.13        21.38893
282.59        21.02411
283.04        20.73599
283.50        20.50863
283.95         20.3618
284.41        20.34762
284.86        20.44845
285.32        20.66157
285.77        20.85949
286.22        20.86723
286.68        20.68592
287.13        20.33592
287.59        20.02935
288.04        19.98616
288.50        20.21413
288.95        20.75803
289.41        21.45548
289.86        21.56977
290.32        20.97525
290.77        21.75042
291.22        20.70561
291.68        20.79814
292.13         21.1065
292.59        21.65545
293.04        22.34796
293.50        23.10581
293.95        23.91576
294.40        24.78325
294.86        25.74411
295.31        26.83871
295.77        28.06465
296.22        29.37669
296.68        30.72707
297.13        32.04592
297.58        33.33251
298.04        34.61402
298.49        35.93647
298.95        37.38987
299.40         38.9744
299.85         40.6679
300.31        42.40621
300.76         44.0717
301.21        45.64717
301.67        47.18538
302.12           48.74
302.58        50.48771
303.03        52.43154
303.48        54.56824
303.94        56.79602
304.39        58.90773
304.84        60.86406
305.30        62.72565
305.75        64.57369
306.20        66.63637
306.66        68.93192
307.11        71.31744
307.57        73.63934
308.02        75.60626
308.47        77.18898
308.93        78.51997
309.38        79.70621
309.83        80.96342
310.29        82.42593
310.74         83.9538
311.19        85.48812
311.65        86.89174
312.10        88.11063
312.55        89.19678
313.00        90.21279
313.46        91.25484
313.91         92.3249
314.36         93.3913
314.82        94.39391
315.27        95.23888
315.72        95.92182
316.18        96.48494
316.63        96.99617
317.08        97.56437
317.53        98.21397
317.99        98.90295
318.44        99.58436
318.89        100.1688
319.35        100.6265
319.80        100.9935
320.25        101.2863
320.70         101.537
321.16        101.7551
321.61        101.9486
322.06        102.1302
322.51        102.3307
322.97        102.5439
323.42        102.8039
323.87        103.0774
324.32        103.3219
324.78         103.507
325.23        103.6781
325.68        103.8449
326.13        104.0551
326.59        104.2955
327.04         104.607
327.49         104.932
327.94        105.2082
328.39        105.4258
328.85        105.5786
329.30        105.7793
329.75        106.0847
330.20        106.5107
330.66        106.9824
331.11        107.5205
331.56        108.0218
332.01        108.4577
332.46        108.8566
332.92        109.1503
333.37        109.3719
333.82        109.4919
334.27        109.5263
334.72        109.5967
335.17        109.9085
335.63        110.4697
336.08        111.2762
336.53        112.1523
336.98        112.8427
337.43        113.2684
337.88        113.5036
338.34        113.6023
338.79        113.7249
339.24        113.9136
339.69        114.1326
340.14        114.4177
340.59        114.8342
341.05        115.3777
341.50        116.0338
341.95        116.7208
342.40        117.2941
342.85        117.7132
343.30        118.0228
343.75        118.2408
344.20        118.4144
344.66        118.5778
345.11        118.6832
345.56        118.8164
346.01        119.1112
346.46        119.5781
346.91        120.1685
347.36        120.6844
347.81        120.8815
348.26        120.7325
348.72        120.0962
349.17        119.6389
349.62        119.4338
350.07        119.6928
350.52        120.2681
350.97         120.914
351.42        121.2194
351.87        121.0625
352.32         120.576
352.77        119.9313
353.22        119.3863
353.67        119.0218
354.13        118.7778
354.58        118.5473
355.03        118.2218
355.48        117.7754
355.93        117.2591
356.38        116.7561
356.83        116.3797
357.28        116.1285
357.73        115.9306
358.18        115.6683
358.63        115.1665
359.08        114.3953
359.53        113.4408
359.98        112.3843
360.43        111.3425
360.88        110.3666
361.33        109.4263
361.78         108.578
362.23        107.9085
362.68        107.4156
363.13        107.0772
363.58        106.7468
364.03        106.1841
364.48        105.3376
364.93        104.2675
365.38        103.1312
365.83        102.1987
366.28        101.5338
366.73        101.0443
367.18        100.6009
367.63         99.9976
368.08        99.18164
368.53        98.23878
368.98        97.22927
369.43        96.22691
369.88        95.26226
370.33        94.30586
370.78         93.3915
371.23         92.5986
371.68        91.95235
372.13        91.44589
372.58         91.0209
373.03        90.56265
373.48        90.02811
373.93        89.43243
374.38        88.80151
374.83        88.19671
375.28         87.6405
375.72        87.09428
376.17         86.5653
376.62        85.99277
377.07        85.35365
377.52        84.65353
377.97        83.92538
378.42        83.23923
378.87        82.63499
379.32        82.11833
379.77        81.63972
380.22         81.1075
380.67        80.49434
381.11        79.81693
381.56        79.15296
382.01        78.65878
382.46        78.36915
382.91        78.23492
383.36        78.10912
383.81          77.766
384.26        77.16308
384.71        76.37635
385.15        75.55169
385.60        74.97734
386.05        74.69274
386.50        74.61803
386.95        74.61414
387.40        74.46745
387.85        74.13069
388.29        73.63223
388.74        73.17181
389.19        72.83555
389.64        72.63264
390.09        72.49662
390.54         72.3494
390.98        72.06232
391.43        71.66232
391.88        71.20568
392.33        70.74969
392.78        70.38406
393.23        70.13274
393.67         69.8754
394.12        69.69636
394.57        69.67384
395.02        69.72892
395.47        69.57653
395.91         69.2374
396.36        68.96421
396.81        68.80155
397.26        68.63931
397.71         68.4193
398.15        68.13969
398.60        67.88136
399.05        67.41896
399.50        66.95439
399.95        67.11215
400.39        67.72235
400.84        67.93102
401.29        67.62997
401.74        67.05482
402.18        66.42318
402.63        66.25182
403.08        66.48262
403.53        66.36897
403.97        65.88977
404.42        65.60382
404.87        65.51118
405.32        65.38818
405.76         65.2286
406.21        65.01992
406.66        64.81612
407.11        64.90211
407.55        65.20111
408.00        65.20201
408.45        64.90018
408.90        64.60789
409.34        64.40434
409.79        64.32936
410.24        64.33961
410.68        64.26112
411.13        64.08606
411.58        63.94689
412.03        63.87294
412.47        63.84748
412.92         63.8531
413.37        63.91655
413.81        63.98317
414.26        64.01847
414.71        63.99526
415.15        63.93219
415.60        63.84738
416.05        63.83311
416.49        63.90623
416.94        64.02633
417.39        64.12677
417.83        64.10036
418.28        63.93099
418.73        63.65266
419.17        63.33933
419.62        63.12292
420.07         63.0455
420.51        63.06773
420.96         63.1549
421.41        63.22334
421.85        63.22388
422.30        63.16456
422.74        63.07428
423.19        63.20942
423.64        63.51747
424.08        63.72178
424.53        63.71204
424.98        63.72818
425.42        63.79417
425.87        63.60156
426.31        63.28416
426.76         63.5139
427.21        64.20797
427.65          64.396
428.10        63.97829
428.54        64.36978
428.99        64.22614
429.44         64.3201
429.88         64.2121
430.33         64.0574
430.77        63.85195
431.22        63.81139
431.66        63.93775
432.11        64.08015
432.56        64.27369
433.00         64.5113
433.45        64.49799
433.89        64.47145
434.34        64.66278
434.78        63.19735
435.23        63.37984
435.67        64.30296
436.12        64.78799
436.57        65.01603
437.01        64.55383
437.46        64.32898
437.90        65.02169
438.35        65.30222
438.79        65.32841
439.24        65.31258
439.68        65.28147
440.13        65.07458
440.57        64.79586
441.02        64.92194
441.46        65.34685
441.91        65.42012
442.35        65.15313
442.80        65.35954
443.24        65.89386
443.69        66.01434
444.13         65.6984
444.58        65.41507
445.02        65.24648
445.47        65.30403
445.91        65.52216
446.36         65.6273
446.80        65.58898
447.24        65.54015
447.69        65.52797
448.13        65.72597
448.58        65.89426
449.02        65.86471
449.47        65.62491
449.91        65.51745
450.36        65.57932
450.80        65.54218
451.25        65.43456
451.69        65.46129
452.13        65.57705
452.58        65.46999
453.02        65.17619
453.47        65.03803
453.91        65.05482
454.36        65.05831
454.80        65.08344
455.24         65.0658
455.69        64.97262
456.13        65.16249
456.58        65.66917
457.02        64.68366
457.46        64.90964
457.91        64.64088
458.35        64.56045
458.79        64.46338
459.24        64.36871
459.68        64.36613
460.13        64.41651
460.57        64.42638
461.01         64.4111
461.46        64.18623
461.90        64.02943
462.34        64.06879
462.79        63.97153
463.23        63.92687
463.68        64.20837
464.12         63.8922
464.56         63.2902
465.01        63.43433
465.45        64.10367
465.89        64.11868
466.34        63.56997
466.78        63.29188
467.22        63.41305
467.67        63.39387
468.11        63.73657
468.55        63.58399
468.99        63.16509
469.44        62.95448
469.88        62.98086
470.32        62.91805
470.77        62.74536
471.21        62.61278
471.65        62.52275
472.10        62.44151
472.54        62.36572
472.98        62.31501
473.42        62.29807
473.87        62.30156
474.31        62.27954
474.75         62.3325
475.20        62.44322
475.64        62.26171
476.08        62.34441
476.52         62.2512
476.97        62.07045
477.41        62.21539
477.85        62.71355
478.29        61.77137
478.74        61.78539
479.18         62.2218
479.62         62.1208
480.06         62.3005
480.50        62.31634
480.95        62.22486
481.39        61.92107
481.83         62.4197
482.27         62.3545
482.72        61.97908
483.16        62.14878
483.60         62.3914
484.04         62.5619
484.48        62.28269
484.93        62.07844
485.37        62.25458
485.81        62.40678
486.25        61.56816
486.69        62.61948
487.14         62.5915
487.58        61.74413
488.02        62.05413
488.46        61.63836
488.90        61.93541
489.34        62.22441
489.79        61.62649
490.23        61.87369
490.67        61.87677
491.11        62.10928
491.55        61.98565
491.99        61.58629
492.43        61.40989
492.88        61.47298
493.32        61.54493
493.76        61.54572
494.20        61.58224
494.64        61.66665
495.08        61.40332
495.52        61.37009
495.96        61.47921
496.41        61.76664
496.85        61.66976
497.29        61.22992
497.73        61.15988
498.17        61.15648
498.61        61.34683
499.05        61.51094
499.49         61.3384
499.93        60.95438
500.37        60.89552
500.82        61.13663
501.26        61.38943
501.70        61.53576
502.14        61.11859
502.58        60.74657
503.02        60.51173
503.46        60.55285
503.90         60.6184
504.34        60.65015
504.78        60.72406
505.22        60.83521
505.66        60.89625
506.10         60.8798
506.54        60.97272
506.98        61.21547
507.42        60.71559
507.86         60.9964
508.30         60.9445
508.74        60.88422
509.18        60.86504
509.62        60.85182
510.06         60.8564
510.50        60.84302
510.94         60.7624
511.38        60.63107
511.82        60.53741
512.26        60.49245
512.70        60.44909
513.14        60.41216
513.58        60.41077
514.02         60.4422
514.46        60.49289
514.90        60.53699
515.34         60.5707
515.78        60.59123
516.22        60.57355
516.66        60.36728
517.10        60.57377
517.54        60.30746
517.98        60.26796
518.42        60.21911
518.86        60.23055
519.30        60.30436
519.74        60.38602
520.18           60.47
520.62        60.62067
521.06        60.77971
521.50        60.73613
521.93        60.51669
522.37        60.36019
522.81        60.29581
523.25        60.20185
523.69        60.08703
524.13        60.01954
524.57        60.00393
525.01        60.02442
525.45        60.08092
525.89         60.1646
526.32        60.25916
526.76        60.38202
527.20        60.46621
527.64        60.49549
528.08        60.45332
528.52        60.36362
528.96        60.25169
529.40        60.15163
529.83        60.07794
530.27        60.04904
530.71        60.06421
531.15        60.11803
531.59        60.20213
532.03        60.31796
532.46        60.42327
532.90        60.46419
533.34        60.42446
533.78        60.32109
534.22        60.18808
534.66        60.08063
535.09        60.00809
535.53        59.97851
535.97        59.96688
536.41        59.94891
536.85        59.91814
537.28        59.88398
537.72        59.86103
538.16        59.87129
538.60        59.91503
539.04        59.98111
539.47        60.03093
539.91        60.05937
540.35        60.04565
540.79         59.9999
541.22        59.93977
541.66        59.90842
542.10        59.91004
542.54        59.92966
542.97        59.94625
543.41        59.95779
543.85        59.95705
544.29        59.96295
544.72        59.95774
545.16        59.96601
545.60        59.97984
546.04         59.9204
546.47        59.84377
546.91        59.98476
547.35        60.26097
547.79        60.35255
548.22        60.22405
548.66        60.01815
549.10        59.82842
549.53        59.82899
549.97         59.9897
550.41        60.01394
550.84        59.89195
551.28        59.79866
551.72        59.75691
552.15        59.78444
552.59        59.91307
553.03        59.80925
553.46        60.00821
553.90        59.99703
554.34         59.9285
554.77        59.80249
555.21        59.68336
555.65         59.6515
556.08        59.71268
556.52        59.84283
556.96        59.97974
557.39        60.09528
557.83        60.15196
558.27        60.02759
558.70         59.8016
559.14        59.70207
559.57          59.741
560.01        59.92128
560.45         60.1162
560.88        60.00166
561.32        59.68897
561.75        59.52341
562.19        59.58139
562.63        59.71778
563.06          59.855
563.50        59.86246
563.93        59.72842
564.37         59.6237
564.80        59.56422
565.24        59.59221
565.68          59.694
566.11        59.74002
566.55        59.75366
566.98        59.90822
567.42        60.15288
567.85        60.12707
568.29        59.90263
568.72        59.79502
569.16         59.8779
569.60         59.8159
570.03        59.90594
570.47        59.99813
570.90        60.07734
571.34        60.25993
571.77         60.4342
572.21        60.26942
572.64        59.86745
573.08        60.12119
573.51        60.12916
573.95        60.58796
574.38        60.16813
574.82        61.00952
