SpectraSmart Spectrum 2.9.0.0
--------- Device Information -----------
Spectrum Name :  反射率_0
Saving Time :  2024/04/21 00:54:14
Spectro-Module Model Name : SE2030-DUVN
Spectro-Module Serial Number : OS361AC55029948
Wavelength Start : 200
Wavelength End : 1025
Wavelength Unit : Wavelength(nm)
Spectrum Unit : Reflectance(%)
-----------Spectrum Setting ------------
Integration Time : 20ms
Average : 10
Boxcar : 0
Background removal :  enabled
linearity correction :  enabled
SC :  disabled
Intensity correction :  disabled
DWT denoise :  enabled
savitzky-golay :  disabled
FFT :  disabled
Running average :  disabled
Kalman :  disabled
High pass :  disabled
---------------BEGIN--------------------
Wavelength(nm)             Reflectance(%)
200.29               0
200.75       -37.75659
201.21       -2.478427
201.67         14.8782
202.13        20.87962
202.58        20.44857
203.04        15.74202
203.50        8.251622
203.96        2.568459
204.42         1.04136
204.88        1.738434
205.34        2.933672
205.80        1.578101
206.26       -3.186646
206.72       -8.447539
207.18       -15.49615
207.64       -27.30387
208.10       -41.31617
208.55       -56.27981
209.01       -55.24757
209.47       -24.18341
209.93        10.81117
210.39        36.62427
210.85         52.3829
211.31        59.32006
211.77        60.23569
212.23        56.28634
212.69        44.90964
213.14        22.35424
213.60       -20.53179
214.06       -145.3864
214.52       -425.6535
214.98       -167.2047
215.44       -16.22337
215.90        33.68185
216.36        50.15149
216.81        52.13229
217.27        42.74875
217.73       -8.339986
218.19        613.6507
218.65        284.7882
219.11       -507.5089
219.57        13.53371
220.02        46.33559
220.48        51.31305
220.94        46.30904
221.40        29.43769
221.86       -10.26181
222.32       -35.69093
222.77       0.2145509
223.23        31.69474
223.69        47.50355
224.15        52.62846
224.61        52.20604
225.06         49.1356
225.52        44.82731
225.98        41.08484
226.44        38.84698
226.90        36.87409
227.36        36.72194
227.81        40.54145
228.27        46.03209
228.73        51.17493
229.19        54.12265
229.65        53.66033
230.10        50.16626
230.56        44.56662
231.02        37.60846
231.48        32.75424
231.93        32.75402
232.39        36.48916
232.85         41.2785
233.31        44.90602
233.77        47.49995
234.22        50.13153
234.68        52.59711
235.14        54.30785
235.60        55.21983
236.05        54.88319
236.51        53.94258
236.97        57.28119
237.43        65.18578
237.88        71.65913
238.34        74.60345
238.80        85.31168
239.26        81.62906
239.71        79.13813
240.17        72.41598
240.63         65.8662
241.08        63.44788
241.54        67.03434
242.00        75.31242
242.46        79.97031
242.91        78.50836
243.37        70.79568
243.83        58.60463
244.28        50.71282
244.74        52.73216
245.20        60.21104
245.66        67.37162
246.11        68.46097
246.57        62.85645
247.03        52.85179
247.48        39.84584
247.94        25.97292
248.40        9.380093
248.85       -25.21816
249.31       -117.0562
249.77       -145.8525
250.22        10.38425
250.68        63.15459
251.14         77.6094
251.59         80.9426
252.05        80.34876
252.51        76.69327
252.96        70.55891
253.42        66.94977
253.88        69.63945
254.33        76.44283
254.79        85.06174
255.25        91.57793
255.70        95.14992
256.16        97.53583
256.62        99.07899
257.07        100.1153
257.53         101.298
257.99        101.8999
258.44        101.4141
258.90        100.4265
259.35        98.43073
259.81        96.49133
260.27        94.37052
260.72        91.97855
261.18        90.03613
261.63        88.06194
262.09        86.65459
262.55        85.68039
263.00        84.84756
263.46        84.32747
263.91        83.58833
264.37        82.60011
264.83        81.24956
265.28        79.61143
265.74        78.02772
266.19        76.54948
266.65        75.31014
267.11        74.14873
267.56        72.97995
268.02        71.82352
268.47        70.58947
268.93        69.34994
269.38         68.0229
269.84        66.56481
270.30        64.97777
270.75        63.30759
271.21        61.69607
271.66        60.27007
272.12        59.10922
272.57        58.11673
273.03         57.2958
273.48        56.54662
273.94        55.86106
274.39        55.19324
274.85        54.49644
275.31        53.59815
275.76        52.47631
276.22        51.24854
276.67        50.03113
277.13        49.13676
277.58        48.53038
278.04        48.17203
278.49        47.83088
278.95        47.32659
279.40        46.55126
279.86        45.64824
280.31        44.67202
280.77        43.84433
281.22         43.1539
281.68         42.6126
282.13         42.1012
282.59        41.57388
283.04         40.9763
283.50        40.38943
283.95        39.86343
284.41        39.53341
284.86        39.39098
285.32        39.41407
285.77        39.48191
286.22        39.47328
286.68        39.37759
287.13         39.1761
287.59        38.99456
288.04        38.89791
288.50        38.89735
288.95        39.04002
289.41        39.27551
289.86        39.10676
290.32        38.48039
290.77        38.99282
291.22         38.1461
291.68        38.21278
292.13        38.45995
292.59        38.93188
293.04        39.58406
293.50        40.41426
293.95        41.40956
294.40        42.54795
294.86        43.79382
295.31        45.07576
295.77         46.3726
296.22        47.67244
296.68        48.99675
297.13        50.37006
297.58        51.81871
298.04        53.33007
298.49        54.90746
298.95        56.58431
299.40         58.3267
299.85        60.12544
300.31        61.91528
300.76        63.55736
301.21        65.04773
301.67          66.459
302.12         67.8491
302.58        69.43719
303.03        71.22226
303.48        73.19158
303.94        75.26929
304.39        77.26899
304.84        79.15044
305.30        80.97533
305.75        82.73626
306.20         84.5517
306.66         86.4435
307.11        88.30479
307.57        90.11479
308.02        91.74914
308.47        93.21957
308.93        94.60066
309.38        95.88293
309.83        97.14484
310.29        98.42799
310.74        99.67218
311.19         100.895
311.65         102.101
312.10        103.2636
312.55        104.3905
313.00        105.4483
313.46        106.3861
313.91        107.1786
314.36        107.8536
314.82         108.464
315.27        109.0811
315.72        109.7381
316.18        110.4171
316.63        111.0896
317.08        111.7103
317.53        112.2573
317.99        112.7347
318.44        113.1564
318.89        113.5285
319.35        113.8538
319.80        114.1441
320.25        114.3857
320.70         114.565
321.16         114.681
321.61        114.7645
322.06        114.8634
322.51        115.0603
322.97        115.3534
323.42        115.7574
323.87        116.1878
324.32        116.5217
324.78        116.7041
325.23        116.8072
325.68        116.8756
326.13        117.0227
326.59          117.25
327.04        117.5768
327.49         117.926
327.94        118.2102
328.39        118.4026
328.85        118.5009
329.30         118.609
329.75        118.7461
330.20        118.9368
330.66        119.1356
331.11        119.4078
331.56        119.7088
332.01        120.0346
332.46        120.3878
332.92        120.7332
333.37        121.1683
333.82        121.6409
334.27        122.1397
334.72        122.6258
335.17        123.0426
335.63        123.3432
336.08        123.6055
336.53         123.848
336.98        124.1605
337.43        124.5632
337.88        125.0291
338.34        125.4832
338.79        125.8636
339.24        126.1271
339.69        126.3224
340.14         126.495
340.59        126.7158
341.05        127.0136
341.50        127.3686
341.95        127.7997
342.40        128.3435
342.85        128.9792
343.30        129.6753
343.75        130.3245
344.20         130.764
344.66        130.9656
345.11         130.955
345.56        130.8298
346.01        130.7511
346.46        130.7852
346.91        130.8786
347.36        130.9774
347.81        131.0912
348.26        131.2193
348.72        131.0121
349.17        131.1713
349.62        131.2627
350.07        131.4898
350.52         131.793
350.97        132.0555
351.42        132.0846
351.87        131.8302
352.32         131.352
352.77        130.7862
353.22          130.34
353.67         130.064
354.13        129.9225
354.58        129.7665
355.03        129.4133
355.48        128.8265
355.93        128.0724
356.38        127.3004
356.83        126.7299
357.28        126.3899
357.73        126.1948
358.18        125.9704
358.63        125.4466
359.08        124.5714
359.53        123.4511
359.98        122.2499
360.43        121.2114
360.88        120.3979
361.33        119.7295
361.78        119.1238
362.23        118.4518
362.68        117.6726
363.13        116.8374
363.58        115.9609
364.03         115.058
364.48        114.1397
364.93        113.1916
365.38        112.2435
365.83        111.3547
366.28         110.537
366.73         109.778
367.18        109.0404
367.63        108.2591
368.08        107.4228
368.53        106.5612
368.98        105.6929
369.43        104.8363
369.88        103.9931
370.33        103.1454
370.78        102.3122
371.23        101.5464
371.68        100.8638
372.13        100.2537
372.58        99.67394
373.03        99.04024
373.48        98.32761
373.93        97.56483
374.38        96.78095
374.83        96.03535
375.28        95.36304
375.72        94.73358
376.17        94.19017
376.62        93.71249
377.07         93.2714
377.52        92.83999
377.97         92.3898
378.42        91.89011
378.87        91.34084
379.32        90.76754
379.77        90.15071
380.22         89.4443
380.67        88.64603
381.11        87.77929
381.56        86.92858
382.01        86.26584
382.46        85.84246
382.91        85.61396
383.36        85.46745
383.81        85.22134
384.26        84.82109
384.71        84.30897
385.15        83.74079
385.60        83.27535
386.05        82.91965
386.50        82.62964
386.95        82.33624
387.40        81.94669
387.85        81.45776
388.29          80.869
388.74         80.3576
389.19        79.95307
389.64        79.65282
390.09        79.41154
390.54        79.18178
390.98        78.87703
391.43         78.5342
391.88        78.18596
392.33        77.84568
392.78        77.54884
393.23        77.30846
393.67         77.0046
394.12        76.77106
394.57        76.76348
395.02        76.90427
395.47         76.8421
395.91        76.55872
396.36        76.29118
396.81        76.07361
397.26        75.78564
397.71        75.42561
398.15        75.08978
398.60        74.88419
399.05        74.52647
399.50        74.15434
399.95        74.38372
400.39        75.01669
400.84        74.99947
401.29        74.32031
401.74        73.75975
402.18        73.44743
402.63        73.14977
403.08        72.86064
403.53        72.54751
403.97        72.22371
404.42        72.04183
404.87        71.96433
405.32        71.87259
405.76         71.7396
406.21        71.55121
406.66        71.34388
407.11        71.30849
407.55        71.39393
408.00        71.26926
408.45        70.95747
408.90        70.58786
409.34        70.28794
409.79        70.37367
410.24        70.71118
410.68        70.76781
411.13        70.50377
411.58        70.22131
412.03        69.99764
412.47         69.8493
412.92        69.78751
413.37        69.81844
413.81        69.88966
414.26        69.97707
414.71        70.04164
415.15        70.10719
415.60        70.12453
416.05        70.07349
416.49        69.95592
416.94         69.7719
417.39        69.56431
417.83        69.39204
418.28         69.2756
418.73        69.20063
419.17        69.14807
419.62        69.09126
420.07        69.01864
420.51        68.93426
420.96        68.86773
421.41        68.79628
421.85        68.68762
422.30        68.62753
422.74        68.58598
423.19        68.51401
423.64        68.44569
424.08        68.66867
424.53        69.00931
424.98        69.07575
425.42        68.83784
425.87        68.38201
426.31        67.93576
426.76        67.95266
427.21        68.40314
427.65        68.77522
428.10         68.8896
428.54        68.96803
428.99        69.01199
429.44        68.78478
429.88        68.38007
430.33        68.24579
430.77        68.30862
431.22         68.3425
431.66        68.30469
432.11        68.34255
432.56        68.47567
433.00        68.46995
433.45        68.16651
433.89        68.15076
434.34        68.54267
434.78        67.83492
435.23        67.70279
435.67         68.7757
436.12        68.25726
436.57        68.48273
437.01        68.50351
437.46        68.42799
437.90        69.00082
438.35        68.43295
438.79        68.83191
439.24        68.71014
439.68        68.62854
440.13         68.6305
440.57        68.66768
441.02        68.51318
441.46         68.2364
441.91        68.22223
442.35        68.36808
442.80        68.80753
443.24        69.38955
443.69        69.38953
444.13        68.79884
444.58        69.20341
445.02        68.97029
445.47        69.13076
445.91         69.1395
446.36        69.13383
446.80        69.09211
447.24        68.95156
447.69         68.8066
448.13        68.96667
448.58        69.19182
449.02        69.26936
449.47        69.13916
449.91         69.0855
450.36        69.12901
450.80        69.01225
451.25        68.80323
451.69        68.77888
452.13        68.90078
452.58        68.80964
453.02        68.51997
453.47        68.35836
453.91        68.32367
454.36        68.25668
454.80        68.14863
455.24        68.01852
455.69        67.87565
456.13        67.76932
456.58        67.77432
457.02        67.47368
457.46        67.60815
457.91        67.55035
458.35        67.58644
458.79        67.50902
459.24        67.37845
459.68        67.19286
460.13        67.02444
460.57          66.852
461.01        66.70768
461.46        66.50803
461.90        66.74866
462.34        66.15891
462.79        66.56437
463.23        66.34711
463.68        66.71511
464.12        66.34927
464.56        65.67278
465.01        65.76057
465.45        66.34797
465.89        66.34164
466.34         65.8334
466.78        65.59526
467.22        65.65639
467.67        65.94479
468.11        65.67776
468.55        65.57211
468.99        65.41994
469.44        65.28421
469.88        65.16795
470.32        65.00598
470.77        64.82928
471.21        64.71194
471.65        64.66324
472.10        64.66572
472.54        64.66654
472.98        64.61739
473.42        64.51846
473.87        64.35981
474.31        64.15739
474.75        64.15564
475.20        64.33418
475.64        64.21796
476.08        64.24315
476.52         64.2125
476.97        64.21732
477.41        64.27757
477.85        64.36871
478.29        64.16386
478.74        63.73524
479.18        64.06704
479.62        63.90947
480.06        64.00928
480.50          63.997
480.95        64.01221
481.39        64.00436
481.83        64.22102
482.27        64.19752
482.72        64.10033
483.16        64.37943
483.60        64.02325
484.04        64.66537
484.48        64.22565
484.93         63.8289
485.37        64.28843
485.81        64.45987
486.25        63.76592
486.69        64.55582
487.14         64.6768
487.58        64.38602
488.02        63.87001
488.46        63.79642
488.90        63.97416
489.34        63.59591
489.79        63.05378
490.23        63.74822
490.67        63.72903
491.11         63.5273
491.55        63.47428
491.99        63.60545
492.43        63.67701
492.88        63.66488
493.32        63.70534
493.76        63.73953
494.20        63.74553
494.64        63.74354
495.08        63.41389
495.52        63.32037
495.96        63.34239
496.41        63.53954
496.85        63.52868
497.29        63.29675
497.73        63.27652
498.17        63.16634
498.61        63.39373
499.05        63.70631
499.49        63.49401
499.93        62.90892
500.37        62.73588
500.82         62.9772
501.26        63.24773
501.70        63.42719
502.14        63.08043
502.58        62.81442
503.02        62.67628
503.46        62.79486
503.90        62.91754
504.34        62.96646
504.78        62.99478
505.22         62.9897
505.66        62.89935
506.10        62.76495
506.54        62.76243
506.98        62.92379
507.42        62.78883
507.86        63.11866
508.30        63.06321
508.74        63.04743
509.18         62.9007
509.62        62.74126
510.06        62.67727
510.50        62.70807
510.94          62.737
511.38         62.7308
511.82        62.71453
512.26        62.67543
512.70        62.58026
513.14        62.46225
513.58        62.40823
514.02         62.4342
514.46        62.49338
514.90        62.51503
515.34        62.56409
515.78        62.40549
516.22        62.22434
516.66        61.87825
517.10        62.08062
517.54        61.98998
517.98        62.23243
518.42        62.47372
518.86        62.60144
519.30        62.57767
519.74        62.41061
520.18        62.18504
520.62         62.1089
521.06        62.16818
521.50        62.10612
521.93        61.93237
522.37        61.86085
522.81        61.89861
523.25        61.92853
523.69        61.92847
524.13        61.91703
524.57        61.88867
525.01        61.83327
525.45        61.77869
525.89        61.77245
526.32        61.81899
526.76        61.90899
527.20        62.00045
527.64        62.02845
528.08        61.98066
528.52        61.88353
528.96        61.77901
529.40        61.72368
529.83        61.73015
530.27        61.80722
530.71        61.91117
531.15        61.97112
531.59        61.96986
532.03        61.93179
532.46        61.87467
532.90        61.84089
533.34        61.83493
533.78        61.84284
534.22        61.84508
534.66        61.81268
535.09        61.73468
535.53         61.6498
535.97        61.56509
536.41         61.5061
536.85        61.48172
537.28        61.48152
537.72        61.51031
538.16        61.57673
538.60        61.67163
539.04        61.78749
539.47        61.87551
539.91        61.91577
540.35        61.88493
540.79        61.79567
541.22        61.67896
541.66        61.60142
542.10        61.57581
542.54        61.58588
542.97        61.60018
543.41        61.60022
543.85         61.5751
544.29        61.54636
544.72        61.51533
545.16         61.5382
545.60        61.61091
546.04        61.64005
546.47        61.64432
546.91        61.82178
547.35         62.0818
547.79        62.06311
548.22         61.7799
548.66        61.57757
549.10        61.50528
549.53        61.44502
549.97        61.40753
550.41        61.38944
550.84        61.38166
551.28        61.44116
551.72         61.5417
552.15        61.55002
552.59        61.45618
553.03        61.50858
553.46        61.34566
553.90        61.32996
554.34         61.3427
554.77        61.41562
555.21        61.55287
555.65        61.52731
556.08        61.67705
556.52        61.73237
556.96        61.77813
557.39        61.80762
557.83        61.82041
558.27        61.74357
558.70        61.61366
559.14         61.5387
559.57        61.51629
560.01        61.61532
560.45        61.74565
560.88        61.60934
561.32        61.32779
561.75        61.24701
562.19         61.4075
562.63        61.57627
563.06        61.67112
563.50        61.64272
563.93         61.4899
564.37        61.33416
564.80        61.21427
565.24        61.24602
565.68        61.40471
566.11        61.49783
566.55         61.5246
566.98         61.6486
567.42        61.83205
567.85        61.74697
568.29        61.57586
568.72        61.49916
569.16        61.58076
569.60        61.77275
570.03         61.6267
570.47         61.7488
570.90        61.98478
571.34        61.82484
571.77        62.38286
572.21        62.18351
572.64        62.18406
573.08        62.12983
573.51        62.06467
573.95        62.40105
574.38        62.54415
574.82        62.97454
