SpectraSmart Spectrum 2.9.0.0
--------- Device Information -----------
Spectrum Name :  反射率_0
Saving Time :  2024/04/20 23:55:21
Spectro-Module Model Name : SE2030-DUVN
Spectro-Module Serial Number : OS361AC55029948
Wavelength Start : 200
Wavelength End : 1025
Wavelength Unit : Wavelength(nm)
Spectrum Unit : Reflectance(%)
-----------Spectrum Setting ------------
Integration Time : 20ms
Average : 10
Boxcar : 0
Background removal :  enabled
linearity correction :  enabled
SC :  disabled
Intensity correction :  disabled
DWT denoise :  enabled
savitzky-golay :  disabled
FFT :  disabled
Running average :  disabled
Kalman :  disabled
High pass :  disabled
---------------BEGIN--------------------
Wavelength(nm)             Reflectance(%)
200.29               0
200.75       -63.94252
201.21       -10.25883
201.67         20.0416
202.13        33.58057
202.58        38.22749
203.04        39.29447
203.50        36.49349
203.96        29.04742
204.42        18.13239
204.88         3.28391
205.34       -9.371079
205.80       -12.08646
206.26       -2.328204
206.72        24.80289
207.18        58.72447
207.64        68.48963
208.10        40.89454
208.55       -15.29643
209.01       -60.71347
209.47       -43.44625
209.93        2.001576
210.39        41.97079
210.85        67.92459
211.31        78.07028
211.77        75.79164
212.23        62.09032
212.69        30.67052
213.14       -25.72992
213.60       -120.8072
214.06       -373.2811
214.52       -911.0117
214.98        -400.429
215.44       -111.0392
215.90       -14.70767
216.36         17.0263
216.81        20.14184
217.27       0.1022575
217.73       -107.2208
218.19        1174.921
218.65        470.1053
219.11       -908.8156
219.57       -12.91295
220.02        42.38284
220.48        51.74065
220.94        45.60835
221.40        21.77103
221.86       -36.08169
222.32       -75.55212
222.77       -25.88687
223.23         18.9603
223.69        41.26411
224.15        47.36194
224.61        44.54829
225.06        37.23603
225.52        27.64166
225.98         19.0873
226.44        13.37445
226.90        8.460554
227.36        7.147487
227.81        13.56309
228.27         23.4881
228.73        33.08078
229.19        39.02165
229.65        39.54327
230.10        35.45953
230.56        27.97751
231.02        18.23309
231.48        11.36873
231.93        11.26242
232.39        16.15244
232.85        21.94957
233.31        25.01098
233.77        25.42116
234.22        24.76139
234.68        23.34967
235.14         21.7294
235.60        20.54057
236.05        18.76316
236.51        16.59515
236.97        20.77647
237.43        31.72488
237.88         38.6413
238.34        37.33278
238.80        59.83525
239.26        49.44254
239.71        47.65536
240.17        39.53708
240.63        30.94667
241.08        25.74463
241.54        27.15022
242.00           35.46
242.46        40.12918
242.91        38.40361
243.37        31.35325
243.83        21.42285
244.28        17.93263
244.74        25.63775
245.20         38.4428
245.66         49.8978
246.11        54.48123
246.57         51.8541
247.03        43.99731
247.48        32.92646
247.94        22.26983
248.40        11.93249
248.85       -5.766748
249.31       -48.12072
249.77       -66.11089
250.22        2.723541
250.68        27.34811
251.14        35.45082
251.59        39.72978
252.05        43.69901
252.51        48.59788
252.96        53.11688
253.42        53.08397
253.88        46.62746
254.33        37.61509
254.79        32.80427
255.25        34.77131
255.70        39.99596
256.16        45.33047
256.62        49.34857
257.07        51.40109
257.53         52.2706
257.99        52.41256
258.44        51.78214
258.90        50.90385
259.35        49.52794
259.81        48.10658
260.27        46.71034
260.72        45.52469
261.18        44.80848
261.63        44.23116
262.09        43.73503
262.55        42.95081
263.00        41.81343
263.46        40.57817
263.91        39.34024
264.37        38.56783
264.83        38.19747
265.28        38.05019
265.74        37.90353
266.19        37.31012
266.65        36.28653
267.11        34.94498
267.56        33.55532
268.02        32.60445
268.47        32.13836
268.93        32.02745
269.38        31.95908
269.84        31.50581
270.30          30.568
270.75        29.30455
271.21        27.99766
271.66        27.01924
272.12         26.4821
272.57        26.23076
273.03        26.10142
273.48        25.83143
273.94        25.37242
274.39        24.79565
274.85        24.20569
275.31        23.69004
275.76         23.2715
276.22        22.93082
276.67        22.63014
277.13        22.38845
277.58        22.16002
278.04        21.95349
278.49        21.72012
278.95        21.44794
279.40        21.10121
279.86        20.72563
280.31        20.28868
280.77        19.81173
281.22        19.29682
281.68        18.81056
282.13        18.38375
282.59        18.12182
283.04         18.0105
283.50        18.01247
283.95        18.10217
284.41        18.25568
284.86        18.43993
285.32        18.67331
285.77        18.85033
286.22        18.82849
286.68        18.62628
287.13        18.25906
287.59        17.95826
288.04        17.97697
288.50        18.31606
288.95        19.00671
289.41        19.85126
289.86        20.05147
290.32         19.4694
290.77        20.24652
291.22        19.13311
291.68         19.1481
292.13        19.36373
292.59        19.80002
293.04        20.40627
293.50        21.17785
293.95        22.10815
294.40        23.17992
294.86        24.34389
295.31        25.50262
295.77        26.62899
296.22        27.72614
296.68        28.84283
297.13        30.05946
297.58        31.41535
298.04        32.89827
298.49        34.48777
298.95         36.1653
299.40        37.90038
299.85        39.70308
300.31        41.56353
300.76        43.44356
301.21        45.34145
301.67        47.28208
302.12        49.25572
302.58        51.35141
303.03        53.55873
303.48        55.90159
303.94        58.35898
304.39        60.84274
304.84         63.3265
305.30        65.82433
305.75        68.30627
306.20        70.84056
306.66        73.42123
307.11        75.95908
307.57        78.41338
308.02        80.65446
308.47        82.69076
308.93        84.60075
309.38         86.4004
309.83         88.1806
310.29        90.01855
310.74        91.83261
311.19        93.62196
311.65        95.35044
312.10        96.98306
312.55        98.52819
313.00        99.98988
313.46        101.3777
313.91        102.6682
314.36        103.8625
314.82         104.941
315.27        105.8664
315.72         106.659
316.18        107.3478
316.63        107.9895
317.08        108.6747
317.53        109.4197
317.99        110.1873
318.44        110.9428
318.89         111.611
319.35        112.1634
319.80        112.6351
320.25         113.012
320.70        113.2796
321.16        113.4433
321.61        113.5295
322.06        113.6107
322.51        113.8134
322.97        114.1497
323.42        114.6306
323.87        115.1535
324.32        115.5589
324.78         115.781
325.23         115.901
325.68        115.9841
326.13        116.1752
326.59        116.4861
327.04        116.9318
327.49        117.4083
327.94        117.7832
328.39        118.0204
328.85        118.1269
329.30         118.253
329.75        118.5004
330.20        118.9016
330.66        119.3709
331.11        119.8996
331.56        120.3204
332.01        120.5967
332.46        120.7793
332.92        120.8746
333.37        121.0524
333.82        121.3104
334.27        121.6336
334.72        122.0406
335.17        122.5618
335.63        123.1549
336.08        123.8648
336.53        124.6145
336.98        125.3277
337.43        125.9636
337.88        126.5221
338.34        126.9518
338.79        127.2517
339.24        127.4106
339.69        127.4611
340.14        127.4877
340.59        127.6236
341.05        127.9113
341.50        128.3337
341.95        128.8613
342.40         129.437
342.85        130.0225
343.30         130.617
343.75        131.1721
344.20        131.6211
344.66        131.9547
345.11        132.1565
345.56        132.2718
346.01        132.3836
346.46        132.5297
346.91        132.6745
347.36        132.7757
347.81        132.8668
348.26        132.9611
348.72        132.6852
349.17         132.785
349.62        132.8129
350.07        132.9859
350.52        133.2371
350.97        133.4586
351.42        133.4656
351.87        133.2064
352.32        132.7462
352.77        132.1781
353.22        131.6431
353.67        131.1866
354.13        130.7895
354.58        130.3882
355.03        129.9389
355.48        129.4258
355.93        128.8656
356.38        128.2933
356.83        127.7515
357.28        127.2333
357.73        126.7117
358.18        126.1108
358.63        125.3233
359.08        124.3458
359.53        123.2336
359.98        122.0928
360.43        121.0758
360.88         120.216
361.33        119.4662
361.78        118.7641
362.23        118.0068
362.68        117.1654
363.13         116.278
363.58        115.3547
364.03        114.4087
364.48        113.4469
364.93        112.4493
365.38         111.451
365.83        110.5189
366.28         109.659
366.73        108.8525
367.18        108.0327
367.63        107.0877
368.08        106.0098
368.53        104.8621
368.98        103.7052
369.43        102.6195
369.88        101.6235
370.33        100.6732
370.78         99.7982
371.23        99.06538
371.68        98.47847
372.13        98.02557
372.58        97.57614
373.03        96.90864
373.48        95.97845
373.93        94.84681
374.38        93.67928
374.83        92.76803
375.28        92.19201
375.72        91.83958
376.17        91.59617
376.62        91.20874
377.07        90.60049
377.52        89.82856
377.97        88.97266
378.42        88.18668
378.87        87.53645
379.32        86.98643
379.77        86.47144
380.22        85.88329
380.67        85.18903
381.11        84.42673
381.56        83.66395
382.01        83.03718
382.46         82.5881
382.91        82.27498
383.36         81.9986
383.81         81.6048
384.26        81.05752
384.71        80.40757
385.15        79.72846
385.60        79.19868
386.05        78.83071
386.50        78.57262
386.95        78.35316
387.40        78.07082
387.85          77.705
388.29        77.24763
388.74        76.83887
389.19        76.46922
389.64        76.13692
390.09        75.81503
390.54        75.48582
390.98        75.11761
391.43        74.75304
391.88        74.39647
392.33        74.06084
392.78        73.75795
393.23        73.49042
393.67        73.21793
394.12        73.00833
394.57        72.79102
395.02        72.54843
395.47        72.26438
395.91          71.978
396.36        71.73624
396.81        71.57158
397.26         71.4939
397.71        71.41047
398.15        71.18732
398.60        70.89592
399.05        70.38698
399.50        69.84379
399.95        69.80759
400.39        70.15179
400.84        70.13294
401.29        69.70724
401.74        69.19411
402.18        68.76187
402.63        68.69891
403.08        68.91125
403.53        68.81811
403.97        68.38026
404.42        68.00194
404.87        67.76736
405.32        67.62709
405.76        67.57706
406.21        67.67126
406.66        67.81541
407.11        67.72405
407.55        67.41167
408.00        67.25951
408.45        67.26597
408.90        66.82514
409.34        66.11965
409.79        66.10532
410.24         66.6456
410.68        66.81384
411.13        66.55718
411.58        66.36584
412.03        66.30667
412.47         66.2886
412.92        66.30489
413.37        66.38094
413.81        66.46009
414.26        66.51905
414.71        66.52764
415.15        66.50497
415.60        66.44027
416.05        66.37908
416.49        66.33842
416.94        66.30209
417.39        66.26115
417.83        66.19652
418.28        66.10802
418.73        65.99471
419.17        65.88956
419.62        65.85525
420.07        65.90558
420.51        66.01746
420.96        66.14352
421.41        66.19997
421.85        66.14796
422.30        65.94953
422.74        65.69167
423.19        65.83326
423.64        66.28587
424.08        66.49454
424.53        66.34357
424.98        66.33086
425.42        66.49052
425.87        66.30706
426.31        65.94205
426.76        66.24208
427.21        67.04854
427.65        67.20229
428.10        66.71144
428.54        66.60208
428.99        66.92139
429.44        67.11484
429.88        67.10514
430.33        67.01122
430.77        66.83351
431.22        66.84717
431.66        67.00592
432.11        67.08872
432.56        67.14186
433.00        67.11451
433.45        66.87519
433.89         67.0883
434.34        67.77632
434.78        66.58851
435.23        66.62525
435.67        66.86453
436.12        67.84694
436.57        67.99052
437.01        67.34225
437.46        67.02245
437.90        67.80096
438.35        67.46569
438.79        67.71925
439.24        67.63335
439.68        67.67609
440.13        67.73815
440.57        67.80384
441.02        67.94033
441.46        68.09599
441.91        68.07446
442.35        67.91868
442.80        68.31641
443.24        69.06791
443.69        69.21725
444.13        68.76019
444.58        68.48666
445.02        68.46178
445.47        68.51593
445.91        68.61043
446.36        68.68259
446.80        68.70984
447.24        68.78393
447.69        68.90677
448.13          69.091
448.58        69.13396
449.02        69.16805
449.47        69.14776
449.91        69.12374
450.36        69.12051
450.80        69.02448
451.25        68.89097
451.69        68.90379
452.13        69.01491
452.58        68.89398
453.02        68.55671
453.47        68.32978
453.91        68.21986
454.36        68.06946
454.80        67.89484
455.24        67.74112
455.69        67.61939
456.13        67.57401
456.58        67.68047
457.02        67.32034
457.46        67.71432
457.91        67.47429
458.35        67.14832
458.79        66.92307
459.24        66.86636
459.68        66.80795
460.13        66.76299
460.57        66.58987
461.01        66.26948
461.46        66.40585
461.90        66.12839
462.34        65.84239
462.79        65.85908
463.23        65.83031
463.68        65.86436
464.12        65.67487
464.56        65.35589
465.01         65.4852
465.45        65.83032
465.89        65.84176
466.34        65.59509
466.78        65.26459
467.22        64.88829
467.67        65.49573
468.11        65.10263
468.55        65.06978
468.99        64.82172
469.44        64.64043
469.88        64.52486
470.32        64.33384
470.77        64.11669
471.21        63.98276
471.65        63.94537
472.10        63.97228
472.54        64.02103
472.98        64.03614
473.42        64.00255
473.87        63.97945
474.31        63.94183
474.75         63.8873
475.20        63.82456
475.64        63.83242
476.08        63.91176
476.52        63.86734
476.97        63.64288
477.41        63.67178
477.85        63.97015
478.29        63.14355
478.74        62.89622
479.18        63.09928
479.62        63.27876
480.06         63.4981
480.50        63.60576
480.95        63.61619
481.39        63.41239
481.83        64.06398
482.27        63.87052
482.72        63.42194
483.16        63.38879
483.60        63.56299
484.04        63.52241
484.48        63.12434
484.93        62.86532
485.37        63.07783
485.81        63.69311
486.25          62.981
486.69        64.75315
487.14        64.88622
487.58        63.88239
488.02        63.51973
488.46         62.9369
488.90        62.66462
489.34        62.87599
489.79        62.31229
490.23        62.79852
490.67        62.79568
491.11        62.79832
491.55        62.63587
491.99        62.38689
492.43        62.25037
492.88        62.23993
493.32        62.30713
493.76        62.35636
494.20        62.37725
494.64        62.37376
495.08        61.99978
495.52        61.86986
495.96        61.92585
496.41        62.22366
496.85        62.29046
497.29        62.07089
497.73        62.00487
498.17        61.81404
498.61         61.9017
499.05        62.09143
499.49        61.96807
499.93        61.60349
500.37        61.47837
500.82        61.62937
501.26        61.65948
501.70        62.05247
502.14        61.73413
502.58         61.4435
503.02        61.24526
503.46        61.26809
503.90        61.25731
504.34        61.17725
504.78        61.15974
505.22        61.21233
505.66        61.24401
506.10        61.24754
506.54        61.32108
506.98        61.47623
507.42        61.05662
507.86        61.63065
508.30        60.99387
508.74        61.31519
509.18        61.16658
509.62        61.07668
510.06         61.0376
510.50        61.03245
510.94        60.98344
511.38        60.87988
511.82        60.81892
512.26        60.80096
512.70        60.77761
513.14        60.74894
513.58        60.73512
514.02        60.73404
514.46        60.73819
514.90        60.72776
515.34        60.70973
515.78        60.68744
516.22        60.63336
516.66        60.40829
517.10        60.62984
517.54         60.4117
517.98        60.44572
518.42        60.46671
518.86        60.49575
519.30        60.52669
519.74        60.52259
520.18        60.51028
520.62        60.60541
521.06        60.76324
521.50        60.75601
521.93        60.59592
522.37        60.49807
522.81        60.47893
523.25        60.42113
523.69        60.32573
524.13        60.24918
524.57        60.19737
525.01        60.15805
525.45        60.14338
525.89        60.17052
526.32        60.23404
526.76        60.32894
527.20        60.42569
527.64        60.47981
528.08        60.47998
528.52        60.44248
528.96        60.38499
529.40        60.32876
529.83        60.28352
530.27        60.27352
530.71        60.28668
531.15        60.30236
531.59         60.3143
532.03        60.32753
532.46        60.33955
532.90         60.3585
533.34        60.37718
533.78        60.39556
534.22        60.38805
534.66         60.3167
535.09        60.17457
535.53        59.99922
535.97        59.83082
536.41        59.74874
536.85        59.76837
537.28        59.86315
537.72         59.9875
538.16         60.0668
538.60        60.07595
539.04         60.0382
539.47        59.95905
539.91        59.89693
540.35        59.85147
540.79        59.81558
541.22         59.7866
541.66        59.77776
542.10        59.78233
542.54        59.79118
542.97         59.8032
543.41        59.84426
543.85        59.90871
544.29        60.00517
544.72        60.07202
545.16         60.0684
545.60        59.97727
546.04        59.74187
546.47        59.48612
546.91        59.54427
547.35        59.85633
547.79        60.09444
548.22        60.14682
548.66        59.99128
549.10        59.72149
549.53        59.65271
549.97        59.78957
550.41        59.80166
550.84        59.69523
551.28        59.66963
551.72        59.70916
552.15        59.77982
552.59        59.90882
553.03        59.65173
553.46        59.82228
553.90        59.75009
554.34        59.66171
554.77        59.56009
555.21        59.50935
555.65        59.48304
556.08        59.45507
556.52        59.81472
556.96         59.8366
557.39        59.91337
557.83        59.84792
558.27        59.68834
558.70        59.50661
559.14        59.40193
559.57         59.3953
560.01        59.56743
560.45        59.77804
560.88        59.67713
561.32        59.37653
561.75        59.13462
562.19        59.07616
562.63        59.34524
563.06        59.78436
563.50        59.76908
563.93        59.34893
564.37        59.22014
564.80        59.38586
565.24         59.5088
565.68        59.55262
566.11        59.56758
566.55        59.55738
566.98        59.61472
567.42        59.74184
567.85         59.5714
568.29        59.38828
568.72        59.52168
569.16        59.99323
569.60        60.17999
570.03        60.17204
570.47        60.21001
570.90        60.32786
571.34         60.1572
571.77        60.60621
572.21        60.26701
572.64        60.33039
573.08        60.18391
573.51        60.16586
573.95        60.65369
574.38        60.61382
574.82        61.22717
