SpectraSmart Spectrum 2.9.0.0
--------- Device Information -----------
Spectrum Name :  反射率_0
Saving Time :  2024/04/21 00:20:18
Spectro-Module Model Name : SE2030-DUVN
Spectro-Module Serial Number : OS361AC55029948
Wavelength Start : 200
Wavelength End : 1025
Wavelength Unit : Wavelength(nm)
Spectrum Unit : Reflectance(%)
-----------Spectrum Setting ------------
Integration Time : 20ms
Average : 10
Boxcar : 0
Background removal :  enabled
linearity correction :  enabled
SC :  disabled
Intensity correction :  disabled
DWT denoise :  enabled
savitzky-golay :  disabled
FFT :  disabled
Running average :  disabled
Kalman :  disabled
High pass :  disabled
---------------BEGIN--------------------
Wavelength(nm)             Reflectance(%)
200.29               0
200.75        -36.9602
201.21      -0.6082926
201.67        18.19491
202.13        24.06295
202.58        22.22078
203.04        15.39174
203.50        6.670495
203.96        4.224697
204.42        10.92961
204.88        22.64816
205.34        34.39451
205.80        39.68472
206.26        37.02636
206.72         28.9668
207.18        14.89269
207.64       -4.212836
208.10       -23.18101
208.55       -41.47935
209.01         -41.557
209.47       -9.508555
209.93         26.8915
210.39        54.23625
210.85        70.68996
211.31        76.70347
211.77        74.79887
212.23         64.9144
212.69        42.63583
213.14        4.143258
213.60       -58.47206
214.06       -220.0787
214.52       -549.2625
214.98       -215.9792
215.44       -36.62584
215.90        21.77488
216.36        39.65049
216.81        37.76938
217.27        16.47104
217.73        -85.9026
218.19        1133.913
218.65        478.8434
219.11       -984.5529
219.57       -26.44177
220.02        34.44249
220.48        46.58064
220.94        43.68887
221.40        26.54829
221.86       -17.94107
222.32       -52.83581
222.77       -18.92359
223.23        13.74102
223.69        30.91289
224.15         37.1115
224.61        37.60459
225.06        35.77808
225.52        32.38574
225.98        27.88363
226.44        22.84833
226.90        16.13306
227.36        10.97527
227.81        13.50815
228.27        21.18621
228.73        29.73397
229.19        35.26528
229.65        35.49764
230.10         31.1235
230.56        23.55193
231.02        14.25202
231.48        8.776003
231.93        10.72888
232.39        17.64449
232.85        24.97999
233.31        29.08758
233.77        30.23943
234.22        30.08936
234.68        29.01193
235.14        27.62551
235.60        26.60148
236.05        25.00265
236.51        23.16185
236.97        27.55049
237.43        38.47451
237.88        46.03621
238.34        46.70294
238.80        67.04179
239.26        59.73242
239.71        59.18666
240.17        53.30659
240.63        46.86671
241.08        43.06976
241.54        44.12484
242.00        50.57128
242.46        54.97512
242.91        55.60461
243.37        53.19314
243.83        49.70006
244.28         50.7976
244.74        58.18779
245.20        67.96514
245.66        74.30769
246.11        71.41005
246.57        59.18991
247.03          39.458
247.48        15.86175
247.94       -5.158663
248.40       -23.31346
248.85        -49.1345
249.31       -94.40907
249.77       -59.92672
250.22        31.36081
250.68         49.7802
251.14        52.25859
251.59        52.89335
252.05        53.88028
252.51        54.86018
252.96        55.26115
253.42        55.04358
253.88        54.54073
254.33        54.75262
254.79        58.21763
255.25        64.34254
255.70        70.41219
256.16        75.44902
256.62        78.69064
257.07        79.89515
257.53        80.12631
257.99        79.50729
258.44        78.08167
258.90        76.71933
259.35        74.90866
259.81        73.16775
260.27         71.2524
260.72         69.0589
261.18         67.1497
261.63        65.29807
262.09        63.77866
262.55        62.30865
263.00        60.75703
263.46        59.35682
263.91        58.03541
264.37        57.20001
264.83        56.72752
265.28        56.41832
265.74        56.16608
266.19        55.57871
266.65        54.68552
267.11        53.53556
267.56        52.22575
268.02        51.01479
268.47        49.91713
268.93         48.9102
269.38        47.90297
269.84        46.83208
270.30        45.66784
270.75        44.44566
271.21        43.26425
271.66        42.18785
272.12        41.26602
272.57         40.4527
273.03        39.69336
273.48         38.8456
273.94        37.92561
274.39        36.95162
274.85        36.05657
275.31        35.35964
275.76        34.86378
276.22        34.53856
276.67        34.27831
277.13        34.03168
277.58        33.71738
278.04        33.38749
278.49        32.97828
278.95        32.50112
279.40          31.918
279.86        31.28032
280.31        30.59776
280.77        29.98798
281.22         29.4408
281.68        29.00307
282.13        28.60317
282.59        28.21952
283.04        27.81782
283.50        27.43588
283.95        27.13338
284.41        27.03459
284.86         27.1324
285.32        27.39918
285.77        27.68108
286.22        27.78392
286.68        27.69813
287.13        27.44182
287.59        27.22306
288.04        27.24715
288.50        27.52622
288.95        28.08341
289.41        28.76632
289.86        28.88461
290.32        28.33819
290.77        29.03255
291.22        28.09201
291.68        28.21751
292.13        28.58235
292.59        29.20793
293.04        30.04202
293.50          31.072
293.95        32.28222
294.40        33.65797
294.86        35.14191
295.31        36.62484
295.77        38.07665
296.22        39.49069
296.68        40.92736
297.13        42.48335
297.58        44.19532
298.04        46.03179
298.49        47.94052
298.95        49.85986
299.40        51.74299
299.85        53.61861
300.31        55.48672
300.76        57.31335
301.21        59.11394
301.67        60.91953
302.12        62.74758
302.58        64.74805
303.03        66.90527
303.48        69.22982
303.94        71.64557
304.39        73.96937
304.84        76.15666
305.30        78.24522
305.75        80.25572
306.20        82.35133
306.66        84.55149
307.11        86.74159
307.57        88.82435
308.02        90.56184
308.47        91.96186
308.93        93.14769
309.38        94.23126
309.83        95.47452
310.29        96.95992
310.74        98.56003
311.19        100.1774
311.65        101.6321
312.10        102.8463
312.55        103.8807
313.00        104.7744
313.46        105.5928
313.91        106.3494
314.36        107.0393
314.82        107.6775
315.27        108.2791
315.72        108.8664
316.18        109.4486
316.63        110.0391
317.08        110.6535
317.53        111.2776
317.99        111.8837
318.44        112.4349
318.89        112.8596
319.35         113.139
319.80        113.3107
320.25        113.3866
320.70        113.3972
321.16        113.3624
321.61        113.3015
322.06        113.2783
322.51        113.3978
322.97        113.6618
323.42        114.0899
323.87        114.5635
324.32        114.8968
324.78        115.0217
325.23        115.0215
325.68        114.9962
326.13        115.1525
326.59        115.5122
327.04        116.0659
327.49          116.66
327.94        117.0844
328.39        117.2784
328.85        117.2462
329.30        117.2133
329.75        117.3071
330.20        117.5973
330.66        117.9864
331.11        118.4529
331.56        118.8083
332.01        119.0085
332.46        119.1118
332.92        119.1432
333.37        119.2954
333.82        119.5697
334.27        119.9425
334.72        120.3916
335.17         120.884
335.63        121.3637
336.08         121.889
336.53        122.4427
336.98         123.048
337.43        123.6914
337.88        124.3519
338.34         124.907
338.79        125.2342
339.24        125.2921
339.69        125.1428
340.14        124.9569
340.59        125.0029
341.05        125.3492
341.50        125.9357
341.95        126.6283
342.40        127.1998
342.85        127.5788
343.30        127.8282
343.75        128.0186
344.20        128.2708
344.66        128.6192
345.11        128.9801
345.56        129.3112
346.01        129.5566
346.46         129.709
346.91        129.7818
347.36         129.757
347.81        129.6954
348.26        129.6257
348.72        129.1991
349.17        129.1155
349.62        129.0345
350.07        129.1603
350.52        129.4316
350.97        129.6906
351.42        129.6663
351.87         129.293
352.32        128.6558
352.77        127.9289
353.22        127.3791
353.67         127.067
354.13        126.9263
354.58        126.7836
355.03        126.4211
355.48        125.7871
355.93        124.9598
356.38        124.0817
356.83        123.3588
357.28        122.8271
357.73         122.412
358.18        121.9735
358.63        121.2971
359.08        120.3494
359.53        119.2259
359.98        118.0702
360.43        117.0904
360.88        116.3314
361.33        115.7137
361.78        115.1536
362.23        114.5233
362.68        113.7776
363.13        112.9607
363.58        112.0721
364.03        111.1069
364.48        110.0778
364.93        108.9821
365.38        107.8811
365.83        106.8821
366.28        106.0106
366.73        105.2438
367.18        104.5206
367.63        103.7353
368.08         102.863
368.53        101.9408
368.98        101.0019
369.43        100.0866
369.88        99.20238
370.33        98.32719
370.78        97.45956
371.23        96.62076
371.68        95.82507
372.13        95.07564
372.58        94.37409
373.03         93.7021
373.48         93.0424
373.93        92.39656
374.38        91.73752
374.83        91.03435
375.28        90.29665
375.72        89.52293
376.17        88.79205
376.62        88.14177
377.07        87.56118
377.52          87.012
377.97        86.45726
378.42        85.85412
378.87        85.20689
379.32        84.55712
379.77        83.90081
380.22        83.20795
380.67         82.4762
381.11        81.71701
381.56        80.99793
382.01        80.46114
382.46        80.14104
382.91         79.9906
383.36        79.89935
383.81         79.6943
384.26        79.32375
384.71        78.82825
385.15        78.25755
385.60        77.75921
386.05        77.34476
386.50        76.97908
386.95        76.61768
387.40        76.20403
387.85        75.73928
388.29        75.21272
388.74        74.76716
389.19        74.39555
389.64        74.09125
390.09        73.82903
390.54        73.56869
390.98        73.23702
391.43        72.86617
391.88        72.47626
392.33        72.10742
392.78        71.79078
393.23        71.53122
393.67         71.3388
394.12        71.25825
394.57        71.04403
395.02        70.74266
395.47        70.68781
395.91        70.81724
396.36        70.69964
396.81        70.32755
397.26        69.96114
397.71         69.6264
398.15         69.2532
398.60        68.94038
399.05        68.57431
399.50        68.25333
399.95        68.25702
400.39        68.50201
400.84        68.60497
401.29        68.47607
401.74        68.06061
402.18        67.48878
402.63        67.20944
403.08        67.18716
403.53        66.91616
403.97        66.38758
404.42        65.95002
404.87        65.69553
405.32        65.59317
405.76        65.63787
406.21        65.91628
406.66        66.23363
407.11        66.15285
407.55        65.71456
408.00        65.24458
408.45        64.89804
408.90        64.77859
409.34        64.82491
409.79        64.71533
410.24        64.44361
410.68        64.32048
411.13        64.33885
411.58        64.27003
412.03        64.11977
412.47        64.04923
412.92        64.04524
413.37        64.06168
413.81        64.06339
414.26        64.05777
414.71        64.02089
415.15        63.97533
415.60        63.89911
416.05        63.80821
416.49        63.71472
416.94        63.61329
417.39        63.51725
417.83        63.43567
418.28        63.37405
418.73        63.32876
419.17        63.29368
419.62        63.26747
420.07        63.24776
420.51        63.22774
420.96        63.22489
421.41        63.22678
421.85        63.20225
422.30        63.16977
422.74        63.12106
423.19        63.15987
423.64        63.25564
424.08        63.38416
424.53        63.44555
424.98         63.3081
425.42        63.28022
425.87        62.96288
426.31        62.61071
426.76        62.73689
427.21        63.27629
427.65        63.57293
428.10        63.49884
428.54         63.5672
428.99        63.63272
429.44        63.50998
429.88        63.21095
430.33        63.14511
430.77        63.23158
431.22        63.28062
431.66        63.27249
432.11        63.33009
432.56        63.47494
433.00        63.56967
433.45         63.4606
433.89        63.36032
434.34        63.37946
434.78        62.66512
435.23        63.04826
435.67        62.99198
436.12         63.6326
436.57        63.68016
437.01        63.40489
437.46        63.21467
437.90        63.83963
438.35        63.36935
438.79        63.59158
439.24        63.56851
439.68        63.73324
440.13        63.67942
440.57         63.4527
441.02         63.5301
441.46        63.84352
441.91        63.88205
442.35        63.65792
442.80        63.93605
443.24        64.54923
443.69         64.6115
444.13        64.15723
444.58        63.97721
445.02        64.09081
445.47        64.18893
445.91        64.20187
446.36        64.18097
446.80        64.09782
447.24        63.92958
447.69        63.78084
448.13        63.89022
448.58        64.01551
449.02        64.37627
449.47        64.14585
449.91        64.12181
450.36        64.09682
450.80        63.87096
451.25        63.54528
451.69        63.44807
452.13        63.56456
452.58         63.5306
453.02        63.32923
453.47        63.21574
453.91        63.17715
454.36        63.07725
454.80        62.90254
455.24        62.73365
455.69        62.58655
456.13        62.39137
456.58        62.21817
457.02        62.23071
457.46        62.01639
457.91        62.32299
458.35        61.96363
458.79        61.93334
459.24        61.93787
459.68        61.81008
460.13        61.56997
460.57        61.67375
461.01        61.24603
461.46        61.27945
461.90         61.1771
462.34        60.85342
462.79        60.94897
463.23        60.73684
463.68        60.69156
464.12        60.70659
464.56        60.80105
465.01        60.83226
465.45        60.70969
465.89        60.67123
466.34        60.75141
466.78        60.62342
467.22        60.23056
467.67        60.68079
468.11        59.85681
468.55        59.79297
468.99        59.82589
469.44         59.7009
469.88        59.38832
470.32        59.14828
470.77        59.06727
471.21        58.75141
471.65        58.82585
472.10        58.81863
472.54        58.85176
472.98        58.85637
473.42        58.82553
473.87        58.71239
474.31        58.54541
474.75         58.6236
475.20        58.86776
475.64        58.86612
476.08        58.66327
476.52        58.54139
476.97        58.46004
477.41        58.54485
477.85        58.83933
478.29        58.13008
478.74        58.19055
479.18        58.56053
479.62        58.67009
480.06        58.81253
480.50        58.68465
480.95        58.56586
481.39        58.46011
481.83        58.20901
482.27        58.72301
482.72        58.06058
483.16        58.55513
483.60        58.54291
484.04        58.55296
484.48        58.23423
484.93        58.29486
485.37        57.79271
485.81        58.42643
486.25        58.28328
486.69        59.88002
487.14         60.3726
487.58        59.20982
488.02        58.20736
488.46         58.1929
488.90        57.79131
489.34        57.84246
489.79        57.29602
490.23        57.87654
490.67        57.91464
491.11        57.85188
491.55        57.69598
491.99        57.51364
492.43         57.4026
492.88        57.37506
493.32         57.4202
493.76        57.45552
494.20        57.47588
494.64        57.49161
495.08        57.13372
495.52        57.05045
495.96        57.07784
496.41        57.30561
496.85        57.26472
497.29        56.95414
497.73        56.97049
498.17        56.99161
498.61        57.04193
499.05        57.00495
499.49        56.83492
499.93         56.6296
500.37        56.80378
500.82         57.2405
501.26        57.31414
501.70        56.97998
502.14        56.72054
502.58        56.48304
503.02        56.30159
503.46        56.27004
503.90        56.33678
504.34        56.46624
504.78        56.54697
505.22        56.57138
505.66        56.48545
506.10        56.32738
506.54        56.35364
506.98        56.60187
507.42        56.11213
507.86        56.75832
508.30        56.19162
508.74        56.49096
509.18         56.3406
509.62        56.23114
510.06        56.18642
510.50        56.19111
510.94        56.16875
511.38        56.08668
511.82        56.00042
512.26        55.90711
512.70        55.77558
513.14         55.6439
513.58        55.58997
514.02          55.625
514.46        55.72373
514.90        55.82321
515.34        55.86726
515.78        55.84319
516.22        55.72492
516.66        55.41468
517.10         55.6408
517.54        55.42331
517.98        55.51673
518.42        55.59983
518.86        55.65769
519.30        55.67277
519.74        55.63285
520.18        55.56805
520.62        55.58608
521.06        55.65313
521.50        55.55719
521.93        55.34087
522.37        55.24979
522.81        55.30387
523.25        55.38654
523.69        55.45146
524.13        55.43487
524.57        55.31736
525.01        55.18982
525.45        55.14552
525.89        54.93447
526.32        55.20813
526.76        55.42046
527.20        55.66503
527.64        55.77876
528.08        55.73035
528.52        55.56339
528.96        55.35083
529.40        55.21517
529.83        55.18665
530.27        55.25605
530.71        55.36107
531.15        55.40134
531.59        55.35459
532.03        55.25911
532.46         55.1586
532.90        55.13069
533.34         55.1852
533.78        55.29106
534.22        55.39678
534.66        55.42777
535.09        55.36058
535.53        55.24069
535.97         55.0995
536.41        55.00028
536.85        54.96182
537.28        54.96574
537.72        54.99244
538.16        55.01101
538.60        55.01057
539.04        55.00486
539.47        54.98833
539.91        54.99617
540.35        55.01784
540.79        55.04614
541.22        55.07364
541.66        55.10475
542.10        55.13111
542.54        55.14731
542.97        55.14742
543.41        55.15078
543.85        55.15635
544.29        55.17478
544.72        55.17699
545.16         55.1676
545.60        55.13615
546.04        55.01738
546.47        54.88261
546.91        54.97483
547.35        55.22549
547.79        55.33965
548.22        55.25978
548.66        55.06894
549.10        54.85128
549.53        54.79744
549.97         54.9036
550.41        54.92136
550.84        54.85102
551.28        54.83811
551.72        54.86613
552.15        54.92101
552.59        55.03227
553.03        54.77753
553.46         54.9293
553.90        54.86028
554.34        54.79177
554.77        54.69401
555.21        54.63402
555.65        54.66428
556.08         54.7714
556.52        55.02401
556.96        55.30061
557.39         55.2717
557.83         54.9986
558.27        54.86346
558.70        54.90808
559.14        54.90333
559.57        54.84808
560.01        54.96331
560.45        55.17058
560.88        55.18406
561.32        55.05986
561.75        54.97838
562.19        54.99605
562.63        55.04058
563.06        55.08027
563.50        55.06237
563.93        54.97398
564.37        54.89687
564.80        54.83977
565.24        54.85174
565.68        54.91562
566.11         54.9631
566.55        55.00985
566.98        54.99419
567.42        55.18832
567.85         55.1048
568.29        54.93224
568.72        54.96307
569.16        55.22765
569.60         55.4088
570.03        55.42447
570.47        55.60185
570.90        55.90051
571.34        55.81583
571.77        55.91344
572.21        56.14542
572.64        55.83069
573.08        55.63812
573.51        55.85156
573.95        56.23086
574.38        56.18383
574.82        56.76976
