SpectraSmart Spectrum 2.9.0.0
--------- Device Information -----------
Spectrum Name :  反射率_0
Saving Time :  2024/04/21 00:26:15
Spectro-Module Model Name : SE2030-DUVN
Spectro-Module Serial Number : OS361AC55029948
Wavelength Start : 200
Wavelength End : 1025
Wavelength Unit : Wavelength(nm)
Spectrum Unit : Reflectance(%)
-----------Spectrum Setting ------------
Integration Time : 20ms
Average : 10
Boxcar : 0
Background removal :  enabled
linearity correction :  enabled
SC :  disabled
Intensity correction :  disabled
DWT denoise :  enabled
savitzky-golay :  disabled
FFT :  disabled
Running average :  disabled
Kalman :  disabled
High pass :  disabled
---------------BEGIN--------------------
Wavelength(nm)             Reflectance(%)
200.29               0
200.75        9.636168
201.21        28.49991
201.67        37.75572
202.13         41.3452
202.58        41.87344
203.04        41.14404
203.50        39.38589
203.96        37.22656
204.42        35.27312
204.88         32.8469
205.34        31.64724
205.80        34.01448
206.26        41.08857
206.72        55.11401
207.18        71.51961
207.64        77.19373
208.10         66.5517
208.55        43.77036
209.01        24.67417
209.47          31.161
209.93        49.56112
210.39        65.87754
210.85        77.06385
211.31        83.03331
211.77        85.70036
212.23        86.87062
212.69         86.3028
213.14        83.22691
213.60        71.69464
214.06        25.47563
214.52       -112.0648
214.98       -29.74584
215.44        37.94321
215.90        63.04992
216.36        71.31497
216.81        70.36473
217.27        60.15031
217.73        12.01461
218.19        592.0751
218.65        290.4935
219.11       -500.3091
219.57        21.23203
220.02        54.64151
220.48        61.01632
220.94        58.45545
221.40        46.66041
221.86          15.531
222.32       -13.41148
222.77        4.896515
223.23        25.64198
223.69        36.72869
224.15        39.92017
224.61        38.65623
225.06        35.56136
225.52        31.29946
225.98           26.44
226.44        21.66237
226.90        15.84334
227.36         12.2146
227.81        16.38606
228.27        25.15628
228.73         34.1278
229.19        39.79236
229.65        40.25311
230.10         36.2367
230.56        29.06291
231.02        19.80344
231.48        13.21152
231.93        12.99899
232.39         17.5669
232.85        23.16694
233.31        26.49268
233.77        27.65823
234.22        28.16742
234.68         28.1851
235.14        27.90987
235.60        27.74982
236.05        26.73943
236.51        25.30051
236.97         29.9257
237.43        40.90218
237.88        48.70591
238.34        49.63168
238.80        68.19556
239.26        58.81627
239.71        54.31613
240.17         43.2007
240.63        33.81334
241.08        32.95205
241.54        44.60194
242.00        64.77578
242.46        77.84072
242.91        79.62984
243.37        69.95362
243.83        51.46395
244.28        39.14816
244.74        42.86042
245.20        55.66771
245.66         69.0479
246.11        74.62919
246.57        71.60387
247.03        63.39939
247.48        52.51817
247.94        43.11663
248.40        36.36693
248.85        27.72528
249.31        19.70082
249.77        67.74391
250.22        97.97377
250.68        94.99187
251.14        90.61987
251.59        87.63443
252.05        85.14456
252.51         81.4103
252.96        74.56877
253.42        64.70215
253.88        54.83343
254.33        47.24096
254.79        45.76368
255.25        49.79399
255.70        55.45577
256.16        60.98774
256.62        64.53922
257.07        65.12825
257.53         64.1247
257.99        62.23417
258.44        60.12216
258.90        59.08115
259.35        58.46798
259.81        58.19654
260.27        57.67695
260.72        56.43965
261.18        54.95273
261.63        53.25773
262.09        51.70634
262.55        50.18478
263.00        48.61688
263.46        47.17159
263.91        45.78439
264.37         44.7913
264.83        44.11046
265.28        43.59959
265.74        43.20117
266.19        42.64835
266.65        41.94953
267.11        41.12238
267.56        40.18472
268.02        39.25536
268.47        38.32794
268.93        37.41558
269.38        36.49343
269.84        35.58932
270.30        34.70082
270.75        33.82935
271.21        33.02707
271.66         32.3038
272.12        31.67708
272.57        31.11201
273.03        30.56954
273.48        29.95129
273.94        29.26958
274.39        28.54034
274.85         27.8409
275.31        27.22216
275.76         26.6985
276.22        26.27761
276.67        25.94961
277.13        25.77119
277.58        25.68562
278.04        25.68098
278.49        25.64241
278.95        25.48276
279.40        25.15078
279.86        24.72174
280.31        24.21754
280.77        23.75368
281.22        23.33594
281.68        22.99476
282.13        22.69862
282.59        22.47469
283.04        22.29138
283.50         22.1535
283.95        22.06538
284.41        22.05675
284.86        22.10858
285.32         22.2235
285.77        22.30217
286.22        22.21692
286.68        21.98426
287.13        21.62245
287.59         21.3246
288.04        21.27659
288.50        21.48275
288.95        21.99206
289.41        22.67882
289.86        22.86452
290.32        22.42749
290.77        23.38373
291.22         22.5459
291.68        22.72001
292.13        22.98924
292.59        23.40707
293.04        23.94855
293.50         24.6501
293.95        25.52444
294.40         26.5444
294.86        27.67997
295.31        28.86471
295.77        30.07413
296.22        31.30381
296.68        32.56808
297.13        33.88726
297.58        35.28593
298.04        36.76271
298.49        38.32076
298.95        39.98561
299.40        41.73288
299.85        43.55227
300.31        45.41022
300.76        47.23156
301.21        49.00747
301.67        50.77938
302.12        52.54937
302.58        54.42751
303.03        56.40863
303.48        58.51266
303.94        60.72058
304.39        62.94687
304.84        65.16714
305.30        67.39825
305.75        69.60815
306.20        71.86105
306.66        74.15301
307.11        76.40162
307.57         78.5667
308.02         80.5154
308.47        82.25891
308.93         83.8768
309.38        85.39646
309.83        86.92837
310.29        88.54915
310.74          90.154
311.19        91.72964
311.65        93.21743
312.10        94.57785
312.55        95.84229
313.00         96.9943
313.46        98.00938
313.91        98.88095
314.36        99.63226
314.82        100.3408
315.27        101.1187
315.72        102.0017
316.18        102.9619
316.63        103.9291
317.08         104.787
317.53        105.4922
317.99        106.0615
318.44          106.54
318.89        106.9884
319.35        107.4263
319.80        107.8508
320.25        108.2197
320.70        108.4748
321.16        108.6056
321.61        108.6556
322.06        108.7157
322.51        108.9335
322.97        109.3229
323.42        109.8837
323.87        110.4743
324.32        110.8733
324.78          111.01
325.23         110.991
325.68         110.945
326.13        111.1203
326.59        111.5525
327.04        112.2135
327.49         112.954
327.94        113.5614
328.39        113.9627
328.85        114.1874
329.30         114.361
329.75        114.5525
330.20         114.803
330.66        115.0394
331.11        115.3317
331.56        115.6537
332.01        116.0068
332.46        116.4127
332.92        116.8019
333.37        117.1971
333.82        117.5452
334.27        117.8601
334.72        118.2045
335.17        118.6884
335.63        119.2983
336.08         120.056
336.53        120.8523
336.98        121.5596
337.43        122.1325
337.88        122.6007
338.34         122.974
338.79        123.3408
339.24        123.7055
339.69        124.0574
340.14        124.4107
340.59        124.7955
341.05        125.2175
341.50        125.6801
341.95        126.1774
342.40        126.6922
342.85        127.2142
343.30        127.7528
343.75        128.2602
344.20        128.6698
344.66        128.9808
345.11        129.1771
345.56        129.3625
346.01        129.7047
346.46        130.2306
346.91        130.8609
347.36        131.4138
347.81        131.7085
348.26        131.7264
348.72        131.1869
349.17        130.9473
349.62        130.8125
350.07        131.0526
350.52        131.5321
350.97        132.0722
351.42        132.3681
351.87        132.3156
352.32        132.0132
352.77         131.554
353.22        131.0727
353.67        130.6322
354.13        130.2272
354.58        129.8178
355.03        129.4056
355.48        128.9917
355.93        128.5744
356.38        128.2224
356.83        128.0281
357.28        127.9714
357.73        128.0001
358.18        127.9143
358.63        127.4055
359.08         126.431
359.53        125.1075
359.98        123.6883
360.43        122.5612
360.88        121.8189
361.33        121.3478
361.78        120.9844
362.23        120.4587
362.68        119.6969
363.13        118.8013
363.58         117.843
364.03        116.9261
364.48        116.0858
364.93        115.2635
365.38        114.4706
365.83        113.7439
366.28        113.0704
366.73        112.4365
367.18        111.7651
367.63        110.9263
368.08        109.9077
368.53        108.7738
368.98        107.5977
369.43        106.4791
369.88        105.4543
370.33        104.4953
370.78        103.6307
371.23        102.9226
371.68        102.3726
372.13        101.9518
372.58        101.5777
373.03        101.1039
373.48        100.4832
373.93        99.75602
374.38        98.93498
374.83        98.06654
375.28        97.19907
375.72        96.30886
376.17        95.52067
376.62        94.92798
377.07        94.51852
377.52        94.24449
377.97        93.97138
378.42         93.4893
378.87        92.77765
379.32        91.89632
379.77        90.95098
380.22        90.18163
380.67        89.63621
381.11         88.8364
381.56        88.49148
382.01        88.00443
382.46        87.58701
382.91        87.24056
383.36        86.90351
383.81        86.45663
384.26         85.8757
384.71        85.19404
385.15        84.50117
385.60        84.01289
386.05        83.73789
386.50        83.61338
386.95        83.51425
387.40        83.24958
387.85         82.7877
388.29         82.1556
388.74        81.56006
389.19        81.06834
389.64        80.69695
390.09        80.39633
390.54        80.12632
390.98        79.81611
391.43        79.49579
391.88        79.17844
392.33        78.88184
392.78        78.62834
393.23        78.42028
393.67        78.19199
394.12         78.0094
394.57        77.82213
395.02        77.59584
395.47         77.2464
395.91         76.8394
396.36        76.52504
396.81        76.34976
397.26        76.28259
397.71        76.20422
398.15        75.94209
398.60        75.56962
399.05         74.9829
399.50        74.40057
399.95        74.34245
400.39        74.73261
400.84         74.9617
401.29        74.88627
401.74        74.57175
402.18        74.09246
402.63        73.68419
403.08        73.40678
403.53        73.07685
403.97          72.733
404.42        72.60504
404.87        72.62827
405.32        72.59872
405.76        72.46904
406.21        72.28241
406.66        72.09798
407.11        72.02031
407.55        72.04485
408.00        72.12901
408.45        72.18243
408.90        71.76441
409.34         71.0461
409.79        70.88051
410.24        71.20325
410.68         71.2386
411.13        70.96437
411.58        70.84455
412.03        70.88738
412.47        70.88763
412.92        70.81023
413.37          70.728
413.81        70.65619
414.26        70.67312
414.71        70.76563
415.15        70.91895
415.60        71.04904
416.05        71.08084
416.49        70.99654
416.94        70.82029
417.39        70.61035
417.83        70.44592
418.28        70.35706
418.73        70.31832
419.17        70.31731
419.62        70.34229
420.07        70.37769
420.51        70.41676
420.96        70.46642
421.41        70.47677
421.85        70.41373
422.30        70.34988
422.74        70.27074
423.19        70.23116
423.64        70.23827
424.08        70.38667
424.53        70.57132
424.98        70.68588
425.42        70.72385
425.87        70.63246
426.31        70.50658
426.76        70.65817
427.21        71.02364
427.65        71.14405
428.10        70.97319
428.54        70.89669
428.99        70.96367
429.44        70.94918
429.88        70.84908
430.33        70.84684
430.77        70.90002
431.22        71.04356
431.66         71.2298
432.11        71.51801
432.56        71.86668
433.00         71.7569
433.45        71.07378
433.89        71.00086
434.34        71.71237
434.78        70.63728
435.23         70.8773
435.67         71.6469
436.12        71.79613
436.57        71.98222
437.01        71.73647
437.46        71.61211
437.90        72.33305
438.35        72.23235
438.79        72.60844
439.24        72.57853
439.68        72.48795
440.13        72.25441
440.57        71.99048
441.02         72.0105
441.46         72.2676
441.91        72.47536
442.35        72.51219
442.80        72.76658
443.24        73.13926
443.69        73.16677
444.13        72.86227
444.58        72.76259
445.02        72.93248
445.47        72.66225
445.91         73.0397
446.36        73.06828
446.80        73.06397
447.24        72.99515
447.69        72.92327
448.13        73.11551
448.58        73.30185
449.02        73.28571
449.47        73.05954
449.91        73.01975
450.36        73.20207
450.80        73.29424
451.25        73.30498
451.69        73.43204
452.13        73.60999
452.58        73.49074
453.02        73.11546
453.47        72.87326
453.91         72.7787
454.36        72.65439
454.80        72.54251
455.24        72.43044
455.69        72.28934
456.13         72.4149
456.58        72.87693
457.02        72.08101
457.46        72.29679
457.91        72.42416
458.35         71.9435
458.79        71.81145
459.24        71.72787
459.68        71.63557
460.13        71.54525
460.57        71.44624
461.01        71.36792
461.46        71.04469
461.90        71.43489
462.34        70.68164
462.79        70.94412
463.23        70.85588
463.68        71.26274
464.12         71.1032
464.56        70.59402
465.01        70.62206
465.45        71.01758
465.89        71.05447
466.34        70.75566
466.78        70.63943
467.22        70.73512
467.67        70.52442
468.11        70.15553
468.55        70.11758
468.99         70.3722
469.44        70.33961
469.88        69.97884
470.32         69.8227
470.77        69.47974
471.21         69.3119
471.65        69.20891
472.10         69.1938
472.54        69.21104
472.98         69.2186
473.42        69.20652
473.87        69.14839
474.31        69.04865
474.75        69.12186
475.20         69.3106
475.64        69.30689
476.08        69.11503
476.52         69.0162
476.97        69.00131
477.41        68.94263
477.85        68.83044
478.29        68.78627
478.74        68.55935
479.18        68.73571
479.62        68.75574
480.06        68.83491
480.50        68.85829
480.95        68.83062
481.39        68.69643
481.83         68.8218
482.27        69.38954
482.72        68.58889
483.16        69.09169
483.60        69.34386
484.04        69.30887
484.48        68.86804
484.93        68.52176
485.37        68.90298
485.81        69.42032
486.25        68.34171
486.69        70.24917
487.14        70.34675
487.58        69.39518
488.02        68.76109
488.46        68.39749
488.90        68.94038
489.34        68.49934
489.79        67.90758
490.23        68.49334
490.67        68.54645
491.11        68.58392
491.55        68.46503
491.99         68.2743
492.43        68.18526
492.88        68.19995
493.32        68.24612
493.76         68.2578
494.20        68.26529
494.64        68.27473
495.08        68.03366
495.52         68.0093
495.96        67.95733
496.41        67.95863
496.85        67.92065
497.29        67.79662
497.73        67.76202
498.17        67.49152
498.61        67.57063
499.05        67.79312
499.49        67.62812
499.93         67.2073
500.37        67.10902
500.82        67.33525
501.26        67.75159
501.70        68.17597
502.14        67.79661
502.58        67.29684
503.02         67.0315
503.46        67.16203
503.90        67.26927
504.34        67.25658
504.78        67.24286
505.22        67.23526
505.66        67.08448
506.10        66.84399
506.54        66.94392
506.98        67.41068
507.42        66.85375
507.86        67.48058
508.30        67.12128
508.74        67.36822
509.18         67.2878
509.62        67.18716
510.06        67.13407
510.50        67.10558
510.94         67.0163
511.38        66.86315
511.82        66.74433
512.26        66.66582
512.70        66.58142
513.14        66.50845
513.58        66.49065
514.02        66.52937
514.46         66.6137
514.90        66.69469
515.34        66.72197
515.78        66.68402
516.22        66.58474
516.66        66.31453
517.10        66.49068
517.54        66.36239
517.98        66.50067
518.42        66.62443
518.86        66.66365
519.30        66.59795
519.74        66.42343
520.18        66.23331
520.62        66.24183
521.06        66.42916
521.50         66.5468
521.93        66.54568
522.37        66.53078
522.81        66.49177
523.25         66.3518
523.69        66.15077
524.13        66.00108
524.57        65.92747
525.01        65.89785
525.45        65.91304
525.89        65.97479
526.32        66.06986
526.76        66.19957
527.20        66.33002
527.64        66.41143
528.08        66.43054
528.52        66.39051
528.96        66.31322
529.40        66.25585
529.83        66.21729
530.27        66.16315
530.71        66.09552
531.15        66.06796
531.59        66.08168
532.03        66.10683
532.46        66.12973
532.90        66.15691
533.34        66.17702
533.78        66.18941
534.22        66.17999
534.66        66.12934
535.09        66.02967
535.53        65.91064
535.97        65.79305
536.41        65.72776
536.85        65.72556
537.28        65.77342
537.72        65.83978
538.16        65.87301
538.60        65.85778
539.04        65.81049
539.47        65.74039
539.91        65.71644
540.35        65.73264
540.79        65.77769
541.22        65.82646
541.66        65.85534
542.10        65.85157
542.54        65.81988
542.97        65.77881
543.41        65.79163
543.85        65.85943
544.29         65.9728
544.72        66.07085
545.16        66.11483
545.60        66.08433
546.04        65.93355
546.47        65.74573
546.91        65.79754
547.35        66.03294
547.79        66.10873
548.22        65.98626
548.66          65.872
549.10         65.8047
549.53        65.77161
549.97        65.77169
550.41        65.72217
550.84        65.62266
551.28        65.54763
551.72        65.51257
552.15        65.50213
552.59        65.53159
553.03        65.57671
553.46        65.63934
553.90         65.6621
554.34        65.63792
554.77          65.574
555.21        65.51437
555.65        65.51761
556.08        65.58489
556.52         65.6899
556.96        65.79061
557.39        65.89436
557.83        65.97518
558.27        65.89733
558.70        65.71078
559.14        65.63086
559.57        65.66236
560.01        65.74419
560.45        65.81596
560.88        65.78813
561.32        65.70791
561.75        65.61358
562.19        65.56257
562.63        65.54457
563.06         65.5328
563.50        65.46332
563.93        65.33434
564.37        65.23901
564.80        65.18708
565.24        65.26472
565.68        65.42709
566.11        65.52387
566.55        65.55934
566.98        65.59241
567.42        65.65362
567.85        65.70819
568.29        65.80727
568.72        65.89502
569.16        65.97941
569.60        66.16125
570.03        66.20254
570.47        66.22982
570.90         66.1251
571.34        66.37788
571.77        66.52274
572.21        66.48161
572.64        66.62391
573.08        66.82588
573.51        66.46758
573.95        66.56722
574.38        66.57101
574.82        67.13045
