SpectraSmart Spectrum 2.9.0.0
--------- Device Information -----------
Spectrum Name :  反射率_0
Saving Time :  2024/04/21 00:23:37
Spectro-Module Model Name : SE2030-DUVN
Spectro-Module Serial Number : OS361AC55029948
Wavelength Start : 200
Wavelength End : 1025
Wavelength Unit : Wavelength(nm)
Spectrum Unit : Reflectance(%)
-----------Spectrum Setting ------------
Integration Time : 20ms
Average : 10
Boxcar : 0
Background removal :  enabled
linearity correction :  enabled
SC :  disabled
Intensity correction :  disabled
DWT denoise :  enabled
savitzky-golay :  disabled
FFT :  disabled
Running average :  disabled
Kalman :  disabled
High pass :  disabled
---------------BEGIN--------------------
Wavelength(nm)             Reflectance(%)
200.29               0
200.75        58.60473
201.21        39.76051
201.67        26.98744
202.13        20.23089
202.58        16.48283
203.04        14.74395
203.50        14.79281
203.96        16.39643
204.42        18.87678
204.88        21.13915
205.34        24.40265
205.80        30.84942
206.26        41.86602
206.72        59.39809
207.18        76.71587
207.64        77.20708
208.10        54.22265
208.55        13.31062
209.01        -20.0959
209.47       -11.78073
209.93        16.25876
210.39        42.06718
210.85        58.94171
211.31        64.80653
211.77        61.73361
212.23        50.06448
212.69        25.59308
213.14       -13.33829
213.60        -68.1232
214.06       -194.7511
214.52       -407.1462
214.98       -122.8773
215.44        1.736238
215.90        38.15091
216.36        47.68237
216.81        43.66924
217.27        24.24859
217.73       -64.45807
218.19        992.7615
218.65        433.9966
219.11       -919.2164
219.57       -28.64551
220.02        29.11562
220.48        41.76867
220.94        41.60664
221.40         31.2293
221.86        3.585946
222.32        -13.6874
222.77        12.68425
223.23        34.59613
223.69        45.26058
224.15        48.59864
224.61        48.00617
225.06        45.41091
225.52        41.46576
225.98        36.64706
226.44        31.52181
226.90        25.44821
227.36         20.6076
227.81        21.36597
228.27        26.18309
228.73        31.98417
229.19        36.05769
229.65        36.77715
230.10         34.6921
230.56        31.29762
231.02         27.0833
231.48         23.6786
231.93        22.85423
232.39        24.34082
232.85        26.64831
233.31         28.3092
233.77        29.35795
234.22        30.62022
234.68        31.69957
235.14        31.76108
235.60        30.85461
236.05        28.52711
236.51        25.47771
236.97        28.78999
237.43        39.20606
237.88        46.60675
238.34         47.3468
238.80        67.52786
239.26        60.40274
239.71        60.05153
240.17        54.55923
240.63        48.37134
241.08        44.42937
241.54        44.71336
242.00        50.22574
242.46        54.52329
242.91        56.41616
243.37        57.25188
243.83        58.71736
244.28         63.8884
244.74        72.25702
245.20        80.33228
245.66         84.9942
246.11         83.6838
246.57        76.61036
247.03        64.81045
247.48        49.55037
247.94        32.58212
248.40        10.68429
248.85        -35.2495
249.31       -167.5813
249.77       -266.9514
250.22        -63.9361
250.68        19.98801
251.14        47.22679
251.59        55.95099
252.05        57.86358
252.51        55.72655
252.96         49.6578
253.42        43.27018
253.88        40.70761
254.33         41.9695
254.79        46.96389
255.25        53.15691
255.70        58.44575
256.16        62.63433
256.62        65.98778
257.07        68.81779
257.53        71.46113
257.99        73.46128
258.44        73.95264
258.90        72.94577
259.35        70.34483
259.81        67.33549
260.27        64.43601
260.72        62.30397
261.18        61.27164
261.63        60.62565
262.09        60.20423
262.55        59.39286
263.00        58.09405
263.46        56.72667
263.91        55.35425
264.37        54.52044
264.83        54.13258
265.28        53.92422
265.74        53.76535
266.19        53.25701
266.65        52.41908
267.11         51.3243
267.56        50.04457
268.02        48.79082
268.47        47.57793
268.93        46.39407
269.38        45.21996
269.84        44.09692
270.30        43.02268
270.75         42.0228
271.21        41.09662
271.66         40.1544
272.12        39.21809
272.57        38.27509
273.03        37.41631
273.48        36.72578
273.94        36.22159
274.39        35.81467
274.85         35.4189
275.31        34.83192
275.76        34.02445
276.22        33.12657
276.67        32.23009
277.13        31.55295
277.58        31.08831
278.04        30.78804
278.49        30.55142
278.95        30.33165
279.40        30.04435
279.86        29.74075
280.31        29.34972
280.77        28.86089
281.22        28.25379
281.68        27.61566
282.13        26.96445
282.59        26.41355
283.04        25.96341
283.50        25.60993
283.95        25.37491
284.41        25.32003
284.86        25.41733
285.32         25.6552
285.77        25.88899
286.22        25.92985
286.68        25.77128
287.13        25.43157
287.59        25.10779
288.04        24.99544
288.50        25.10925
288.95        25.48662
289.41        26.00964
289.86        26.02418
290.32        25.42348
290.77        26.16237
291.22        25.18795
291.68        25.22047
292.13        25.37954
292.59        25.71033
293.04         26.1906
293.50        26.86214
293.95         27.7244
294.40        28.73439
294.86        29.83044
295.31        30.89872
295.77        31.90704
296.22        32.87207
296.68        33.82302
297.13        34.80313
297.58        35.85086
298.04        36.95655
298.49        38.15936
298.95        39.54207
299.40        41.08271
299.85        42.75298
300.31        44.44666
300.76        45.97392
301.21         47.3124
301.67        48.55127
302.12        49.76979
302.58        51.19036
303.03        52.83505
303.48        54.68036
303.94        56.67762
304.39        58.69849
304.84        60.70335
305.30        62.73516
305.75        64.74792
306.20        66.77338
306.66        68.81437
307.11        70.80484
307.57        72.76601
308.02        74.66814
308.47        76.53044
308.93        78.39832
309.38        80.22429
309.83        81.98417
310.29        83.74101
310.74        85.41973
311.19        87.06889
311.65        88.72244
312.10        90.36803
312.55        92.00272
313.00        93.57811
313.46        95.02134
313.91        96.30152
314.36        97.44592
314.82        98.53078
315.27         99.6716
315.72        100.8991
316.18        102.1714
316.63        103.4051
317.08        104.4673
317.53        105.3156
317.99        105.9855
318.44         106.533
318.89        107.0336
319.35        107.5202
319.80        107.9883
320.25        108.4293
320.70        108.8358
321.16        109.1965
321.61        109.5342
322.06        109.8714
322.51        110.2436
322.97        110.6428
323.42        111.1086
323.87        111.5588
324.32        111.8771
324.78        112.0271
325.23        112.0771
325.68        112.1496
326.13         112.481
326.59         113.088
327.04        113.9523
327.49        114.8564
327.94        115.4704
328.39        115.7028
328.85        115.6116
329.30        115.4406
329.75        115.4613
330.20        115.7723
330.66        116.2531
331.11        116.8622
331.56        117.3756
332.01        117.7322
332.46        118.0029
332.92        118.2037
333.37        118.5094
333.82        118.9084
334.27         119.361
334.72        119.8506
335.17        120.3614
335.63        120.8486
336.08        121.3885
336.53         121.938
336.98        122.4751
337.43        122.9892
337.88        123.4708
338.34        123.9127
338.79         124.374
339.24        124.8387
339.69        125.3134
340.14        125.7655
340.59         126.148
341.05        126.4622
341.50        126.7282
341.95        127.0365
342.40        127.5356
342.85        128.2415
343.30        129.1005
343.75        129.9447
344.20        130.5146
344.66        130.7601
345.11         130.732
345.56        130.6044
346.01        130.6584
346.46        130.9685
346.91         131.423
347.36        131.8529
347.81         132.099
348.26        132.1324
348.72        131.6622
349.17        131.5024
349.62        131.3594
350.07        131.4862
350.52        131.7725
350.97        132.0834
351.42         132.191
351.87        132.0243
352.32        131.6698
352.77         131.206
353.22        130.7473
353.67        130.3365
354.13        129.9513
354.58        129.5663
355.03        129.2019
355.48        128.8555
355.93        128.5336
356.38        128.2101
356.83        127.8339
357.28        127.3828
357.73        126.8508
358.18        126.2537
358.63        125.6304
359.08        124.9975
359.53        124.3564
359.98        123.6754
360.43        122.8984
360.88          122.02
361.33        121.0612
361.78        120.1019
362.23        119.2673
362.68        118.5841
363.13        118.0194
363.58        117.4645
364.03        116.7448
364.48        115.8199
364.93        114.7363
365.38        113.6158
365.83        112.6606
366.28        111.9143
366.73        111.3066
367.18        110.7166
367.63        109.9526
368.08        108.9787
368.53        107.8852
368.98        106.7596
369.43        105.7161
369.88        104.7952
370.33        103.9588
370.78         103.218
371.23          102.61
371.68        102.1284
372.13        101.7475
372.58        101.4085
373.03         101.006
373.48        100.4951
373.93        99.89542
374.38        99.18546
374.83        98.35462
375.28        97.44306
375.72        96.46266
376.17        95.55965
376.62        94.85351
377.07        94.35146
377.52        94.00217
377.97        93.71458
378.42        93.34267
378.87        92.84818
379.32        92.27999
379.77        91.67168
380.22        91.06002
380.67        90.44981
381.11        89.82486
381.56        89.18836
382.01        88.58382
382.46        88.03779
382.91        87.55997
383.36         87.1284
383.81        86.69614
384.26        86.24734
384.71         85.7881
385.15        85.33172
385.60        84.96774
386.05        84.67902
386.50        84.44382
386.95        84.19996
387.40        83.86261
387.85        83.42768
388.29        82.87803
388.74        82.39459
389.19        82.01289
389.64        81.73226
390.09        81.51255
390.54        81.29479
390.98        80.96507
391.43        80.55769
391.88        80.12634
392.33        79.72091
392.78        79.35648
393.23        79.12903
393.67        78.90428
394.12        78.79075
394.57        78.73333
395.02        78.70584
395.47        78.68063
395.91        78.61674
396.36        78.42696
396.81        78.12875
397.26        77.79887
397.71        77.42782
398.15        76.99534
398.60        76.60844
399.05        76.08056
399.50        75.60696
399.95        75.69105
400.39        76.20228
400.84         76.5484
401.29        76.53632
401.74        75.96694
402.18        75.05314
402.63        74.63688
403.08        74.72014
403.53        74.47633
403.97        73.90438
404.42        73.60723
404.87        73.59309
405.32        73.57425
405.76        73.51337
406.21        73.54828
406.66        73.61224
407.11         73.4838
407.55        73.20774
408.00        73.04951
408.45        73.03065
408.90        72.80589
409.34        72.43731
409.79         72.3781
410.24        72.55695
410.68        72.56179
411.13        72.36942
411.58         72.1802
412.03        72.04072
412.47        71.97152
412.92        71.96282
413.37        72.01112
413.81        72.06718
414.26        72.11912
414.71        72.13509
415.15        72.14163
415.60        72.09814
416.05         72.0039
416.49        71.86891
416.94        71.68764
417.39        71.51089
417.83        71.40788
418.28        71.39332
418.73        71.44463
419.17        71.50542
419.62        71.49136
420.07        71.38554
420.51        71.21037
420.96        71.04037
421.41        70.95451
421.85        70.94414
422.30        70.97282
422.74        70.98976
423.19        71.15253
423.64        71.37908
424.08        71.42176
424.53        71.24366
424.98        71.20171
425.42        71.34116
425.87        71.35397
426.31         71.2855
426.76        71.49728
427.21        71.89639
427.65        71.97364
428.10        71.70375
428.54        71.52547
428.99        71.49844
429.44        71.41074
429.88         71.2349
430.33        71.07278
430.77        70.91348
431.22        70.91262
431.66        71.04205
432.11        71.27559
432.56        71.59755
433.00        71.67197
433.45        71.27056
433.89        71.22923
434.34        71.73927
434.78        70.40911
435.23        70.28568
435.67        71.40868
436.12        71.82758
436.57        72.11282
437.01         71.5285
437.46        71.52663
437.90        72.27791
438.35        71.82973
438.79        72.15123
439.24        71.97057
439.68        71.88877
440.13        71.82268
440.57        71.76635
441.02          71.754
441.46        71.77686
441.91        71.69582
442.35        71.54794
442.80        72.09649
443.24        73.04185
443.69        73.05379
444.13        72.22159
444.58        71.78886
445.02        71.86825
445.47        72.14665
445.91        72.48281
446.36        72.62917
446.80        72.52252
447.24        72.41128
447.69        72.38702
448.13        72.25568
448.58        72.34177
449.02        72.35436
449.47        72.36188
449.91        72.34658
450.36        72.32035
450.80         72.1861
451.25        72.00645
451.69         71.9869
452.13        72.08554
452.58        71.95567
453.02        71.62029
453.47        71.43455
453.91        71.39833
454.36        71.33194
454.80        71.24964
455.24         71.1657
455.69         71.0779
456.13        71.12402
456.58        71.33411
457.02        70.82343
457.46         70.9103
457.91        70.68222
458.35         70.6513
458.79        70.55911
459.24        70.47457
459.68         70.4481
460.13         70.4715
460.57        70.40762
461.01        70.25858
461.46        70.23235
461.90        69.82497
462.34        69.98011
462.79        69.63978
463.23        69.69463
463.68        69.79201
464.12         69.5308
464.56        69.04868
465.01        69.21062
465.45        69.77702
465.89        69.87305
466.34         69.5319
466.78        69.23413
467.22        69.04588
467.67        69.14111
468.11        68.71371
468.55        68.78094
468.99        68.99324
469.44        69.00007
469.88        68.76351
470.32        68.45348
470.77        68.17015
471.21        67.98914
471.65        67.94815
472.10        68.02688
472.54         68.1385
472.98        68.19736
473.42        68.19616
473.87        68.08376
474.31        67.88233
474.75        67.99351
475.20        68.36724
475.64        68.08231
476.08        68.03223
476.52        67.91061
476.97        67.94471
477.41        68.08044
477.85         68.2375
478.29        67.97145
478.74        67.33281
479.18        67.60853
479.62         67.7779
480.06        67.94239
480.50        67.81013
480.95        67.78097
481.39        67.79871
481.83        67.80432
482.27        68.00446
482.72        67.40221
483.16        67.70972
483.60        67.54816
484.04        67.77743
484.48        67.69851
484.93        68.21503
485.37        67.30898
485.81        68.07652
486.25        67.41544
486.69        68.97346
487.14        68.99548
487.58        67.93546
488.02        67.52338
488.46        67.22009
488.90         67.2246
489.34        66.82558
489.79        66.85423
490.23         67.3362
490.67        67.60041
491.11         67.6505
491.55          67.458
491.99         67.1318
492.43        66.93301
492.88          66.907
493.32        66.94749
493.76        66.96301
494.20        66.96737
494.64        66.96155
495.08        66.63358
495.52        66.53739
495.96        66.62543
496.41        66.92546
496.85        67.07319
497.29        66.97475
497.73        66.81343
498.17        66.34433
498.61        66.51004
499.05        67.04541
499.49         66.8189
499.93        66.02113
500.37        65.87098
500.82        66.38883
501.26        66.76209
501.70        66.85738
502.14        66.37636
502.58        66.00639
503.02        65.81793
503.46        65.96252
503.90        66.15899
504.34         66.3074
504.78        66.42707
505.22        66.47313
505.66        66.45199
506.10        66.43139
506.54        66.37099
506.98        66.24892
507.42        66.39688
507.86        66.73672
508.30        66.06714
508.74        66.54655
509.18        66.40688
509.62        66.30765
510.06        66.23798
510.50         66.2008
510.94        66.08907
511.38        65.90454
511.82        65.78836
512.26         65.7561
512.70        65.72173
513.14        65.66816
513.58        65.68385
514.02        65.78446
514.46        65.57323
514.90        65.72384
515.34        65.69455
515.78        65.69145
516.22        65.67804
516.66        65.51366
517.10        65.75826
517.54        65.62267
517.98        65.71542
518.42        65.77572
518.86        65.77839
519.30        65.71508
519.74        65.56061
520.18        65.39094
520.62        65.40658
521.06         65.5767
521.50        65.63847
521.93        65.56146
522.37        65.50571
522.81        65.46926
523.25        65.34375
523.69        65.17053
524.13        65.07344
524.57        65.07066
525.01        65.12724
525.45        65.21121
525.89        65.27055
526.32        65.28803
526.76        65.28777
527.20        65.28646
527.64        65.31297
528.08        65.36974
528.52        65.43781
528.96        65.50423
529.40        65.54464
529.83        65.54969
530.27        65.56323
530.71        65.55653
531.15         65.4807
531.59        65.33929
532.03        65.15549
532.46        64.98461
532.90        64.92873
533.34        64.99773
533.78        65.15741
534.22        65.33404
534.66        65.41252
535.09        65.35773
535.53        65.22969
535.97        65.06587
536.41        64.94456
536.85        64.89146
537.28        64.88143
537.72        64.90442
538.16         64.9469
538.60        64.99599
539.04        65.05731
539.47        65.09991
539.91        65.12846
540.35        65.12363
540.79         65.0913
541.22        65.04027
541.66        65.00391
542.10        64.98541
542.54        64.97355
542.97        64.96381
543.41        64.98159
543.85        65.02296
544.29        65.09818
544.72         65.1644
545.16        65.21295
545.60        65.22744
546.04        65.12982
546.47        65.00118
546.91         65.1402
547.35        65.46819
547.79        65.59659
548.22        65.46672
548.66        65.27736
549.10        65.08939
549.53        64.93939
549.97        64.86436
550.41        64.80775
550.84          64.791
551.28        64.86025
551.72        64.96175
552.15          65.074
552.59        65.20963
553.03        64.88251
553.46        65.04801
553.90        64.92571
554.34         64.7739
554.77        64.84274
555.21        64.87777
555.65        64.69277
556.08        65.00466
556.52        65.14961
556.96        65.30099
557.39        65.40408
557.83        65.43132
558.27        65.24242
558.70        64.92852
559.14        64.76978
559.57        64.78168
560.01        64.95781
560.45        65.16911
560.88        65.05627
561.32        64.73534
561.75        64.63605
562.19        64.79869
562.63        64.89303
563.06        64.88615
563.50         64.8861
563.93        64.88064
564.37        64.89919
564.80        64.92043
565.24        64.96609
565.68        65.02751
566.11        65.05636
566.55        65.06495
566.98        65.14006
567.42        65.25581
567.85        65.11922
568.29        64.86401
568.72        64.88554
569.16        65.20244
569.60        65.39192
570.03        65.36594
570.47         65.5173
570.90        65.78503
571.34        65.71829
571.77         65.8595
572.21        66.10106
572.64          65.653
573.08        65.89092
573.51        65.73651
573.95        66.20739
574.38          65.941
574.82        66.58057
