SpectraSmart Spectrum 2.9.0.0
--------- Device Information -----------
Spectrum Name :  反射率_0
Saving Time :  2024/04/21 00:00:39
Spectro-Module Model Name : SE2030-DUVN
Spectro-Module Serial Number : OS361AC55029948
Wavelength Start : 200
Wavelength End : 1025
Wavelength Unit : Wavelength(nm)
Spectrum Unit : Reflectance(%)
-----------Spectrum Setting ------------
Integration Time : 20ms
Average : 10
Boxcar : 0
Background removal :  enabled
linearity correction :  enabled
SC :  disabled
Intensity correction :  disabled
DWT denoise :  enabled
savitzky-golay :  disabled
FFT :  disabled
Running average :  disabled
Kalman :  disabled
High pass :  disabled
---------------BEGIN--------------------
Wavelength(nm)             Reflectance(%)
200.29               0
200.75       -71.16003
201.21       -37.86868
201.67       -16.80711
202.13       -2.176805
202.58         10.7622
203.04        26.25357
203.50         41.7752
203.96        46.61571
204.42        35.87336
204.88        12.52364
205.34       -13.49414
205.80       -30.09681
206.26       -34.20925
206.72       -22.77658
207.18       -4.198749
207.64       -3.320248
208.10       -28.88563
208.55       -73.13934
209.01       -99.16516
209.47       -65.56488
209.93       -12.17381
210.39        31.03781
210.85        58.10352
211.31        68.75639
211.77        67.00571
212.23         53.7856
212.69        23.81393
213.14       -26.29773
213.60       -101.7281
214.06       -285.1221
214.52       -633.5455
214.98       -249.3065
215.44       -55.72509
215.90        6.107756
216.36        24.86506
216.81        22.97266
217.27       0.7399009
217.73       -107.7287
218.19        1186.529
218.65        490.3713
219.11       -1051.874
219.57       -41.87004
220.02        21.64343
220.48        32.22004
220.94        24.74401
221.40        -3.26162
221.86       -70.86765
222.32       -116.7769
222.77       -58.31582
223.23       -5.971662
223.69        20.42587
224.15        28.71699
224.61        27.43482
225.06         21.7699
225.52        13.70209
225.98        5.947776
226.44       0.1645345
226.90       -5.682744
227.36       -7.721529
227.81      0.02179256
228.27        12.50694
228.73        24.57214
229.19        32.10312
229.65        33.04077
230.10        28.48042
230.56        19.95953
231.02          8.9544
231.48        1.639733
231.93        2.478498
232.39        9.087131
232.85        16.78683
233.31        21.69879
233.77         24.0109
234.22         25.4393
234.68        26.15234
235.14        26.23527
235.60         26.0766
236.05        24.78573
236.51        22.68202
236.97        26.37597
237.43        36.45047
237.88        42.78963
238.34        41.47977
238.80        62.51754
239.26        53.01352
239.71        51.84143
240.17        45.07874
240.63        37.80788
241.08        33.17813
241.54         33.6422
242.00        39.86699
242.46        43.17541
242.91        41.30059
243.37        35.42548
243.83        26.60626
244.28        20.12276
244.74        20.08748
245.20        23.07332
245.66        26.79912
246.11        29.75719
246.57        31.40968
247.03        32.81159
247.48        32.81044
247.94        29.39644
248.40        19.06214
248.85       -12.86803
249.31       -122.1488
249.77       -235.3439
250.22       -76.02854
250.68       -2.110036
251.14        22.96258
251.59        29.99009
252.05        29.47872
252.51        24.84976
252.96        17.01988
253.42         12.6564
253.88        16.55133
254.33        25.20404
254.79        35.96317
255.25        45.24783
255.70         51.6716
256.16        56.25053
256.62        59.31659
257.07        61.15156
257.53        62.60849
257.99        63.64628
258.44         64.1515
258.90        64.75694
259.35        64.92765
259.81        65.02302
260.27        64.82754
260.72        64.20448
261.18        63.58265
261.63        62.74125
262.09        61.88073
262.55         60.6827
263.00        59.11691
263.46        57.52962
263.91        55.98808
264.37        55.06139
264.83        54.65281
265.28        54.49439
265.74        54.43507
266.19        54.03802
266.65        53.30228
267.11        52.28878
267.56        51.05601
268.02        49.79603
268.47        48.52728
268.93        47.26517
269.38        45.97781
269.84        44.69309
270.30        43.42014
270.75        42.17942
271.21        41.07844
271.66        40.19076
272.12        39.53936
272.57        39.05022
273.03        38.60876
273.48        37.99029
273.94        37.18983
274.39         36.2523
274.85        35.32096
275.31        34.53717
275.76        33.93203
276.22         33.4826
276.67        33.13554
277.13        32.91126
277.58        32.72598
278.04        32.58889
278.49         32.3822
278.95        32.03465
279.40        31.49174
279.86        30.84123
280.31         30.0936
280.77        29.36709
281.22        28.67264
281.68        28.06191
282.13        27.53341
282.59        27.16507
283.04        26.92824
283.50        26.82167
283.95        26.80924
284.41        26.86777
284.86        26.96074
285.32        27.10534
285.77        27.22815
286.22        27.25481
286.68        27.20007
287.13        27.04153
287.59        26.92821
288.04        26.97715
288.50        27.18444
288.95        27.61349
289.41        28.16261
289.86        28.20853
290.32          27.664
290.77        28.42271
291.22        27.54974
291.68        27.72065
292.13        28.08794
292.59        28.68934
293.04        29.48027
293.50        30.46074
293.95        31.61789
294.40        32.92277
294.86        34.32379
295.31          35.725
295.77        37.09491
296.22        38.42754
296.68        39.75518
297.13        41.12811
297.58        42.58211
298.04        44.10809
298.49         45.7043
298.95        47.38968
299.40        49.13482
299.85        50.93714
300.31        52.76159
300.76        54.51917
301.21        56.20869
301.67        57.88675
302.12        59.56266
302.58        61.36947
303.03        63.29906
303.48        65.35716
303.94        67.53177
304.39        69.74341
304.84        71.95869
305.30        74.18801
305.75        76.34403
306.20         78.4203
306.66        80.41111
307.11        82.25861
307.57        84.00269
308.02        85.61668
308.47        87.14201
308.93        88.63794
309.38        90.06739
309.83        91.44907
310.29        92.82912
310.74        94.14573
311.19        95.46426
311.65        96.85336
312.10        98.28951
312.55        99.75084
313.00        101.1148
313.46        102.1923
313.91        102.9371
314.36        103.4264
314.82        103.8203
315.27        104.3614
315.72        105.1208
316.18         106.024
316.63        106.9653
317.08         107.771
317.53        108.3801
317.99        108.8443
318.44        109.2011
318.89        109.4921
319.35         109.743
319.80        109.9487
320.25         110.131
320.70         110.339
321.16        110.5752
321.61        110.8504
322.06        111.1472
322.51        111.4368
322.97        111.6911
323.42        111.9577
323.87         112.203
324.32        112.3927
324.78        112.5084
325.23        112.6012
325.68        112.7078
326.13        112.9254
326.59        113.2441
327.04        113.6842
327.49        114.1597
327.94        114.5618
328.39        114.8536
328.85        115.0344
329.30          115.19
329.75         115.323
330.20         115.458
330.66        115.5506
331.11        115.7114
331.56        115.9759
332.01        116.3589
332.46        116.8497
332.92        117.3426
333.37         117.804
333.82        118.1547
334.27        118.4229
334.72        118.6669
335.17        118.9903
335.63        119.3938
336.08        119.9129
336.53        120.4804
336.98         121.038
337.43        121.5599
337.88        122.0549
338.34        122.5172
338.79        123.0012
339.24        123.4844
339.69        123.9568
340.14         124.385
340.59        124.7277
341.05        124.9864
341.50        125.1886
341.95        125.4016
342.40        125.7361
342.85        126.2133
343.30         126.799
343.75        127.3967
344.20        127.8582
344.66        128.1483
345.11        128.2755
345.56        128.3302
346.01        128.4568
346.46        128.6997
346.91        129.0055
347.36        129.2515
347.81         129.343
348.26         129.279
348.72        128.7752
349.17        128.6171
349.62        128.6147
350.07         128.995
350.52        129.6303
350.97        130.2816
351.42        130.5495
351.87        130.3247
352.32        129.7396
352.77        128.9876
353.22        128.3651
353.67        127.9622
354.13        127.7106
354.58        127.4987
355.03        127.2065
355.48        126.7954
355.93        126.3145
356.38        125.8207
356.83        125.3863
357.28        125.0092
357.73        124.6373
358.18        124.1871
358.63        123.5426
359.08        122.6924
359.53        121.7012
359.98          120.65
360.43        119.6504
360.88        118.7419
361.33        117.8975
361.78        117.1202
362.23        116.4129
362.68        115.7603
363.13        115.1548
363.58         114.539
364.03        113.8187
364.48        112.9685
364.93        112.0083
365.38        110.9831
365.83        109.9777
366.28        109.0252
366.73        108.1088
367.18        107.2268
367.63        106.3717
368.08        105.5444
368.53        104.7651
368.98        104.0127
369.43         103.236
369.88        102.4192
370.33        101.5615
370.78        100.7081
371.23        99.96023
371.68        99.34363
372.13        98.82208
372.58        98.33037
373.03        97.75354
373.48        97.05473
373.93        96.27237
374.38        95.43294
374.83        94.59378
375.28        93.79533
375.72        93.00988
376.17        92.30395
376.62        91.68863
377.07        91.14426
377.52        90.65096
377.97        90.15467
378.42        89.57906
378.87        88.92409
379.32        88.23062
379.77        87.53836
380.22        86.89045
380.67        86.28439
381.11        85.69718
381.56        85.12762
382.01        84.60139
382.46        84.13477
382.91        83.74595
383.36        83.37432
383.81        82.91918
384.26        82.36539
384.71        81.73051
385.15        81.12208
385.60        80.77753
386.05        80.69536
386.50        80.79792
386.95        80.88836
387.40        80.66363
387.85        80.08456
388.29        79.23244
388.74        78.40494
389.19        77.80204
389.64        77.46297
390.09        77.28959
390.54        77.19256
390.98        77.02372
391.43        76.77851
391.88        76.47993
392.33        76.14359
392.78        75.82317
393.23        75.51046
393.67        75.08087
394.12        74.67414
394.57        74.36736
395.02        74.18053
395.47        74.10539
395.91        74.09795
396.36        74.01738
396.81        73.84789
397.26        73.66875
397.71        73.47023
398.15        73.17164
398.60        72.86027
399.05        72.50799
399.50        72.19476
399.95        71.99363
400.39        71.91731
400.84        72.01061
401.29        72.16145
401.74        71.88559
402.18        71.27254
402.63        70.99781
403.08         71.0434
403.53        70.81638
403.97        70.31337
404.42        69.91897
404.87          69.671
405.32        69.49783
405.76        69.39607
406.21        69.34938
406.66        69.31739
407.11        69.32919
407.55        69.33105
408.00        69.11803
408.45        68.74937
408.90         68.3799
409.34        68.11813
409.79        68.15793
410.24        68.39178
410.68        68.44369
411.13        68.27628
411.58        68.09496
412.03        67.95226
412.47        67.86146
412.92        67.82235
413.37        67.84623
413.81        67.88269
414.26        67.91146
414.71        67.90282
415.15        67.87775
415.60         67.8319
416.05        67.81834
416.49        67.84644
416.94        67.88799
417.39        67.90412
417.83        67.83173
418.28        67.66228
418.73        67.40966
419.17        67.12686
419.62         66.9121
420.07        66.79395
420.51        66.74665
420.96        66.73907
421.41        66.67701
421.85        66.52473
422.30        66.33869
422.74        66.15944
423.19        66.20302
423.64        66.44092
424.08         66.7138
424.53        66.90091
424.98        67.07499
425.42        67.21571
425.87        67.16264
426.31        66.99354
426.76        67.00021
427.21         67.1604
427.65        67.18294
428.10        67.02878
428.54         66.9418
428.99        66.96755
429.44        66.91232
429.88         66.7814
430.33        66.85664
430.77        67.00997
431.22        67.00278
431.66        66.84402
432.11        66.88128
432.56        67.17695
433.00        67.18955
433.45        66.74194
433.89        66.86369
434.34        67.66095
434.78        66.19021
435.23        66.52995
435.67        66.76445
436.12        67.04398
436.57        67.13852
437.01        66.86944
437.46        66.71024
437.90        67.37914
438.35        67.23523
438.79        67.60066
439.24        67.58391
439.68        67.52784
440.13        67.41753
440.57          67.291
441.02        67.20409
441.46           67.17
441.91        67.24487
442.35        67.33525
442.80        67.61503
443.24        67.94987
443.69        68.00358
444.13        67.78146
444.58        67.57087
445.02         67.4366
445.47        67.50633
445.91        67.68829
446.36        67.70824
446.80        67.53848
447.24        67.28966
447.69         67.0766
448.13        67.20418
448.58         67.4471
449.02        67.59487
449.47        67.55725
449.91         67.5635
450.36        67.62007
450.80        67.48496
451.25        67.25218
451.69        67.23339
452.13        67.40415
452.58        67.40823
453.02        67.22205
453.47        67.10826
453.91        67.04672
454.36        66.88776
454.80        66.68907
455.24        66.53633
455.69        66.44279
456.13        66.57004
456.58        66.84876
457.02        66.43369
457.46        65.94157
457.91        65.96713
458.35        66.45193
458.79         66.5523
459.24        66.24421
459.68        65.99605
460.13        65.87498
460.57        65.70699
461.01        65.53679
461.46        65.49665
461.90        65.10413
462.34        65.33974
462.79        64.92017
463.23        64.72659
463.68        65.28051
464.12        65.11253
464.56        64.60824
465.01        64.53993
465.45        64.80865
465.89        64.97705
466.34        65.00755
466.78        64.86748
467.22        64.54176
467.67        64.71526
468.11        64.03253
468.55        63.95359
468.99        64.01536
469.44        63.92624
469.88         63.6664
470.32        63.44699
470.77        63.32845
471.21        63.25856
471.65        63.24441
472.10        63.30284
472.54        63.36459
472.98        63.35503
473.42        63.27758
473.87        63.10358
474.31        62.85378
474.75        62.85525
475.20        63.11755
475.64        62.83332
476.08         63.0177
476.52        62.96633
476.97        62.96708
477.41        62.94139
477.85        62.84268
478.29        62.83533
478.74        62.35455
479.18        62.40452
479.62        62.59054
480.06        62.71447
480.50        62.69526
480.95        62.78804
481.39        62.92826
481.83         62.9665
482.27        63.04054
482.72        62.89907
483.16        62.65186
483.60        62.87877
484.04        62.92962
484.48        62.64565
484.93        62.46433
485.37        62.79944
485.81        62.92372
486.25        62.37036
486.69        64.05218
487.14        64.04026
487.58        62.86167
488.02        62.85622
488.46        62.19992
488.90        62.42599
489.34        61.99924
489.79        62.14706
490.23        62.17561
490.67        62.25365
491.11        62.25777
491.55        62.13076
491.99        61.92682
492.43        61.77005
492.88        61.69399
493.32        61.66809
493.76        61.63549
494.20        61.64208
494.64        61.70066
495.08         61.4105
495.52        61.37371
495.96        61.54655
496.41        61.94666
496.85        61.99957
497.29         61.6603
497.73        61.45354
498.17         61.1389
498.61        61.14467
499.05        61.31456
499.49        61.23713
499.93        60.96485
500.37        60.91206
500.82        61.08861
501.26        61.21535
501.70        61.59409
502.14        61.22591
502.58        60.83579
503.02        60.60759
503.46        60.68108
503.90        60.75883
504.34        60.76674
504.78        60.77703
505.22        60.78759
505.66        60.73087
506.10        60.63207
506.54        60.63717
506.98        60.77192
507.42        60.28649
507.86        61.03662
508.30        60.28614
508.74        60.87004
509.18        60.89437
509.62        60.98975
510.06        60.93383
510.50        60.72206
510.94        60.46437
511.38        60.21619
511.82        60.06497
512.26        60.03474
512.70         60.1238
513.14        60.26949
513.58        60.34377
514.02        60.31564
514.46        60.23122
514.90        60.10941
515.34        60.01973
515.78        59.98785
516.22        59.95213
516.66        59.77884
517.10        60.10487
517.54        60.02024
517.98        60.21943
518.42        60.37978
518.86        60.43179
519.30        60.35649
519.74        60.15115
520.18        59.91053
520.62        59.85551
521.06        59.97233
521.50        60.00761
521.93        59.94403
522.37        59.94255
522.81        59.99635
523.25        60.00156
523.69        59.95329
524.13        59.89791
524.57        59.84113
525.01        59.76882
525.45        59.70237
525.89        59.67928
526.32        59.70216
526.76        59.76477
527.20        59.84015
527.64        59.88447
528.08        59.88601
528.52        59.86279
528.96        59.82516
529.40        59.78258
529.83        59.74065
530.27        59.72234
530.71        59.72475
531.15         59.7424
531.59        59.77295
532.03        59.82131
532.46        59.86697
532.90        59.88922
533.34        59.87877
533.78        59.84431
534.22        59.79633
534.66         59.7528
535.09        59.71115
535.53         59.6842
535.97        59.66293
536.41        59.64959
536.85        59.64277
537.28        59.64423
537.72        59.64437
538.16        59.62746
538.60        59.59177
539.04         59.5453
539.47        59.48958
539.91        59.47676
540.35        59.49724
540.79        59.54163
541.22        59.59296
541.66        59.63882
542.10        59.66469
542.54        59.66799
542.97        59.64722
543.41        59.63155
543.85        59.62361
544.29        59.63473
544.72        59.63054
545.16        59.61181
545.60        59.56832
546.04        59.43011
546.47        59.28482
546.91        59.41733
547.35        59.75463
547.79        59.95077
548.22        59.92178
548.66        59.76833
549.10        59.55548
549.53        59.40825
549.97        59.36833
550.41        59.31949
550.84        59.27196
551.28        59.34639
551.72        59.49589
552.15        59.56308
552.59        59.53848
553.03        59.46553
553.46        59.36916
553.90        59.29545
554.34        59.25222
554.77        59.21904
555.21        59.22233
555.65        59.29319
556.08        59.41898
556.52        59.58728
556.96        59.74052
557.39        59.84153
557.83         59.8644
558.27        59.71864
558.70        59.47302
559.14        59.31627
559.57        59.26543
560.01        59.34655
560.45        59.47043
560.88        59.36916
561.32        59.15674
561.75        59.13142
562.19         59.3157
562.63        59.53991
563.06        59.68069
563.50        59.50591
563.93        59.09901
564.37        58.87524
564.80        58.88706
565.24        59.08324
565.68        59.37049
566.11        59.52478
566.55        59.52387
566.98        59.53963
567.42        59.59752
567.85        59.47922
568.29        59.30328
568.72        59.37573
569.16        59.70747
569.60        59.82568
570.03        59.87029
570.47        59.96939
570.90         60.1599
571.34        60.04522
571.77        60.37506
572.21        60.26369
572.64        60.23117
573.08        59.98345
573.51        60.05018
573.95        60.47626
574.38        60.43378
574.82        60.54882
