SpectraSmart Spectrum 2.9.0.0
--------- Device Information -----------
Spectrum Name :  反射率_0
Saving Time :  2024/04/21 00:17:39
Spectro-Module Model Name : SE2030-DUVN
Spectro-Module Serial Number : OS361AC55029948
Wavelength Start : 200
Wavelength End : 1025
Wavelength Unit : Wavelength(nm)
Spectrum Unit : Reflectance(%)
-----------Spectrum Setting ------------
Integration Time : 20ms
Average : 10
Boxcar : 0
Background removal :  enabled
linearity correction :  enabled
SC :  disabled
Intensity correction :  disabled
DWT denoise :  enabled
savitzky-golay :  disabled
FFT :  disabled
Running average :  disabled
Kalman :  disabled
High pass :  disabled
---------------BEGIN--------------------
Wavelength(nm)             Reflectance(%)
200.29               0
200.75       -98.56862
201.21       -18.58023
201.67        24.31024
202.13        42.03867
202.58        46.15709
203.04        42.02516
203.50        31.83198
203.96        21.59677
204.42        15.16485
204.88        10.80601
205.34        6.630267
205.80       -1.546409
206.26       -15.42456
206.72       -31.53091
207.18       -48.74976
207.64       -64.55205
208.10       -73.48489
208.55       -77.67647
209.01       -63.65601
209.47       -24.79503
209.93        11.73472
210.39        36.91649
210.85        50.48382
211.31        52.89739
211.77        45.90871
212.23        27.71337
212.69       -8.446113
213.14       -67.13338
213.60       -152.2233
214.06       -346.5397
214.52       -660.8986
214.98       -221.3283
215.44       -33.48372
215.90        19.89488
216.36        34.90611
216.81        33.87048
217.27        17.98192
217.73       -60.87513
218.19        890.6616
218.65        388.5882
219.11       -836.6301
219.57       -29.87068
220.02        21.64125
220.48        30.41889
220.94        24.78975
221.40        3.347001
221.86       -48.35696
222.32        -82.9671
222.77       -37.51985
223.23        2.663222
223.69        23.03747
224.15        29.95689
224.61        29.94464
225.06        26.87645
225.52         22.0024
225.98         16.7631
226.44        12.11654
226.90        6.558037
227.36        3.354433
227.81        8.022269
228.27        17.13459
228.73        26.50525
229.19        32.31886
229.65        32.35538
230.10        27.37264
230.56        18.72826
231.02        8.042308
231.48        1.641188
231.93        3.684655
232.39        11.44638
232.85        19.72618
233.31        24.30968
233.77        25.47602
234.22         25.0228
234.68        23.56425
235.14        22.15852
235.60        21.62554
236.05        20.90427
236.51        19.90568
236.97        24.46956
237.43        34.80579
237.88        40.86462
238.34        38.98822
238.80        61.22203
239.26        53.06592
239.71        54.76954
240.17        52.34169
240.63        49.86523
241.08        49.07431
241.54        51.22598
242.00        56.31817
242.46        58.26173
242.91        55.71151
243.37        48.79591
243.83        39.24197
244.28        34.27283
244.74        37.86521
245.20        45.63074
245.66        52.80877
246.11         54.8359
246.57        51.11732
247.03        43.64121
247.48        31.87622
247.94        13.90602
248.40        -17.2488
248.85        -95.4032
249.31       -340.8608
249.77       -546.8393
250.22       -172.9536
250.68       -13.31691
251.14        39.71229
251.59         57.3564
252.05        62.34809
252.51        61.15001
252.96        55.61967
253.42         52.5592
253.88        56.15071
254.33        62.52839
254.79        69.87885
255.25        75.35736
255.70        78.18006
256.16        79.92858
256.62        80.63903
257.07        80.29069
257.53        79.74093
257.99         78.8351
258.44         77.3467
258.90        75.92639
259.35        74.09682
259.81        72.42961
260.27        70.86779
260.72        69.47865
261.18         68.6366
261.63        67.86477
262.09        67.22802
262.55        66.25358
263.00        64.84766
263.46        63.38094
263.91         61.8793
264.37        60.89834
264.83        60.33939
265.28        59.95787
265.74         59.6287
266.19        58.91132
266.65        57.84612
267.11        56.52207
267.56        55.05026
268.02        53.71223
268.47        52.52355
268.93        51.43163
269.38         50.3844
269.84        49.38005
270.30        48.38538
270.75        47.43122
271.21        46.46944
271.66        45.33686
272.12        44.06894
272.57        42.69263
273.03        41.41104
273.48        40.45763
273.94        39.88988
274.39        39.58017
274.85        39.36499
275.31        38.91536
275.76        38.16119
276.22        37.25477
276.67        36.34243
277.13        35.73574
277.58        35.41957
278.04        35.30569
278.49        35.18653
278.95        34.88525
279.40        34.30993
279.86        33.58776
280.31        32.76638
280.77        32.01562
281.22        31.34526
281.68         30.7851
282.13        30.26536
282.59        29.77898
283.04        29.29315
283.50        28.85073
283.95         28.5099
284.41        28.39093
284.86        28.47934
285.32         28.7425
285.77        29.01621
286.22        29.09564
286.68        28.96729
287.13        28.65097
287.59         28.3551
288.04        28.28474
288.50        28.46092
288.95        28.91236
289.41        29.49921
289.86        29.55154
290.32        28.97057
290.77        29.63387
291.22        28.69091
291.68        28.81817
292.13        29.18929
292.59        29.82616
293.04        30.64261
293.50        31.57664
293.95        32.60334
294.40         33.7128
294.86        34.90988
295.31        36.18668
295.77        37.53106
296.22        38.91278
296.68         40.2964
297.13        41.62735
297.58        42.91857
298.04        44.18926
298.49        45.51419
298.95         47.0327
299.40        48.74119
299.85        50.60003
300.31        52.47947
300.76        54.15075
301.21        55.58333
301.67        56.87141
302.12        58.13372
302.58        59.66235
303.03        61.47728
303.48        63.53884
303.94        65.70178
304.39        67.68562
304.84        69.43407
305.30        71.03851
305.75        72.59251
306.20        74.35051
306.66        76.34851
307.11        78.43755
307.57        80.47911
308.02        82.18885
308.47        83.54903
308.93        84.69975
309.38        85.74152
309.83         86.8961
310.29        88.27163
310.74         89.7219
311.19        91.19881
311.65        92.59289
312.10        93.84013
312.55        94.98231
313.00        95.99852
313.46        96.85665
313.91        97.54925
314.36        98.09677
314.82        98.57985
315.27        99.11948
315.72        99.75978
316.18         100.482
316.63         101.229
317.08        101.9014
317.53        102.4649
317.99        102.9362
318.44        103.3602
318.89        103.7964
319.35        104.2533
319.80        104.7128
320.25        105.1192
320.70        105.3933
321.16        105.5174
321.61        105.5466
322.06        105.5513
322.51        105.6493
322.97        105.8586
323.42        106.1813
323.87        106.5551
324.32        106.8916
324.78         107.139
325.23        107.3588
325.68        107.5493
326.13         107.741
326.59        107.9183
327.04        108.1178
327.49        108.3153
327.94        108.5116
328.39        108.7116
328.85           108.9
329.30         109.138
329.75         109.385
330.20          109.64
330.66        109.8624
331.11        110.1525
331.56        110.5383
332.01        111.0231
332.46        111.5873
332.92        112.0992
333.37        112.4827
333.82        112.6686
334.27        112.7187
334.72        112.7545
335.17         112.981
335.63        113.4287
336.08        114.0916
336.53        114.8863
336.98        115.7187
337.43        116.5255
337.88        117.3149
338.34        117.9883
338.79        118.4491
339.24        118.6617
339.69        118.6702
340.14        118.5931
340.59        118.6335
341.05        118.8538
341.50        119.2105
341.95        119.6742
342.40        120.1847
342.85        120.7034
343.30        121.2524
343.75        121.7505
344.20        122.0706
344.66        122.2045
345.11        122.1565
345.56        122.0657
346.01        122.1635
346.46        122.4985
346.91        122.9807
347.36        123.4436
347.81        123.7009
348.26        123.7194
348.72        123.3106
349.17        123.1021
349.62         122.939
350.07        123.0257
350.52        123.2612
350.97        123.5369
351.42        123.6712
351.87        123.5965
352.32        123.3735
352.77         123.044
353.22        122.6642
353.67        122.2665
354.13         121.859
354.58        121.4206
355.03        120.9813
355.48        120.5506
355.93         120.121
356.38         119.729
356.83        119.4201
357.28        119.1754
357.73        118.9637
358.18        118.6633
358.63         118.089
359.08        117.2187
359.53        116.1271
359.98        114.9675
360.43        113.9705
360.88        113.1955
361.33        112.5817
361.78        112.0432
362.23        111.4373
362.68        110.7234
363.13        109.9511
363.58        109.1553
364.03        108.3867
364.48        107.6547
364.93        106.9222
365.38        106.1796
365.83        105.4233
366.28        104.6508
366.73        103.8762
367.18        103.0805
367.63        102.2298
368.08        101.3318
368.53        100.4064
368.98         99.5059
369.43        98.70011
369.88        97.99326
370.33        97.35674
370.78         96.7402
371.23        96.06988
371.68        95.33659
372.13        94.57638
372.58        93.82921
373.03        93.14397
373.48        92.52927
373.93        91.96111
374.38        91.43193
374.83        90.94066
375.28        90.47886
375.72        90.02232
376.17        89.57205
376.62        89.05113
377.07        88.43519
377.52        87.72873
377.97        86.96447
378.42        86.22191
378.87         85.5504
379.32        84.95746
379.77        84.41955
380.22         83.8793
380.67        83.31246
381.11        82.73025
381.56        82.17142
382.01         81.7233
382.46        81.40894
382.91         81.2056
383.36        81.01311
383.81        80.67941
384.26        80.17503
384.71        79.54019
385.15        78.88821
385.60        78.46316
386.05        78.27888
386.50        78.26114
386.95        78.25397
387.40        78.01844
387.85        77.51974
388.29        76.81445
388.74        76.14386
389.19        75.63325
389.64        75.31063
390.09        75.11057
390.54        74.96835
390.98          74.769
391.43        74.52082
391.88        74.25253
392.33        73.99264
392.78        73.75484
393.23        73.54146
393.67         73.3569
394.12        73.25553
394.57        73.01723
395.02        72.68847
395.47        72.57565
395.91        72.63235
396.36        72.47282
396.81        72.09796
397.26        71.75374
397.71        71.44623
398.15        71.08353
398.60        70.76311
399.05        70.36201
399.50         70.0056
399.95        70.04693
400.39        70.39605
400.84          70.577
401.29        70.48329
401.74        70.12374
402.18        69.61269
402.63        69.31654
403.08        69.23885
403.53         68.9866
403.97        68.56875
404.42        68.30669
404.87        68.20232
405.32        68.11137
405.76        68.00671
406.21        67.94695
406.66        67.90556
407.11        67.79245
407.55        67.61991
408.00        67.50425
408.45        67.42886
408.90        67.07878
409.34        66.55476
409.79        66.38891
410.24        66.53527
410.68        66.53356
411.13        66.36432
411.58        66.28468
412.03        66.29972
412.47        66.30714
412.92        66.27411
413.37         66.2355
413.81        66.18301
414.26        66.16086
414.71        66.15161
415.15        66.15292
415.60         66.1159
416.05        66.02097
416.49        65.87041
416.94        65.67527
417.39        65.46143
417.83        65.25896
418.28        65.07833
418.73        64.89877
419.17        64.73957
419.62        64.64227
420.07        64.61485
420.51        64.64952
420.96        64.69235
421.41        64.64972
421.85        64.49168
422.30        64.17855
422.74        63.82587
423.19        63.95306
423.64        64.45936
424.08        64.71519
424.53        64.59566
424.98        64.60116
425.42        64.74567
425.87         64.5826
426.31        64.21299
426.76        64.26603
427.21        64.71842
427.65        64.80888
428.10        64.38197
428.54        64.86979
428.99        64.32648
429.44        64.19217
429.88        63.92155
430.33        63.73558
430.77         63.6209
431.22        63.71352
431.66        63.96666
432.11        64.20154
432.56        64.40088
433.00        64.47093
433.45        64.16106
433.89        63.95813
434.34        64.10703
434.78         62.7901
435.23        62.44035
435.67        63.84331
436.12        64.23759
436.57        64.46062
437.01        63.70841
437.46        63.36129
437.90        64.11259
438.35        64.20909
438.79        64.25108
439.24        64.21844
439.68        64.24711
440.13        64.26354
440.57        64.25155
441.02        64.19627
441.46        64.10872
441.91        64.06993
442.35        64.03115
442.80        64.30083
443.24        64.78917
443.69        64.92303
444.13        64.57581
444.58        65.07923
445.02        64.44257
445.47         64.5309
445.91        64.69597
446.36        64.70135
446.80        64.51516
447.24        64.38943
447.69        64.28689
448.13        64.35291
448.58        64.37447
449.02        64.41352
449.47         64.3962
449.91        64.36586
450.36        64.33501
450.80        64.18464
451.25        63.99111
451.69        63.97681
452.13        64.10703
452.58        64.05448
453.02        63.81721
453.47        63.67776
453.91         63.6322
454.36        63.53055
454.80        63.37051
455.24        63.23565
455.69        63.14938
456.13         63.0449
456.58        62.95316
457.02        62.90502
457.46         62.8413
457.91        62.73681
458.35        62.67606
458.79        62.57344
459.24         62.4885
459.68        62.37796
460.13        62.28428
460.57         62.1968
461.01         62.1408
461.46        61.98674
461.90        62.04368
462.34         61.7818
462.79        61.82944
463.23        61.61655
463.68        61.71357
464.12        61.40265
464.56        60.95956
465.01        61.08959
465.45        61.53614
465.89        61.64236
466.34        61.43692
466.78        61.06033
467.22        60.50911
467.67        61.19746
468.11         60.8818
468.55        61.01102
468.99        60.88498
469.44        60.78757
469.88        60.70233
470.32        60.47897
470.77        60.20425
471.21        60.05132
471.65        60.04871
472.10        60.14242
472.54        60.25489
472.98        60.28349
473.42        60.20497
473.87        60.07608
474.31        59.91147
474.75        59.81522
475.20        59.78725
475.64        59.76545
476.08        59.74812
476.52        59.71127
476.97        59.62128
477.41        59.65775
477.85        59.79621
478.29         59.3511
478.74        59.16058
479.18        59.08968
479.62        59.30741
480.06        59.39651
480.50        59.35751
480.95        59.36216
481.39        59.35543
481.83        59.60727
482.27        59.77456
482.72        59.50335
483.16        59.80903
483.60        59.77221
484.04        59.93335
484.48        59.67957
484.93        59.84598
485.37        59.26029
485.81        59.29858
486.25         59.0627
486.69        60.31084
487.14        59.73869
487.58         59.6264
488.02        59.24434
488.46        59.32438
488.90        59.05715
489.34        58.84368
489.79        58.54011
490.23        59.31499
490.67        59.42886
491.11        59.22209
491.55        59.10959
491.99        59.13197
492.43        59.08588
492.88        58.97016
493.32        58.89631
493.76        58.82299
494.20        58.78762
494.64        58.82168
495.08        58.50311
495.52        58.44873
495.96        58.60089
496.41        58.97483
496.85        58.85838
497.29        58.32443
497.73        58.23103
498.17        58.29919
498.61        58.59253
499.05        58.84801
499.49         58.6644
499.93         58.1926
500.37        58.08969
500.82        58.35711
501.26        58.71007
501.70         58.9893
502.14        58.60355
502.58        58.16622
503.02        57.95966
503.46        58.12019
503.90        58.30498
504.34        58.41036
504.78        58.43804
505.22        58.39932
505.66         58.3498
506.10        58.29061
506.54         58.3082
506.98        58.44556
507.42        57.98606
507.86        58.29601
508.30        58.21815
508.74        58.21957
509.18        58.21269
509.62        58.21185
510.06        58.20898
510.50        58.17119
510.94        58.04792
511.38        57.87403
511.82        57.77381
512.26        57.76168
512.70         57.7782
513.14        57.80172
513.58        57.81576
514.02        57.80895
514.46        57.78806
514.90        57.74287
515.34        57.70021
515.78        57.67061
516.22        57.60596
516.66        57.37649
517.10        57.64113
517.54         57.4489
517.98        57.54375
518.42         57.6198
518.86        57.66278
519.30        57.65995
519.74        57.58824
520.18        57.50858
520.62        57.57959
521.06         57.7711
521.50        57.86025
521.93        57.81544
522.37        57.76243
522.81        57.70205
523.25         57.5523
523.69        57.35567
524.13        57.22787
524.57        57.18907
525.01        57.20405
525.45        57.25817
525.89         57.3264
526.32        57.39142
526.76        57.46534
527.20        57.52374
527.64        57.53444
528.08        57.49351
528.52        57.39571
528.96        57.27843
529.40        57.22981
529.83         57.2448
530.27        57.26233
530.71        57.25571
531.15        57.24495
531.59        57.22356
532.03        57.16844
532.46        57.10235
532.90        57.09369
533.34         57.1451
533.78        57.23304
534.22         57.3193
534.66        57.34649
535.09        57.29696
535.53        57.21341
535.97        57.11838
536.41         57.0624
536.85        57.05921
537.28        57.08969
537.72        57.14443
538.16        57.20664
538.60        57.26282
539.04        57.32524
539.47         57.3597
539.91        57.34357
540.35        57.27073
540.79        57.19158
541.22        57.12284
541.66        57.07156
542.10        57.04258
542.54        57.04655
542.97        57.06635
543.41        57.08659
543.85        57.09173
544.29        57.12609
544.72        57.17345
545.16        57.18118
545.60        57.12129
546.04        57.23454
546.47        57.03044
546.91        57.18351
547.35        57.45396
547.79        57.55698
548.22        57.43704
548.66         57.1954
549.10        56.93183
549.53        56.84123
549.97        56.92648
550.41        56.93388
550.84        56.86085
551.28        56.87262
551.72        56.94476
552.15        57.00539
552.59        57.06914
553.03        56.87767
553.46        56.94959
553.90         56.8723
554.34        56.78589
554.77        56.73175
555.21        56.77315
555.65        56.63133
556.08        56.84426
556.52        57.00462
556.96        57.18557
557.39        57.20035
557.83        57.06423
558.27        56.89107
558.70        56.75367
559.14        56.68612
559.57        56.70188
560.01        56.91602
560.45        57.18027
560.88         57.1377
561.32        56.87877
561.75        56.61266
562.19        56.48056
562.63        56.69876
563.06        57.11353
563.50        57.08097
563.93        56.64404
564.37        56.44826
564.80        56.53149
565.24        56.68886
565.68        56.85771
566.11        56.95016
566.55        56.95927
566.98        57.00113
567.42        57.08534
567.85        57.00815
568.29        56.87406
568.72        56.93476
569.16        57.17245
569.60        57.30896
570.03        57.24258
570.47        57.19902
570.90        57.13877
571.34        57.19255
571.77        57.42749
572.21        57.26026
572.64        57.16004
573.08        57.19014
573.51        57.08382
573.95        57.45652
574.38        57.16447
574.82        57.83227
