SpectraSmart Spectrum 2.9.0.0
--------- Device Information -----------
Spectrum Name :  反射率_0
Saving Time :  2024/04/21 00:36:47
Spectro-Module Model Name : SE2030-DUVN
Spectro-Module Serial Number : OS361AC55029948
Wavelength Start : 200
Wavelength End : 1025
Wavelength Unit : Wavelength(nm)
Spectrum Unit : Reflectance(%)
-----------Spectrum Setting ------------
Integration Time : 20ms
Average : 10
Boxcar : 0
Background removal :  enabled
linearity correction :  enabled
SC :  disabled
Intensity correction :  disabled
DWT denoise :  enabled
savitzky-golay :  disabled
FFT :  disabled
Running average :  disabled
Kalman :  disabled
High pass :  disabled
---------------BEGIN--------------------
Wavelength(nm)             Reflectance(%)
200.29               0
200.75       -4.001407
201.21         19.3953
201.67        30.59367
202.13        32.11448
202.58        27.05467
203.04        16.78159
203.50        4.541015
203.96     -0.03867691
204.42        6.605116
204.88        20.12403
205.34        32.97916
205.80         34.6239
206.26        21.99715
206.72       -2.593542
207.18       -36.14307
207.64       -66.90251
208.10       -82.95185
208.55       -87.45871
209.01       -67.75663
209.47       -22.07546
209.93          18.573
210.39         46.2264
210.85        61.25961
211.31        64.59016
211.77        58.26237
212.23        40.38031
212.69        3.449846
213.14       -59.76756
213.60       -159.8121
214.06       -406.0416
214.52       -866.1337
214.98       -337.4841
215.44        -77.5828
215.90        2.231622
216.36        27.21857
216.81        29.77047
217.27        14.74246
217.73       -66.47076
218.19        920.3322
218.65        395.8431
219.11       -834.0616
219.57       -26.21971
220.02        25.44478
220.48        35.23641
220.94        31.85454
221.40        15.46747
221.86       -24.68394
222.32       -49.96336
222.77       -12.83733
223.23        18.63631
223.69        34.14421
224.15         38.9572
224.61        38.13615
225.06        34.78946
225.52        29.64953
225.98        23.37982
226.44        16.82624
226.90        8.808619
227.36        3.509759
227.81        8.275979
228.27        19.21488
228.73        30.60096
229.19        37.95578
229.65        39.02922
230.10        34.75618
230.56        26.56004
231.02        15.73508
231.48        8.069719
231.93        7.942828
232.39         13.3607
232.85        19.77442
233.31        23.17334
233.77         23.6672
234.22        22.95949
234.68        21.63817
235.14        20.71201
235.60         20.9103
236.05        21.06377
236.51        20.94608
236.97        26.03942
237.43         36.3139
237.88        41.98756
238.34        39.18621
238.80        59.95725
239.26        48.64474
239.71        46.35288
240.17        38.01712
240.63        29.28121
241.08         23.8598
241.54        25.25222
242.00        34.31966
242.46        41.17224
242.91        43.68489
243.37        43.43966
243.83        41.43171
244.28        41.32756
244.74        44.46959
245.20        47.23807
245.66        48.24493
246.11        46.69649
246.57        42.49073
247.03        37.12793
247.48        28.90464
247.94        13.61349
248.40       -16.69539
248.85       -96.50618
249.31       -348.2916
249.77          -545.7
250.22       -156.7406
250.68        3.653019
251.14        54.37439
251.59        67.83107
252.05        65.95517
252.51        53.82129
252.96        31.76673
253.42        10.74944
253.88        3.258693
254.33        6.713706
254.79        18.27239
255.25        32.16919
255.70        43.67667
256.16         52.4987
256.62        58.08252
257.07        60.19707
257.53        60.38462
257.99        59.42927
258.44        57.75216
258.90        56.38823
259.35        55.00106
259.81        53.84332
260.27        52.81159
260.72        51.90895
261.18        51.38695
261.63        50.92264
262.09          50.511
262.55         49.7656
263.00        48.62514
263.46        47.38474
263.91        46.10572
264.37        45.26812
264.83        44.80445
265.28        44.52216
265.74        44.27178
266.19        43.66649
266.65        42.72493
267.11        41.52527
267.56        40.22219
268.02         39.1388
268.47        38.29657
268.93        37.62901
269.38        36.97161
269.84        36.13155
270.30        35.06332
270.75        33.86533
271.21        32.68326
271.66        31.66784
272.12        30.89226
272.57        30.27509
273.03        29.79231
273.48        29.37387
273.94        29.00181
274.39        28.66096
274.85        28.32846
275.31        27.90263
275.76        27.36997
276.22        26.79182
276.67        26.22739
277.13        25.84005
277.58        25.60905
278.04        25.49567
278.49        25.38866
278.95         25.2043
279.40        24.88141
279.86        24.49375
280.31        24.03242
280.77        23.56155
281.22        23.08157
281.68        22.64249
282.13        22.23829
282.59        21.93429
283.04        21.71125
283.50        21.56124
283.95        21.49006
284.41        21.52773
284.86        21.64928
285.32        21.85383
285.77        22.02164
286.22         21.9947
286.68        21.78255
287.13        21.40694
287.59        21.07805
288.04         21.0118
288.50        21.21599
288.95        21.72875
289.41         22.4046
289.86        22.53391
290.32        21.99183
290.77        22.82483
291.22        21.84298
291.68        21.89817
292.13        22.07594
292.59        22.42219
293.04        22.91156
293.50        23.58025
293.95        24.43514
294.40        25.44358
294.86        26.56078
295.31          27.697
295.77        28.82161
296.22        29.93697
296.68        31.06117
297.13        32.22404
297.58        33.45325
298.04        34.74175
298.49        36.10729
298.95        37.59691
299.40        39.19127
299.85        40.87942
300.31        42.59274
300.76        44.20602
301.21        45.69946
301.67        47.11938
302.12        48.52669
302.58        50.11294
303.03        51.88605
303.48        53.84593
303.94        55.88476
304.39        57.78401
304.84        59.51309
305.30        61.15023
305.75        62.80485
306.20        64.74064
306.66        66.98225
307.11        69.37489
307.57        71.74686
308.02        73.78249
308.47        75.43922
308.93        76.85098
309.38        78.11753
309.83        79.44196
310.29        80.95855
310.74        82.51857
311.19        84.07198
311.65        85.49684
312.10        86.74364
312.55        87.86478
313.00        88.90735
313.46        89.94227
313.91        90.96941
314.36        91.96425
314.82        92.90082
315.27        93.73777
315.72        94.47825
316.18        95.14959
316.63        95.76876
317.08        96.36227
317.53        96.93744
317.99        97.47697
318.44        97.99442
318.89        98.49807
319.35        98.98206
319.80        99.45345
320.25        99.87184
320.70        100.1758
321.16        100.3515
321.61        100.4379
322.06        100.4971
322.51        100.6386
322.97        100.8762
323.42         101.214
323.87        101.5825
324.32        101.8807
324.78        102.0592
325.23        102.1843
325.68        102.2808
326.13        102.4186
326.59        102.5973
327.04        102.8501
327.49        103.1281
327.94        103.3865
328.39        103.6139
328.85        103.7948
329.30        104.0263
329.75        104.3375
330.20        104.7356
330.66        105.1604
331.11        105.6182
331.56        105.9876
332.01        106.2447
332.46        106.4198
332.92        106.5149
333.37        106.6776
333.82        106.9032
334.27        107.1841
334.72        107.5292
335.17        107.9498
335.63        108.4097
336.08        108.9583
336.53        109.5492
336.98        110.1492
337.43        110.7338
337.88        111.2959
338.34        111.7757
338.79        112.1444
339.24        112.3771
339.69        112.4963
340.14          112.58
340.59        112.7545
341.05         113.059
341.50         113.479
341.95        113.9609
342.40        114.4115
342.85        114.8007
343.30        115.1508
343.75        115.4902
344.20        115.8704
344.66        116.3015
345.11        116.7278
345.56        117.1121
346.01         117.402
346.46        117.5917
346.91         117.698
347.36        117.7242
347.81        117.7294
348.26        117.7445
348.72        117.5668
349.17        117.6137
349.62        117.6948
350.07        117.9318
350.52        118.2789
350.97        118.6249
351.42        118.7799
351.87        118.6848
352.32        118.3824
352.77        117.9707
353.22        117.6059
353.67        117.3276
354.13        117.1117
354.58        116.8466
355.03        116.4096
355.48        115.7881
355.93        115.0449
356.38        114.3055
356.83        113.7482
357.28        113.3965
357.73        113.1771
358.18        112.9618
358.63         112.551
359.08        111.8969
359.53        111.0735
359.98         110.166
360.43        109.2989
360.88        108.5138
361.33        107.7722
361.78        107.0674
362.23        106.3932
362.68        105.7407
363.13        105.1196
363.58        104.4986
364.03        103.8196
364.48        103.0678
364.93         102.252
365.38        101.4061
365.83        100.5939
366.28        99.83234
366.73        99.10034
367.18        98.37675
367.63        97.62801
368.08        96.84782
368.53        96.05972
368.98        95.25987
369.43         94.4279
369.88        93.56017
370.33        92.65572
370.78        91.75774
371.23        90.95883
371.68        90.29086
372.13        89.73465
372.58        89.23898
373.03        88.70572
373.48        88.10064
373.93        87.44932
374.38        86.77623
374.83        86.13374
375.28        85.54741
375.72        84.98362
376.17        84.46867
376.62        83.97221
377.07        83.47166
377.52        82.95911
377.97        82.42564
378.42        81.87112
378.87        81.31289
379.32        80.77027
379.77        80.23669
380.22        79.68678
380.67         79.1087
381.11         78.5049
381.56        77.91431
382.01        77.42579
382.46         77.0661
382.91         76.8188
383.36        76.59393
383.81        76.25004
384.26        75.75718
384.71        75.15119
385.15        74.52989
385.60        74.10949
386.05        73.90227
386.50        73.84782
386.95        73.80499
387.40        73.55939
387.85        73.08149
388.29        72.41321
388.74        71.79053
389.19        71.34967
389.64        71.10645
390.09        70.98097
390.54        70.87675
390.98        70.62574
391.43        70.23741
391.88        69.78519
392.33        69.32449
392.78        68.89616
393.23        68.59705
393.67        68.26412
394.12         68.0124
394.57        67.90894
395.02        67.89362
395.47        67.74492
395.91        67.45897
396.36        67.19238
396.81        66.97484
397.26        66.73643
397.71        66.46194
398.15        66.17657
398.60         65.9605
399.05        65.63451
399.50        65.32149
399.95        65.41396
400.39         65.7849
400.84        65.88787
401.29        65.65443
401.74         65.1245
402.18        64.51426
402.63         64.4712
403.08        64.86958
403.53         64.7892
403.97        64.18519
404.42        63.65498
404.87        63.32175
405.32        63.16039
405.76        63.19526
406.21        63.34569
406.66        63.50362
407.11         63.7126
407.55        63.84298
408.00        63.42472
408.45        62.61771
408.90        62.11491
409.34        62.02966
409.79         62.0933
410.24         62.1821
410.68         62.1844
411.13        62.05736
411.58        61.86236
412.03         61.6673
412.47         61.5822
412.92        61.61248
413.37        61.72499
413.81        61.84211
414.26        61.90224
414.71        61.86936
415.15        61.78743
415.60        61.65639
416.05        61.53042
416.49        61.43536
416.94        61.34724
417.39        61.28013
417.83        61.24871
418.28        61.25119
418.73        61.28014
419.17        61.30175
419.62        61.26966
420.07          61.177
420.51        61.03676
420.96        60.90011
421.41        60.81753
421.85        60.78284
422.30         60.7711
422.74        60.75694
423.19         60.9149
423.64        61.16745
424.08        61.25373
424.53        61.13648
424.98        61.12669
425.42        61.25438
425.87        61.30437
426.31         61.2803
426.76        61.32164
427.21        61.40311
427.65        61.40518
428.10         61.3273
428.54        61.29383
428.99        61.34747
429.44        61.45567
429.88        61.53617
430.33        61.50312
430.77        61.34011
431.22        61.24849
431.66        61.24321
432.11        61.38128
432.56        61.61927
433.00        61.61982
433.45        61.22604
433.89        61.06734
434.34        61.21328
434.78        60.78246
435.23        59.89091
435.67        61.10466
436.12        61.65236
436.57        61.95004
437.01        61.28288
437.46        60.99467
437.90         61.8112
438.35        61.36098
438.79         61.5992
439.24        61.43255
439.68        61.40815
440.13         61.3965
440.57        61.40285
441.02        61.51423
441.46        61.68097
441.91        61.72386
442.35        61.64188
442.80         62.0052
443.24         62.6233
443.69        62.65783
444.13        62.15451
444.58        61.85283
445.02        61.84423
445.47        62.05367
445.91        62.36386
446.36         62.5197
446.80        62.47429
447.24         62.3509
447.69         62.2263
448.13        62.31685
448.58        62.41173
449.02        62.34335
449.47        62.08746
449.91        61.94422
450.36        61.94644
450.80        61.85292
451.25        61.70771
451.69        61.72909
452.13        61.87041
452.58        61.81159
453.02        61.56646
453.47        61.43172
453.91        61.40142
454.36        61.32899
454.80        61.21416
455.24        61.02633
455.69        60.75775
456.13        60.62154
456.58        60.71641
457.02        60.09237
457.46        60.15794
457.91        60.32771
458.35        60.20966
458.79        60.26716
459.24        60.25964
459.68        60.28923
460.13        60.35811
460.57        60.17712
461.01        59.74037
461.46        59.97091
461.90        59.33554
462.34        59.16404
462.79         59.2762
463.23        58.94751
463.68         59.2747
464.12        59.15773
464.56        58.97826
465.01        59.17707
465.45        59.55339
465.89        59.54679
466.34        59.20731
466.78        58.87111
467.22        58.61633
467.67        58.69067
468.11        58.45155
468.55        58.38226
468.99        58.26412
469.44        58.13288
469.88        57.97651
470.32        57.75391
470.77        57.51763
471.21        57.36904
471.65        57.32672
472.10        57.35704
472.54        57.40957
472.98         57.4361
473.42        57.43134
473.87        57.38012
474.31        57.26325
474.75        57.27612
475.20        57.40226
475.64        57.10051
476.08         57.0632
476.52        56.93548
476.97        56.88665
477.41        57.00689
477.85        57.22132
478.29        56.91577
478.74         56.3984
479.18        56.59133
479.62        56.67976
480.06        56.87887
480.50         56.9301
480.95        57.09316
481.39        57.24107
481.83        57.41706
482.27        57.53376
482.72        56.85131
483.16        56.92493
483.60        56.74426
484.04        56.87035
484.48        56.69287
484.93        56.84007
485.37        56.69891
485.81        57.40742
486.25        56.69764
486.69        58.89831
487.14        58.91993
487.58        57.70602
488.02        57.42511
488.46        56.70076
488.90        56.64183
489.34        56.19585
489.79        55.60052
490.23        55.89413
490.67        56.11793
491.11        56.50096
491.55        56.48201
491.99        56.13569
492.43        56.02991
492.88        56.18443
493.32        56.26999
493.76         56.2048
494.20        56.15586
494.64        56.15062
495.08        55.76254
495.52        55.66092
495.96        55.68769
496.41        55.93394
496.85        55.89421
497.29        55.57924
497.73        55.64575
498.17        55.76395
498.61        55.84845
499.05        55.75373
499.49        55.52875
499.93         55.2962
500.37         55.2807
500.82        55.43866
501.26        55.67906
501.70        55.86972
502.14        55.38669
502.58        54.83301
503.02        54.57693
503.46        54.77679
503.90        54.82505
504.34        55.08801
504.78        55.19981
505.22        55.27067
505.66        55.23075
506.10        55.13031
506.54        55.12004
506.98        55.21878
507.42        54.83368
507.86        55.45408
508.30        54.65252
508.74        55.05028
509.18        54.84638
509.62        54.71532
510.06        54.63967
510.50        54.61137
510.94        54.54652
511.38        54.44411
511.82        54.42595
512.26        54.48854
512.70        54.57545
513.14        54.64424
513.58        54.64413
514.02        54.56212
514.46        54.41666
514.90        54.23335
515.34        54.10501
515.78        54.06185
516.22        54.02702
516.66        53.85263
517.10        54.19552
517.54        54.01514
517.98        54.12198
518.42        54.19502
518.86        54.23269
519.30        54.22573
519.74        54.15114
520.18        54.05573
520.62        54.07564
521.06        54.18193
521.50        54.16233
521.93        54.02736
522.37        53.96469
522.81         53.9837
523.25        53.98211
523.69        53.94101
524.13        53.87938
524.57        53.79854
525.01        53.69527
525.45        53.61085
525.89        53.61078
526.32        53.70138
526.76        53.86414
527.20        54.04038
527.64        54.13826
528.08         54.1344
528.52        54.05776
528.96        53.95293
529.40        53.88406
529.83        53.86823
530.27        53.91042
530.71        53.97247
531.15        53.99236
531.59        53.95841
532.03        53.89817
532.46        53.83334
532.90        53.80767
533.34        53.82518
533.78        53.86699
534.22        53.91126
534.66        53.92689
535.09        53.89759
535.53        53.85331
535.97        53.78979
536.41        53.71453
536.85        53.63456
537.28        53.54849
537.72        53.47272
538.16        53.43594
538.60        53.44142
539.04        53.47915
539.47        53.50716
539.91        53.53056
540.35        53.53511
540.79        53.48398
541.22        53.37486
541.66        53.48363
542.10        53.39175
542.54         53.4174
542.97        53.43919
543.41         53.5022
543.85        53.59727
544.29        53.73205
544.72        53.84245
545.16        53.86644
545.60        53.78641
546.04        53.55888
546.47        53.30154
546.91        53.33733
547.35        53.62111
547.79        53.81789
548.22        53.83598
548.66        53.75303
549.10        53.61022
549.53        53.49813
549.97        53.45668
550.41        53.41637
550.84        53.39968
551.28        53.45946
551.72        53.54862
552.15        53.64051
552.59        53.74961
553.03        53.46429
553.46        53.56189
553.90        53.46473
554.34        53.40149
554.77        53.33941
555.21        53.30777
555.65        53.32995
556.08        53.39231
556.52         53.4903
556.96        53.58049
557.39        53.65434
557.83        53.68659
558.27        53.56522
558.70        53.35314
559.14         53.2511
559.57        53.27251
560.01         53.3996
560.45        53.54364
560.88        53.50728
561.32        53.35941
561.75        53.27026
562.19        53.31763
562.63        53.44722
563.06        53.57867
563.50        53.61887
563.93        53.57901
564.37        53.23983
564.80        53.30951
565.24        53.32389
565.68        53.45158
566.11        53.51408
566.55        53.51875
566.98        53.58512
567.42        53.71259
567.85        53.71814
568.29         53.6699
568.72        53.76495
569.16        54.01699
569.60        54.08115
570.03        54.20317
570.47        54.24442
570.90        54.25758
571.34        54.43683
571.77        54.63156
572.21         54.6784
572.64        54.89582
573.08        54.90202
573.51        54.65789
573.95         54.6904
574.38        55.03132
574.82        55.72226
