SpectraSmart Spectrum 2.9.0.0
--------- Device Information -----------
Spectrum Name :  反射率_0
Saving Time :  2024/04/21 00:23:24
Spectro-Module Model Name : SE2030-DUVN
Spectro-Module Serial Number : OS361AC55029948
Wavelength Start : 200
Wavelength End : 1025
Wavelength Unit : Wavelength(nm)
Spectrum Unit : Reflectance(%)
-----------Spectrum Setting ------------
Integration Time : 20ms
Average : 10
Boxcar : 0
Background removal :  enabled
linearity correction :  enabled
SC :  disabled
Intensity correction :  disabled
DWT denoise :  enabled
savitzky-golay :  disabled
FFT :  disabled
Running average :  disabled
Kalman :  disabled
High pass :  disabled
---------------BEGIN--------------------
Wavelength(nm)             Reflectance(%)
200.29               0
200.75       -50.97432
201.21       -8.566326
201.67         15.0875
202.13        24.92612
202.58         26.8781
203.04        24.99031
203.50        20.94341
203.96        17.99766
204.42        17.75244
204.88        18.45739
205.34        18.81976
205.80        16.87205
206.26        11.83928
206.72        5.385103
207.18       -3.008228
207.64       -14.24299
208.10       -25.54442
208.55       -35.74162
209.01       -33.93458
209.47        -11.6979
209.93        12.55672
210.39        30.10747
210.85        40.76555
211.31        45.58252
211.77        46.53837
212.23        44.72265
212.69        38.01908
213.14        21.48409
213.60       -17.05404
214.06       -144.2243
214.52       -456.8347
214.98       -196.3181
215.44        -30.9475
215.90        24.86161
216.36        43.21743
216.81        44.63657
217.27        31.89534
217.73       -33.47438
218.19        754.6982
218.65           336.3
219.11       -651.1698
219.57       -2.468574
220.02        39.06049
220.48        47.31831
220.94        45.32431
221.40        33.39036
221.86        3.759254
222.32       -14.43164
222.77        13.56732
223.23        37.36524
223.69        48.64777
224.15        51.05936
224.61        48.52682
225.06        43.36479
225.52        37.20089
225.98        32.48055
226.44        30.38467
226.90        29.56888
227.36        31.19085
227.81        36.14004
228.27        41.80779
228.73        46.80556
229.19        49.67924
229.65        49.51717
230.10        46.75998
230.56        42.26531
231.02        36.85234
231.48        33.56791
231.93        34.45578
232.39        38.42966
232.85        42.60588
233.31         44.4941
233.77        44.29001
234.22        43.13273
234.68        41.47365
235.14        40.23297
235.60        40.04546
236.05        40.01207
236.51        40.13271
236.97        44.81797
237.43        53.82097
237.88        59.87646
238.34         60.1021
238.80        74.35555
239.26        66.23166
239.71        62.03603
240.17        51.90932
240.63        41.62127
241.08        36.02237
241.54        38.66146
242.00        49.34888
242.46         57.1598
242.91        59.23577
243.37        56.69389
243.83        50.53253
244.28        46.01607
244.74        46.59525
245.20         48.8794
245.66         50.1147
246.11        47.92011
246.57        41.70742
247.03        32.67415
247.48        20.89491
247.94         5.67695
248.40       -17.77363
248.85       -72.24233
249.31       -239.9081
249.77       -391.3834
250.22       -141.5981
250.68       -32.66636
251.14        5.343601
251.59        21.24736
252.05        30.92554
252.51        40.86475
252.96        50.29412
253.42        53.19802
253.88        46.59791
254.33        34.90665
254.79        29.90314
255.25        37.50762
255.70        50.49996
256.16        62.84002
256.62        71.03479
257.07        73.35031
257.53        72.23546
257.99        69.60297
258.44        66.85897
258.90        65.93609
259.35         66.0578
259.81        66.79916
260.27        67.27294
260.72        66.70911
261.18        65.63828
261.63        64.19479
262.09        62.90234
262.55        61.71633
263.00           60.55
263.46        59.56574
263.91        58.62147
264.37        58.04061
264.83        57.69743
265.28        57.43825
265.74        57.25211
266.19        56.85674
266.65        56.29323
267.11         55.5735
267.56         54.6763
268.02        53.68948
268.47        52.59091
268.93         51.3995
269.38        50.17866
269.84        49.10353
270.30        48.19266
270.75        47.42891
271.21        46.69783
271.66        45.73095
272.12        44.53876
272.57        43.18783
273.03        41.92725
273.48        41.05509
273.94        40.63086
274.39          40.479
274.85        40.39414
275.31        39.99055
275.76        39.18563
276.22        38.16826
276.67        37.08854
277.13         36.2615
277.58        35.69694
278.04         35.3251
278.49        35.00221
278.95        34.63797
279.40        34.14573
279.86        33.61788
280.31        33.03041
280.77        32.44699
281.22         31.8497
281.68        31.29245
282.13        30.74484
282.59        30.26398
283.04        29.82297
283.50        29.43143
283.95        29.10966
284.41        28.92817
284.86        28.86443
285.32        28.91459
285.77        28.94177
286.22          28.774
286.68        28.41594
287.13         27.8906
287.59        27.40998
288.04        27.18476
288.50        27.23454
288.95        27.58395
289.41        28.10092
289.86        28.11841
290.32        27.52286
290.77        28.21463
291.22        27.22887
291.68        27.21658
292.13        27.32039
292.59        27.57961
293.04        27.96943
293.50        28.52894
293.95        29.25923
294.40        30.12389
294.86        31.06355
295.31        31.96915
295.77        32.80794
296.22        33.58625
296.68        34.34312
297.13         35.1349
297.58         35.9962
298.04        36.91706
298.49        37.89296
298.95        38.93862
299.40        40.03423
299.85        41.18436
300.31        42.36723
300.76         43.5235
301.21        44.64825
301.67        45.77639
302.12        46.90968
302.58        48.14619
303.03        49.47898
303.48        50.92975
303.94         52.4732
304.39        54.02507
304.84        55.56977
305.30        57.13195
305.75        58.71737
306.20        60.42735
306.66        62.26675
307.11        64.16315
307.57        66.03773
308.02        67.71613
308.47        69.19259
308.93        70.55436
309.38         71.8846
309.83        73.34354
310.29        75.05714
310.74        76.86779
311.19        78.68243
311.65        80.30151
312.10        81.66256
312.55        82.83307
313.00        83.91262
313.46        85.06389
313.91        86.31145
314.36         87.6031
314.82        88.87598
315.27        90.03397
315.72        91.05862
316.18        91.98732
316.63        92.85155
317.08        93.69888
317.53        94.54007
317.99        95.35183
318.44        96.11702
318.89        96.79833
319.35        97.39084
319.80          97.924
320.25        98.42137
320.70        98.92234
321.16        99.43016
321.61        99.94382
322.06        100.4581
322.51         100.975
322.97        101.4721
323.42        101.9806
323.87        102.4508
324.32        102.8178
324.78        103.0529
325.23        103.2155
325.68        103.3471
326.13        103.5479
326.59        103.8251
327.04        104.2101
327.49        104.6454
327.94        105.0632
328.39        105.4406
328.85        105.7682
329.30        106.1263
329.75        106.5158
330.20        106.9426
330.66        107.3517
331.11        107.7925
331.56        108.2165
332.01        108.6158
332.46         108.997
332.92        109.3146
333.37        109.6353
333.82        109.9236
334.27        110.1928
334.72        110.4734
335.17         110.814
335.63        111.2002
336.08        111.6808
336.53        112.2176
336.98        112.7908
337.43        113.3817
337.88        113.9838
338.34        114.5454
338.79        115.0446
339.24        115.4468
339.69        115.7647
340.14        116.0322
340.59        116.3138
341.05        116.6339
341.50        116.9871
341.95        117.3718
342.40        117.7844
342.85        118.2176
343.30        118.6765
343.75        119.1261
344.20        119.5129
344.66        119.8325
345.11          120.07
345.56        120.2767
346.01        120.5369
346.46        120.8697
346.91        121.2338
347.36        121.5454
347.81         121.743
348.26        121.8275
348.72         121.591
349.17        121.5789
349.62        121.5992
350.07        121.8202
350.52        122.1608
350.97        122.5197
351.42        122.7243
351.87          122.71
352.32        122.5287
352.77        122.2179
353.22         121.833
353.67        121.4104
354.13        120.9653
354.58         120.495
355.03        120.0538
355.48        119.6596
355.93        119.3046
356.38        119.0051
356.83         118.775
357.28        118.5878
357.73        118.4144
358.18        118.1639
358.63        117.6993
359.08        117.0034
359.53        116.1347
359.98        115.1841
360.43        114.2901
360.88        113.4965
361.33        112.7658
361.78        112.0974
362.23        111.4851
362.68        110.9146
363.13        110.3965
363.58        109.8621
364.03        109.1954
364.48        108.3769
364.93        107.4321
365.38         106.462
365.83        105.6423
366.28        105.0088
366.73        104.5008
367.18        104.0202
367.63        103.4089
368.08          102.63
368.53        101.7516
368.98        100.8216
369.43        99.89877
369.88         99.0094
370.33        98.13132
370.78        97.30335
371.23        96.61092
371.68        96.07263
372.13        95.66544
372.58        95.32212
373.03        94.91791
373.48        94.40941
373.93         93.8271
374.38        93.18221
374.83        92.51196
375.28        91.84897
375.72        91.16728
376.17        90.54749
376.62        90.02969
377.07        89.60162
377.52        89.23571
377.97         88.8643
378.42        88.38428
378.87        87.78716
379.32        87.12554
379.77        86.44961
380.22        85.81609
380.67        85.23226
381.11        84.67616
381.56        84.14994
382.01        83.68507
382.46        83.29214
382.91        82.97512
383.36        82.67553
383.81        82.29639
384.26        81.81821
384.71        81.26244
385.15        80.69508
385.60        80.28917
386.05        80.04591
386.50        79.91716
386.95        79.80047
387.40        79.54076
387.85        79.11998
388.29        78.55901
388.74        78.05119
389.19        77.66023
389.64        77.39587
390.09        77.19953
390.54        77.03864
390.98        76.85162
391.43        76.66549
391.88        76.49469
392.33        76.30622
392.78        76.08193
393.23        75.83262
393.67        75.43054
394.12        75.05114
394.57        74.99767
395.02        75.16985
395.47         75.0041
395.91         74.5351
396.36         74.2654
396.81        74.23502
397.26         74.1751
397.71         74.0122
398.15        73.76271
398.60        73.50648
399.05        73.07374
399.50        72.62795
399.95        72.62666
400.39        72.97288
400.84        73.06632
401.29        72.82399
401.74        72.41103
402.18        71.94854
402.63        71.69543
403.08        71.65196
403.53        71.47464
403.97        71.16454
404.42        71.01711
404.87        70.99973
405.32        70.94904
405.76        70.84064
406.21         70.6731
406.66        70.48126
407.11        70.45152
407.55        70.53714
408.00        70.41308
408.45         70.1036
408.90        69.75043
409.34        69.47256
409.79        69.54636
410.24         69.8541
410.68        69.92605
411.13        69.72634
411.58        69.52181
412.03        69.37888
412.47        69.30616
412.92        69.30248
413.37        69.37156
413.81        69.45593
414.26        69.52551
414.71        69.54468
415.15        69.54317
415.60        69.48576
416.05        69.37683
416.49        69.23026
416.94        69.04327
417.39        68.85838
417.83        68.73251
418.28        68.67976
418.73         68.6797
419.17        68.70224
419.62        68.70499
420.07        68.67308
420.51        68.61306
420.96        68.55122
421.41        68.48935
421.85        68.40908
422.30        68.31863
422.74        68.21714
423.19        68.28399
423.64        68.45874
424.08        68.59731
424.53        68.63213
424.98        68.64598
425.42        68.62377
425.87         68.8596
426.31        68.57047
426.76        68.74034
427.21        69.07113
427.65        69.24127
428.10        69.16756
428.54        69.07712
428.99        69.01313
429.44        68.84438
429.88        68.61172
430.33        68.46612
430.77         68.4015
431.22        68.60167
431.66        68.95175
432.11        69.13148
432.56        69.11963
433.00        68.97596
433.45        68.65714
433.89        68.55519
434.34        69.21675
434.78         68.6218
435.23        68.14698
435.67        69.12906
436.12        68.99014
436.57        69.52336
437.01        68.95689
437.46        68.71957
437.90        69.21422
438.35         69.6238
438.79        69.64387
439.24        69.68018
439.68        69.60794
440.13        69.45707
440.57          69.266
441.02        69.15011
441.46        69.15902
441.91        69.22514
442.35        69.28201
442.80        69.78086
443.24        70.48322
443.69        70.44011
444.13         69.7525
444.58        69.44759
445.02        69.58183
445.47        69.75337
445.91        69.86568
446.36         69.9532
446.80        69.98112
447.24        69.91542
447.69        69.82724
448.13          70.009
448.58         70.2156
449.02        70.24538
449.47        70.05687
449.91        69.97003
450.36        70.01591
450.80        69.92327
451.25        69.76195
451.69        69.81232
452.13        70.02804
452.58        70.04198
453.02        69.83797
453.47        69.70257
453.91        69.62882
454.36        69.46566
454.80        69.23894
455.24        69.05054
455.69        68.92181
456.13        68.86587
456.58        68.92019
457.02        68.78006
457.46        68.67504
457.91        68.88846
458.35        68.79118
458.79        68.77676
459.24        68.67395
459.68        68.52341
460.13        68.36932
460.57        68.22932
461.01        68.15085
461.46        68.03758
461.90        67.82414
462.34        67.98821
462.79        67.69681
463.23        67.65871
463.68        67.97027
464.12        67.70547
464.56        67.14865
465.01        67.29337
465.45        67.91721
465.89        68.06733
466.34        67.74618
466.78        67.46207
467.22        67.31336
467.67          67.159
468.11        67.00383
468.55        66.86051
468.99        66.71731
469.44        66.58485
469.88        66.46259
470.32        66.32895
470.77        66.20487
471.21        66.13481
471.65        66.11662
472.10        66.13469
472.54         66.1535
472.98        66.12577
473.42         66.0532
473.87        65.99662
474.31        65.91393
474.75        65.81203
475.20        65.76083
475.64        65.57432
476.08        65.98503
476.52         66.0188
476.97        65.85139
477.41        65.94542
477.85        66.16443
478.29        65.59415
478.74        65.49605
479.18        65.29246
479.62        65.85236
480.06        65.98208
480.50        65.84116
480.95        65.75961
481.39        65.71846
481.83        65.84792
482.27        65.82672
482.72        65.75639
483.16        65.90517
483.60        65.82645
484.04        66.03548
484.48        65.79046
484.93        65.59641
485.37        65.53033
485.81         65.9482
486.25        65.47243
486.69        66.88644
487.14        67.11169
487.58        66.26415
488.02        65.48547
488.46        65.45944
488.90        65.80883
489.34        65.36955
489.79        65.04287
490.23        65.08804
490.67        65.14626
491.11        65.32465
491.55        65.23103
491.99        64.93764
492.43        64.83246
492.88        64.93843
493.32        65.07594
493.76         65.1372
494.20        65.15558
494.64        65.13961
495.08        64.74305
495.52        64.57582
495.96        64.68284
496.41        65.10534
496.85        65.30179
497.29         65.1828
497.73        65.19151
498.17        65.00924
498.61        65.08262
499.05        65.22718
499.49        64.89614
499.93         64.2847
500.37        64.27155
500.82        64.77988
501.26        65.12282
501.70        65.19558
502.14        64.80857
502.58        64.59219
503.02        64.40971
503.46        64.39968
503.90        64.40596
504.34        64.37641
504.78        64.36984
505.22        64.39441
505.66        64.35799
506.10        64.28168
506.54        64.35482
506.98        64.60947
507.42        64.10232
507.86        64.99226
508.30        64.19694
508.74        64.67603
509.18        64.49299
509.62        64.37766
510.06        64.32169
510.50        64.31218
510.94        64.26121
511.38        64.14779
511.82        64.07612
512.26        64.04449
512.70        64.00419
513.14         63.9597
513.58        63.93615
514.02        63.93367
514.46        63.94746
514.90        63.95065
515.34        63.93387
515.78        63.89729
516.22        63.82568
516.66        63.59601
517.10        63.82467
517.54        63.69592
517.98        63.83554
518.42         63.9573
518.86        64.01392
519.30        63.98788
519.74         63.8606
520.18        63.71326
520.62        63.75266
521.06        63.95049
521.50        64.04236
521.93        63.99261
522.37        63.94923
522.81        63.90927
523.25        63.77454
523.69        63.58519
524.13        63.46054
524.57        63.42178
525.01        63.43536
525.45        63.48741
525.89        63.55428
526.32        63.62114
526.76        63.70181
527.20         63.7827
527.64        63.84352
528.08        63.87754
528.52        63.88333
528.96        63.87589
529.40        63.87581
529.83         63.8845
530.27        63.92607
530.71        63.95945
531.15        63.92237
531.59        63.81807
532.03        63.64783
532.46         63.4464
532.90        63.37724
533.34        63.47343
533.78        63.32926
534.22        63.56333
534.66         63.5806
535.09        63.55055
535.53        63.49722
535.97        63.44263
536.41        63.42694
536.85        63.45377
537.28        63.51029
537.72         63.5723
538.16        63.60629
538.60        63.60071
539.04        63.56856
539.47        63.50745
539.91        63.46474
540.35        63.43318
540.79        63.41179
541.22        63.39277
541.66        63.37746
542.10        63.36202
542.54        63.34724
542.97        63.33907
543.41         63.3777
543.85        63.45634
544.29        63.56989
544.72        63.67049
545.16        63.72453
545.60        63.70696
546.04        63.60671
546.47        63.48338
546.91        63.45735
547.35        63.51489
547.79        63.61561
548.22        63.67882
548.66        63.52367
549.10        63.24608
549.53        63.25084
549.97        63.51417
550.41        63.61274
550.84        63.53386
551.28        63.49304
551.72         63.4942
552.15        63.54784
552.59        63.68851
553.03        63.43304
553.46          63.672
553.90        63.59772
554.34         63.4472
554.77        63.51029
555.21        63.31182
555.65        63.33225
556.08        63.40133
556.52        63.59844
556.96        63.82106
557.39        63.81273
557.83         63.6258
558.27        63.54384
558.70        63.60353
559.14        63.61471
559.57        63.56697
560.01        63.70461
560.45        63.91347
560.88        63.78189
561.32        63.43896
561.75        63.25267
562.19        63.29588
562.63        63.46122
563.06         63.6436
563.50        63.56212
563.93         63.2623
564.37        63.17647
564.80        63.30337
565.24        63.44575
565.68        63.54888
566.11        63.62291
566.55        63.67416
566.98        63.67855
567.42        63.67701
567.85        63.69091
568.29        63.74583
568.72        63.74429
569.16        63.76215
569.60        63.74304
570.03         63.9992
570.47        64.15222
570.90        64.20206
571.34        64.39896
571.77        64.69775
572.21          64.279
572.64        64.32639
573.08        64.10753
573.51         64.0237
573.95        64.46152
574.38        64.43351
574.82        64.73267
