SpectraSmart Spectrum 2.9.0.0
--------- Device Information -----------
Spectrum Name :  反射率_0
Saving Time :  2024/04/21 00:57:15
Spectro-Module Model Name : SE2030-DUVN
Spectro-Module Serial Number : OS361AC55029948
Wavelength Start : 200
Wavelength End : 1025
Wavelength Unit : Wavelength(nm)
Spectrum Unit : Reflectance(%)
-----------Spectrum Setting ------------
Integration Time : 20ms
Average : 10
Boxcar : 0
Background removal :  enabled
linearity correction :  enabled
SC :  disabled
Intensity correction :  disabled
DWT denoise :  enabled
savitzky-golay :  disabled
FFT :  disabled
Running average :  disabled
Kalman :  disabled
High pass :  disabled
---------------BEGIN--------------------
Wavelength(nm)             Reflectance(%)
200.29               0
200.75         6.43419
201.21        33.82064
201.67        46.93375
202.13        49.59576
202.58        45.65392
203.04         36.8562
203.50        24.77899
203.96        15.89187
204.42        13.77175
204.88         15.5653
205.34        18.90701
205.80        20.17168
206.26        18.09912
206.72        15.48649
207.18         9.28731
207.64       -7.170638
208.10       -32.22599
208.55       -62.12499
209.01       -73.79765
209.47       -44.38211
209.93       -4.519675
210.39        26.60579
210.85        46.49399
211.31        56.20971
211.77        59.22882
212.23        57.61743
212.69        48.50178
213.14        24.66125
213.60       -32.28868
214.06       -220.7203
214.52       -707.2828
214.98       -347.4212
215.44       -97.50403
215.90       -9.207233
216.36        21.04126
216.81        24.74331
217.27        7.136378
217.73       -87.52621
218.19        1052.786
218.65         437.666
219.11       -900.5173
219.57       -25.96283
220.02        28.62553
220.48        37.40824
220.94        30.39806
221.40         5.39158
221.86       -54.78018
222.32        -96.4918
222.77       -45.56579
223.23       0.2230055
223.69        23.66339
224.15        31.80905
224.61        32.00147
225.06        28.81091
225.52          22.966
225.98        14.90928
226.44        5.609576
226.90       -6.392408
227.36       -15.22874
227.81       -10.03948
228.27        4.333658
228.73        19.81401
229.19        30.07368
229.65        32.05721
230.10        27.08001
230.56        16.90225
231.02        3.391234
231.48       -5.566004
231.93       -4.500094
232.39        3.469959
232.85        12.25994
233.31        16.71012
233.77        17.04742
234.22         15.4645
234.68        12.96047
235.14        11.29599
235.60        11.55249
236.05        12.24422
236.51        12.94718
236.97        19.27072
237.43        30.88976
237.88        37.27889
238.34         34.3868
238.80        56.81627
239.26        44.53427
239.71        41.73029
240.17        32.03625
240.63        21.45875
241.08        14.02934
241.54        14.06707
242.00        22.77209
242.46        28.62981
242.91        28.81025
243.37        24.76555
243.83        19.09283
244.28        20.43513
244.74        31.57563
245.20        45.70341
245.66        55.98353
246.11        56.45386
246.57        46.93506
247.03        29.66595
247.48        6.872598
247.94        -18.4538
248.40       -50.72901
248.85       -118.4443
249.31       -313.4799
249.77       -462.8309
250.22       -164.2479
250.68       -40.55222
251.14       0.3359017
251.59        14.81578
252.05        20.21731
252.51        21.79118
252.96        19.25748
253.42        13.87155
253.88         8.34378
254.33        4.043498
254.79        5.993704
255.25        15.10229
255.70        26.22609
256.16         36.0789
256.62        42.73857
257.07        45.29038
257.53        45.38318
257.99        44.26583
258.44        42.91487
258.90        42.70048
259.35        43.06054
259.81        43.70982
260.27        43.98857
260.72         43.3279
261.18        42.15192
261.63        40.68492
262.09        39.31199
262.55        38.06671
263.00        36.90408
263.46        35.90965
263.91        34.99976
264.37        34.40285
264.83        34.02708
265.28        33.74771
265.74        33.53487
266.19        33.21358
266.65        32.77768
267.11        32.23372
267.56        31.50888
268.02        30.57041
268.47        29.41709
268.93        28.13183
269.38        26.85173
269.84        25.83916
270.30        25.14689
270.75        24.70185
271.21         24.4268
271.66        24.13565
272.12        23.77749
272.57        23.37353
273.03        22.93165
273.48        22.44443
273.94        21.93675
274.39        21.39115
274.85        20.84975
275.31        20.32936
275.76        19.84801
276.22        19.44177
276.67        19.12996
277.13        18.98306
277.58        18.96295
278.04        19.03389
278.49        19.10288
278.95        19.09655
279.40        18.95561
279.86        18.72092
280.31         18.3735
280.77        17.95079
281.22        17.46198
281.68        16.97586
282.13        16.49774
282.59        16.09026
283.04        15.75549
283.50        15.48637
283.95        15.34294
284.41        15.42062
284.86        15.70046
285.32         16.1454
285.77         16.5676
286.22        16.69719
286.68        16.52496
287.13        16.11616
287.59        15.73562
288.04        15.68986
288.50         16.0034
288.95        16.69721
289.41        17.59507
289.86        17.92619
290.32         17.5406
290.77        18.59986
291.22        17.72811
291.68        17.92308
292.13        18.21748
292.59         18.6581
293.04        19.20239
293.50        19.86314
293.95        20.65383
294.40        21.55616
294.86        22.57163
295.31         23.6822
295.77        24.87176
296.22        26.12403
296.68         27.4166
297.13        28.71467
297.58         30.0329
298.04        31.39325
298.49        32.83437
298.95        34.43557
299.40        36.18682
299.85        38.05344
300.31        39.98265
300.76        41.87607
301.21        43.70953
301.67        45.52827
302.12        47.32119
302.58        49.17112
303.03        51.07456
303.48        53.05333
303.94        55.11987
304.39        57.24375
304.84        59.41091
305.30        61.62613
305.75        63.82135
306.20        65.99706
306.66        68.13753
307.11        70.18335
307.57        72.14026
308.02        73.95432
308.47        75.64044
308.93        77.24813
309.38         78.7461
309.83        80.13563
310.29        81.49786
310.74        82.75475
311.19        83.95415
311.65        85.12303
312.10        86.25008
312.55        87.33703
313.00        88.35524
313.46        89.25924
313.91        90.02791
314.36        90.69041
314.82        91.29028
315.27        91.88902
315.72        92.51138
316.18        93.13795
316.63         93.7488
317.08        94.31366
317.53        94.81615
317.99        95.26452
318.44        95.64848
318.89        95.93697
319.35        96.13062
319.80        96.24609
320.25        96.32867
320.70        96.45954
321.16        96.64947
321.61        96.89359
322.06        97.14532
322.51        97.33236
322.97        97.42337
323.42          97.478
323.87        97.50963
324.32        97.55976
324.78        97.62834
325.23          97.734
325.68        97.87222
326.13         98.0643
326.59        98.28451
327.04        98.58025
327.49        98.88117
327.94        99.10136
328.39        99.22083
328.85        99.22684
329.30        99.24776
329.75        99.38008
330.20        99.65336
330.66        100.0018
331.11        100.4023
331.56        100.6845
332.01         100.812
332.46        100.8315
332.92        100.7798
333.37        100.8562
333.82        101.0652
334.27        101.3687
334.72         101.733
335.17        102.1014
335.63        102.4193
336.08        102.7616
336.53        103.0946
336.98        103.4044
337.43        103.6896
337.88        103.9436
338.34        104.1666
338.79        104.4192
339.24        104.6922
339.69        104.9801
340.14         105.266
340.59        105.5258
341.05        105.7533
341.50        105.9563
341.95        106.1546
342.40        106.3842
342.85        106.6528
343.30        106.9569
343.75        107.2437
344.20        107.4329
344.66        107.5231
345.11         107.522
345.56        107.5275
346.01        107.6894
346.46        108.0315
346.91        108.4949
347.36        108.9449
347.81        109.2045
348.26        109.2409
348.72         109.016
349.17        108.8268
349.62         108.736
350.07        108.8442
350.52        109.0689
350.97        109.2968
351.42        109.3422
351.87        109.1521
352.32        108.7988
352.77        108.3514
353.22        107.9068
353.67        107.5064
354.13        107.1428
354.58        106.7938
355.03        106.4794
355.48        106.1978
355.93         105.945
356.38        105.7148
356.83        105.4908
357.28        105.2487
357.73        104.9709
358.18        104.6136
358.63        104.1179
359.08        103.4862
359.53         102.757
359.98        101.9794
360.43        101.2247
360.88        100.5169
361.33        99.83464
361.78        99.20042
362.23        98.64557
362.68        98.16315
363.13        97.74674
363.58        97.30453
364.03        96.68778
364.48        95.87151
364.93        94.89671
365.38         93.8884
365.83        93.05775
366.28        92.45149
366.73        91.99857
367.18        91.58907
367.63        91.04388
368.08        90.32034
368.53        89.49598
368.98        88.61938
369.43        87.75113
369.88        86.91851
370.33        86.09179
370.78        85.32079
371.23        84.71036
371.68        84.27729
372.13         83.9912
372.58        83.74826
373.03        83.36871
373.48        82.80132
373.93        82.09361
374.38        81.30964
374.83        80.57282
375.28        79.93967
375.72        79.36909
376.17        78.88171
376.62        78.44171
377.07         78.0239
377.52        77.62713
377.97        77.23749
378.42        76.83873
378.87        76.43259
379.32        76.02589
379.77        75.60748
380.22        75.15365
380.67        74.65543
381.11        74.11977
381.56        73.57426
382.01        73.08867
382.46        72.69088
382.91        72.36971
383.36        72.08075
383.81        71.75051
384.26         71.3559
384.71        70.91149
385.15        70.44533
385.60        70.06122
386.05        69.75433
386.50        69.50565
386.95        69.25322
387.40        68.90927
387.85        68.47447
388.29        67.94822
388.74         67.5023
389.19        67.19936
389.64        67.03685
390.09        66.95842
390.54        66.88844
390.98         66.6954
391.43        66.39658
391.88        66.04052
392.33        65.66171
392.78        65.33376
393.23         65.0824
393.67        64.76929
394.12        64.51291
394.57        64.51547
395.02        64.67958
395.47        64.56292
395.91        64.17875
396.36        63.90518
396.81        63.77841
397.26        63.59895
397.71        63.34263
398.15        63.06089
398.60        62.82467
399.05        62.50645
399.50        62.22327
399.95        62.23075
400.39         62.4674
400.84        62.69147
401.29         62.7686
401.74        62.36479
402.18        61.64779
402.63        61.41723
403.08        61.65226
403.53        61.56325
403.97        61.13847
404.42        60.92301
404.87        60.89898
405.32        60.83056
405.76        60.70049
406.21         60.4959
406.66        60.28725
407.11         60.3486
407.55         60.6086
408.00           60.67
408.45        60.48736
408.90        60.08298
409.34        59.61914
409.79        59.59039
410.24        59.90677
410.68        59.96066
411.13        59.72393
411.58        59.57475
412.03        59.54842
412.47        59.52222
412.92        59.47969
413.37        59.46997
413.81        59.46919
414.26        59.48494
414.71        59.49773
415.15        59.51666
415.60        59.51108
416.05        59.48488
416.49        59.44244
416.94         59.3763
417.39        59.30184
417.83        59.23896
418.28        59.19118
418.73        59.14162
419.17        59.08961
419.62        59.04617
420.07        59.01638
420.51        59.00189
420.96        58.98796
421.41         58.9473
421.85        58.86192
422.30        58.66618
422.74        58.43349
423.19        58.61789
423.64         59.1104
424.08        59.29459
424.53        59.08947
424.98        59.08438
425.42        59.31466
425.87        59.25531
426.31        59.00568
426.76        59.23415
427.21        59.81429
427.65        59.87484
428.10        59.42401
428.54        59.23559
428.99         59.3729
429.44        59.43164
429.88        59.35849
430.33        59.32969
430.77        59.31621
431.22        59.31799
431.66        59.35327
432.11        59.66798
432.56        60.14708
433.00        60.08764
433.45        59.37436
433.89        58.99349
434.34        59.15575
434.78        58.65857
435.23        58.66701
435.67         59.4701
436.12        59.93445
436.57        60.09354
437.01        59.65152
437.46        59.46753
437.90         60.2377
438.35        59.88911
438.79        60.23848
439.24        60.18178
439.68        60.23279
440.13        60.29121
440.57        60.30843
441.02         60.3868
441.46        60.47314
441.91        60.15556
442.35        59.64183
442.80         60.1636
443.24        61.41978
443.69        61.62686
444.13        60.76806
444.58        60.61259
445.02        60.60067
445.47        60.77434
445.91        60.88893
446.36        60.89347
446.80        60.74372
447.24         60.7233
447.69        60.94527
448.13        60.52722
448.58        61.06964
449.02        60.97336
449.47        60.75393
449.91        60.65125
450.36        60.70707
450.80        60.66056
451.25        60.54346
451.69        60.60558
452.13        60.79868
452.58        60.80196
453.02        60.61429
453.47        60.50293
453.91        60.46869
454.36        60.38679
454.80        60.27816
455.24        60.16365
455.69        60.05315
456.13        60.03307
456.58        60.21438
457.02        59.82465
457.46        60.49049
457.91         60.3709
458.35        60.10756
458.79        59.96492
459.24        60.00816
459.68        59.97514
460.13        59.88982
460.57        59.79979
461.01        59.62154
461.46        59.72446
461.90        59.68612
462.34        59.43529
462.79        59.39111
463.23        59.30316
463.68        59.31918
464.12        59.22864
464.56        59.07255
465.01        59.28025
465.45        59.62743
465.89        59.57541
466.34        59.23488
466.78        58.97392
467.22        58.85566
467.67        59.26344
468.11        59.24442
468.55        59.14994
468.99        58.78281
469.44        58.63768
469.88        58.73247
470.32        58.76656
470.77        58.71987
471.21        58.68931
471.65        58.67448
472.10        58.65639
472.54        58.61114
472.98         58.5611
473.42        58.52312
473.87        58.39465
474.31        58.21079
474.75        58.39462
475.20          58.811
475.64         58.7007
476.08        58.31672
476.52         58.1665
476.97        58.29157
477.41        58.57005
477.85        58.93472
478.29        58.41749
478.74        58.52562
479.18        58.35939
479.62        58.76976
480.06        58.87818
480.50        58.84592
480.95        58.82265
481.39        58.73567
481.83        59.01883
482.27        59.26915
482.72        58.74535
483.16         59.0378
483.60        59.25789
484.04        59.19183
484.48        58.97633
484.93        59.12589
485.37        58.66143
485.81        59.16962
486.25        58.87537
486.69        59.99383
487.14        60.27791
487.58        59.63208
488.02         59.5052
488.46        59.11419
488.90        59.84827
489.34        58.90282
489.79         58.8709
490.23        59.00214
490.67        59.32078
491.11          59.685
491.55        59.60991
491.99        59.20761
492.43        59.08282
492.88        59.27907
493.32        59.42712
493.76        59.44163
494.20        59.50568
494.64        59.63987
495.08        59.39641
495.52        59.37646
495.96        59.52704
496.41        59.87648
496.85        59.71701
497.29        59.14952
497.73        59.13391
498.17        59.34624
498.61        59.64205
499.05         59.7827
499.49        59.58049
499.93        59.19318
500.37        59.21987
500.82        59.60997
501.26        59.89665
501.70        59.97725
502.14        59.60444
502.58        59.37039
503.02        59.22049
503.46        59.28414
503.90        59.39127
504.34        59.46826
504.78        59.52596
505.22        59.55153
505.66        59.50121
506.10        59.40352
506.54        59.41587
506.98        59.56803
507.42        59.29942
507.86        59.73677
508.30        59.47176
508.74        59.67391
509.18        59.63492
509.62        59.60674
510.06        59.57944
510.50        59.53329
510.94        59.40023
511.38         59.2197
511.82        59.14344
512.26        59.18626
512.70        59.28731
513.14        59.39391
513.58        59.43859
514.02        59.39967
514.46        59.29352
514.90        59.16051
515.34        59.10854
515.78        59.16245
516.22        59.25461
516.66         59.1819
517.10        59.47131
517.54        59.18623
517.98        59.07095
518.42        58.91178
518.86        58.82506
519.30        58.83199
519.74        58.87183
520.18        58.92311
520.62        59.02232
521.06        59.11087
521.50        58.99567
521.93        58.73914
522.37        58.62783
522.81         58.6924
523.25         58.7852
523.69        58.85763
524.13        58.89125
524.57        58.87155
525.01         58.8105
525.45        58.74226
525.89        58.72009
526.32        58.75216
526.76        58.81878
527.20        58.89413
527.64        58.94154
528.08        58.94727
528.52        58.92867
528.96        58.88211
529.40        58.79342
529.83        58.66727
530.27        58.53788
530.71        58.42452
531.15         58.3559
531.59        58.34158
532.03        58.38019
532.46         58.4406
532.90        58.48381
533.34         58.4917
533.78        58.47268
534.22        58.44348
534.66        58.43103
535.09        58.43373
535.53        58.46354
535.97        58.48834
536.41         58.4761
536.85        58.42268
537.28        58.33798
537.72        58.26156
538.16        58.25727
538.60         58.3323
539.04        58.46339
539.47        58.58057
539.91        58.62705
540.35        58.57437
540.79          58.454
541.22        58.31107
541.66        58.23138
542.10        58.23358
542.54        58.28941
542.97        58.36924
543.41        58.45554
543.85        58.53005
544.29        58.61475
544.72        58.68298
545.16        58.72855
545.60         58.7359
546.04        58.67797
546.47         58.6179
546.91        58.68008
547.35        58.84278
547.79        59.06973
548.22        59.24483
548.66        59.10869
549.10        58.76355
549.53        58.68677
549.97        58.88391
550.41        58.93089
550.84        58.82428
551.28        58.82281
551.72        58.91192
552.15        58.98516
552.59         59.0563
553.03        58.93876
553.46        59.02813
553.90        59.02765
554.34        59.04259
554.77        59.09905
555.21          59.121
555.65        59.19123
556.08         59.2646
556.52        59.37148
556.96        59.46673
557.39          59.476
557.83        59.39909
558.27        59.31141
558.70        59.13061
559.14         59.0857
559.57        59.13777
560.01        59.34779
560.45         59.5911
560.88        59.55494
561.32        59.33304
561.75         59.1831
562.19        59.19207
562.63        59.33931
563.06        59.52746
563.50        59.47774
563.93        59.21567
564.37        59.06412
564.80         59.0638
565.24        59.22129
565.68        59.47091
566.11        59.61028
566.55         59.6281
566.98          59.675
567.42        59.76653
567.85        59.69197
568.29        59.54168
568.72        59.57236
569.16        59.81931
569.60        59.81511
570.03        59.83416
570.47        59.90379
570.90         60.0885
571.34        59.87397
571.77        60.45078
572.21         60.1587
572.64        60.10265
573.08        60.19153
573.51        60.33423
573.95        60.76793
574.38        60.53561
574.82        60.64324
