SpectraSmart Spectrum 2.9.0.0
--------- Device Information -----------
Spectrum Name :  反射率_0
Saving Time :  2024/04/21 00:04:17
Spectro-Module Model Name : SE2030-DUVN
Spectro-Module Serial Number : OS361AC55029948
Wavelength Start : 200
Wavelength End : 1025
Wavelength Unit : Wavelength(nm)
Spectrum Unit : Reflectance(%)
-----------Spectrum Setting ------------
Integration Time : 20ms
Average : 10
Boxcar : 0
Background removal :  enabled
linearity correction :  enabled
SC :  disabled
Intensity correction :  disabled
DWT denoise :  enabled
savitzky-golay :  disabled
FFT :  disabled
Running average :  disabled
Kalman :  disabled
High pass :  disabled
---------------BEGIN--------------------
Wavelength(nm)             Reflectance(%)
200.29               0
200.75       -83.37473
201.21       -18.56946
201.67        17.61689
202.13        29.78115
202.58        27.25227
203.04         15.3768
203.50       -2.115009
203.96       -13.98275
204.42       -14.16754
204.88       -7.209885
205.34        1.426876
205.80        4.221848
206.26       -1.159737
206.72       -11.77293
207.18       -26.88324
207.64       -43.57951
208.10        -56.2505
208.55       -65.24811
209.01        -59.5673
209.47       -32.23366
209.93       -4.473703
210.39        15.16339
210.85        26.85816
211.31         31.7989
211.77        32.15429
212.23        28.92908
212.69        19.13642
213.14       -3.946047
213.60       -55.40008
214.06       -222.3519
214.52       -624.1799
214.98       -277.7207
215.44        -63.2319
215.90        8.710455
216.36        32.15936
216.81         33.6911
217.27        16.50741
217.73       -72.01358
218.19        991.8726
218.65        422.1382
219.11       -868.1492
219.57       -22.63564
220.02        30.17033
220.48        37.98844
220.94        29.60707
221.40         1.83218
221.86       -64.32501
222.32       -110.2906
222.77       -54.36155
223.23       -3.605905
223.69        22.59181
224.15         32.0402
224.61        32.85704
225.06        29.81024
225.52        24.18587
225.98        17.27164
226.44         10.1669
226.90        1.428748
227.36       -4.860983
227.81       -1.107736
228.27        9.165139
228.73        20.41802
229.19        28.00503
229.65        29.52285
230.10        26.01546
230.56        19.21378
231.02        10.51918
231.48        5.037234
231.93        6.306057
232.39        12.27168
232.85        18.72908
233.31        22.15505
233.77        22.79875
234.22        22.26202
234.68        21.07097
235.14        20.14455
235.60        20.17409
236.05         20.0207
236.51        19.60324
236.97        24.72872
237.43         35.4287
237.88        41.74129
238.34         39.5932
238.80        60.23525
239.26        48.13139
239.71        43.88159
240.17        32.60439
240.63        21.80715
241.08        17.05707
241.54        22.92785
242.00        37.59348
242.46        45.60126
242.91        42.51093
243.37        28.54618
243.83        7.121617
244.28       -4.744843
244.74        3.252647
245.20        21.81954
245.66        40.28238
246.11        48.83135
246.57        46.50971
247.03         36.8788
247.48        22.44488
247.94        7.237386
248.40       -10.13996
248.85       -46.65007
249.31        -153.487
249.77       -245.2589
250.22       -86.42512
250.68       -16.83526
251.14        5.886141
251.59        11.24468
252.05        8.933509
252.51        1.842394
252.96       -9.478424
253.42       -16.99735
253.88       -13.72297
254.33       -3.010864
254.79        12.16327
255.25        27.44868
255.70        39.39813
256.16        47.84824
256.62        53.15831
257.07        55.74618
257.53        56.91162
257.99        57.17279
258.44        56.62502
258.90        55.98019
259.35        54.92556
259.81        53.84908
260.27        52.79578
260.72        51.90713
261.18        51.43303
261.63        51.01486
262.09        50.55754
262.55        49.57727
263.00         48.0621
263.46        46.39263
263.91        44.76939
264.37        43.84679
264.83        43.56011
265.28        43.62103
265.74        43.76569
266.19        43.47352
266.65        42.72865
267.11        41.64235
267.56        40.40559
268.02        39.39285
268.47        38.64125
268.93        38.07497
269.38        37.48653
269.84        36.62449
270.30        35.44094
270.75        34.05198
271.21        32.70254
271.66        31.69297
272.12        31.10474
272.57        30.79358
273.03        30.58324
273.48        30.17909
273.94        29.53722
274.39        28.73827
274.85         27.9088
275.31        27.16731
275.76        26.55849
276.22        26.07286
276.67        25.69518
277.13         25.4797
277.58        25.37119
278.04        25.36029
278.49        25.34957
278.95        25.27364
279.40        25.06732
279.86         24.7772
280.31        24.37901
280.77        23.92378
281.22        23.41057
281.68         22.9059
282.13        22.40638
282.59        21.97725
283.04        21.61299
283.50        21.31882
283.95        21.13294
284.41        21.13113
284.86        21.29265
285.32        21.59412
285.77        21.88596
286.22        21.96597
286.68        21.82755
287.13        21.50152
287.59        21.19492
288.04        21.12075
288.50        21.29329
288.95         21.7553
289.41         22.3816
289.86        22.49282
290.32        21.97184
290.77        22.85851
291.22        21.95157
291.68        22.08281
292.13        22.32797
292.59        22.73023
293.04        23.26578
293.50        23.97346
293.95        24.85972
294.40        25.89482
294.86        27.01588
295.31        28.10635
295.77        29.13925
296.22        30.13012
296.68         31.1486
297.13        32.30181
297.58        33.62862
298.04        35.09601
298.49        36.65788
298.95        38.25929
299.40        39.85509
299.85        41.46494
300.31        43.07601
300.76        44.64708
301.21        46.18472
301.67        47.71846
302.12        49.26771
302.58         50.9637
303.03        52.80213
303.48        54.79712
303.94        56.89558
304.39        58.96078
304.84        60.96029
305.30        62.92672
305.75        64.86999
306.20         66.9133
306.66        69.06029
307.11        71.20859
307.57        73.28001
308.02        75.09361
308.47        76.64571
308.93        78.03642
309.38        79.31649
309.83        80.61401
310.29        82.03957
310.74         83.4736
311.19         84.9065
311.65        86.27546
312.10        87.54182
312.55         88.7358
313.00        89.84988
313.46        90.87373
313.91        91.79063
314.36        92.59961
314.82        93.34228
315.27        94.08204
315.72        94.84238
316.18        95.61929
316.63        96.35482
317.08        96.95265
317.53          97.397
317.99        97.71793
318.44        98.00664
318.89        98.39553
319.35        98.90788
319.80        99.49999
320.25        100.0835
320.70        100.5202
321.16        100.7645
321.61        100.8831
322.06        100.9221
322.51        100.9648
322.97        101.0335
323.42         101.139
323.87        101.2848
324.32        101.4951
324.78        101.7508
325.23        102.0913
325.68        102.4548
326.13        102.7628
326.59        102.9698
327.04        103.1385
327.49        103.2927
327.94        103.5154
328.39        103.8294
328.85        104.1824
329.30         104.585
329.75        104.9252
330.20        105.1771
330.66        105.3267
331.11        105.4932
331.56         105.739
332.01        106.0922
332.46        106.5375
332.92        106.9601
333.37        107.3066
333.82        107.5113
334.27        107.6175
334.72        107.7495
335.17        108.1121
335.63        108.7209
336.08        109.5677
336.53        110.4846
336.98        111.2408
337.43        111.7593
337.88        112.0938
338.34        112.3112
338.79        112.5898
339.24        112.9594
339.69        113.3762
340.14        113.7931
340.59        114.1454
341.05        114.4212
341.50        114.6595
341.95        114.9118
342.40        115.2552
342.85        115.7029
343.30        116.2257
343.75        116.7426
344.20        117.1335
344.66        117.3795
345.11        117.4957
345.56        117.5692
346.01        117.7385
346.46        118.0362
346.91        118.4004
347.36        118.7368
347.81        118.9602
348.26        119.0596
348.72        118.8693
349.17         118.855
349.62        118.8352
350.07        118.9622
350.52        119.1715
350.97        119.4073
351.42        119.5741
351.87        119.6242
352.32        119.5807
352.77        119.4417
353.22        119.2021
353.67        118.8764
354.13        118.4946
354.58        118.0531
355.03        117.6069
355.48        117.1782
355.93        116.7543
356.38        116.3758
356.83        116.0951
357.28         115.896
357.73        115.7507
358.18        115.5359
358.63        115.0578
359.08        114.2907
359.53        113.3087
359.98        112.2609
360.43        111.3762
360.88        110.7088
361.33         110.187
361.78        109.7265
362.23        109.1904
362.68        108.5344
363.13        107.8085
363.58        107.0259
364.03        106.2008
364.48        105.3487
364.93        104.4609
365.38        103.5746
365.83        102.7605
366.28        102.0317
366.73        101.3672
367.18        100.7329
367.63        100.0676
368.08        99.35486
368.53        98.62225
368.98        97.85899
369.43        97.03821
369.88        96.15948
370.33          95.222
370.78        94.29528
371.23        93.51823
371.68        92.92952
372.13          92.493
372.58        92.11887
373.03        91.64742
373.48        91.03017
373.93        90.31372
374.38        89.54608
374.83        88.82061
375.28        88.17946
375.72        87.57585
376.17        87.04088
376.62        86.54689
377.07        86.06793
377.52        85.59878
377.97        85.10817
378.42        84.55701
378.87        83.95437
379.32        83.32726
379.77        82.70382
380.22        82.10969
380.67        81.54237
381.11        80.99465
381.56        80.46396
382.01        79.97028
382.46        79.52878
382.91        79.14648
383.36        78.79504
383.81        78.42633
384.26        78.02399
384.71        77.58813
385.15        77.14697
385.60        76.81075
386.05        76.56773
386.50        76.39543
386.95         76.2051
387.40        75.86703
387.85        75.37649
388.29        74.74343
388.74        74.18394
389.19        73.80257
389.64        73.60577
390.09        73.52686
390.54        73.46377
390.98        73.23993
391.43        72.86639
391.88         72.4064
392.33        71.92925
392.78        71.54376
393.23        71.27842
393.67        71.01379
394.12        70.82998
394.57        70.77572
395.02        70.78346
395.47        70.62605
395.91        70.31828
396.36        70.05697
396.81        69.88174
397.26        69.70686
397.71        69.49704
398.15        69.25814
398.60        69.06683
399.05        68.72659
399.50        68.38651
399.95        68.51025
400.39         68.9615
400.84        69.10718
401.29        68.84563
401.74        68.24628
402.18        67.51817
402.63        67.25369
403.08        67.40636
403.53         67.2365
403.97        66.72813
404.42        66.42155
404.87        66.33305
405.32        66.25732
405.76         66.1748
406.21        66.11505
406.66        66.08633
407.11        66.13621
407.55        66.24011
408.00        66.31892
408.45        66.31031
408.90        65.96413
409.34        65.40199
409.79         65.1804
410.24        65.29051
410.68        65.28296
411.13        65.15228
411.58        65.19076
412.03        65.36287
412.47        65.45467
412.92        65.40895
413.37        65.30083
413.81        65.16895
414.26        65.12142
414.71        65.16206
415.15        65.27411
415.60        65.38074
416.05        65.41377
416.49        65.35406
416.94        65.21532
417.39        65.06069
417.83        64.97699
418.28        64.98373
418.73          65.049
419.17        65.10805
419.62        65.06702
420.07        64.91119
420.51        64.67949
420.96        64.46143
421.41        64.34738
421.85         64.3339
422.30        64.40945
422.74        64.51972
423.19        64.72157
423.64        64.97458
424.08        65.23712
424.53        65.39983
424.98        65.51218
425.42        65.58604
425.87        65.41563
426.31        65.13766
426.76        65.33338
427.21        65.89944
427.65        65.98733
428.10         65.5745
428.54        65.57544
428.99        65.66538
429.44        65.79152
429.88        65.78759
430.33        65.72829
430.77        65.61626
431.22        65.71979
431.66        66.00615
432.11        66.28365
432.56        66.52448
433.00        66.60473
433.45        66.31546
433.89        66.19463
434.34        66.46545
434.78        65.44015
435.23        65.36117
435.67         66.6807
436.12        67.04198
436.57        67.30717
437.01        66.78799
437.46        66.46482
437.90        67.05034
438.35        67.31509
438.79        67.22078
439.24         67.2441
439.68        67.34702
440.13        67.35867
440.57        67.29554
441.02         67.5424
441.46        67.97492
441.91        67.84908
442.35        67.30164
442.80          67.594
443.24        68.51521
443.69        68.62339
444.13        67.91814
444.58        67.90946
445.02         67.8852
445.47        68.18601
445.91        68.45863
446.36        68.56984
446.80        68.47404
447.24        68.28361
447.69        68.12616
448.13        68.15347
448.58        68.40182
449.02        68.46024
449.47        68.34743
449.91        68.33625
450.36        68.44344
450.80         68.4105
451.25        68.28637
451.69         68.3203
452.13        68.47208
452.58        68.39966
453.02        68.12408
453.47        67.98374
453.91        67.98083
454.36        67.94007
454.80         67.8736
455.24         67.8468
455.69        67.86568
456.13        67.95966
456.58         68.1011
457.02        67.90252
457.46        67.66522
457.91        67.48851
458.35        67.54359
458.79        67.45161
459.24        67.26221
459.68        67.12756
460.13        67.07669
460.57        67.10065
461.01        66.58112
461.46        67.02045
461.90        66.50288
462.34        66.54924
462.79        66.53679
463.23        66.55164
463.68        66.81725
464.12        66.52688
464.56        65.96753
465.01        66.22789
465.45        66.97882
465.89        66.93543
466.34        66.25014
466.78        65.86815
467.22        65.81946
467.67        66.29481
468.11        65.81984
468.55        65.71934
468.99        65.58849
469.44        65.51477
469.88        65.49079
470.32        65.43129
470.77        65.34873
471.21        65.28648
471.65        65.24696
472.10        65.21968
472.54          65.167
472.98        65.06432
473.42        64.91575
473.87        64.73167
474.31        64.54794
474.75        64.55054
475.20        64.71945
475.64        64.88723
476.08        64.98782
476.52        65.04033
476.97        65.01746
477.41        64.92448
477.85        64.79999
478.29        64.58969
478.74        64.67718
479.18         64.5646
479.62        64.90023
480.06        64.97318
480.50        64.96063
480.95        64.93652
481.39        64.87046
481.83        64.82051
482.27        65.34366
482.72        64.67619
483.16         65.0222
483.60        65.33395
484.04        65.35576
484.48        65.08726
484.93        65.11301
485.37        64.91344
485.81        65.47625
486.25        65.01494
486.69        65.70259
487.14        65.36713
487.58        64.77041
488.02        65.09898
488.46         64.7207
488.90         64.8593
489.34        64.58862
489.79        64.39285
490.23        64.52875
490.67        64.79373
491.11        65.17316
491.55        65.09332
491.99        64.64186
492.43        64.45135
492.88        64.56315
493.32        64.63203
493.76        64.56837
494.20        64.55743
494.64        64.62227
495.08        64.27325
495.52        64.10723
495.96        64.37114
496.41        65.00954
496.85        64.94408
497.29        64.22726
497.73        64.07059
498.17         64.1534
498.61         64.2233
499.05        64.12685
499.49        63.97532
499.93        63.85736
500.37        63.98924
500.82        64.28645
501.26        64.50402
501.70        64.55852
502.14        64.10709
502.58         63.7973
503.02        63.57979
503.46        63.60297
503.90        63.72157
504.34        63.84783
504.78        63.94811
505.22        64.00965
505.66        63.96424
506.10        63.82548
506.54        63.85818
506.98        64.12159
507.42        63.49812
507.86        64.09763
508.30        63.70743
508.74        63.85475
509.18        63.75593
509.62        63.69477
510.06        63.66102
510.50        63.62613
510.94        63.52671
511.38        63.38729
511.82        63.34514
512.26        63.40631
512.70        63.50109
513.14        63.59244
513.58        63.64039
514.02        63.62866
514.46        63.57578
514.90        63.48022
515.34        63.37578
515.78        63.28097
516.22        63.16586
516.66        62.91434
517.10        63.15964
517.54        63.06718
517.98        63.27162
518.42        63.45595
518.86        63.52668
519.30        63.45807
519.74        63.24871
520.18        63.00584
520.62        62.97691
521.06        63.14744
521.50        63.24321
521.93        63.22622
522.37        63.23651
522.81        63.26308
523.25        63.20912
523.69        63.09412
524.13         63.0047
524.57        62.95616
525.01        62.92131
525.45        62.90945
525.89        62.93713
526.32        62.99939
526.76        63.09874
527.20        63.20271
527.64        63.25968
528.08        63.25644
528.52        63.20555
528.96        63.13743
529.40        63.09436
529.83        63.08504
530.27        63.12774
530.71        63.17868
531.15        63.16524
531.59        63.07932
532.03         62.9547
532.46        62.83249
532.90        62.78992
533.34        62.83678
533.78        62.94364
534.22        63.06986
534.66        63.15485
535.09        63.17046
535.53        63.15512
535.97        63.10835
536.41        63.04702
536.85         62.9819
537.28        62.90954
537.72        62.84173
538.16        62.80171
538.60        62.79146
539.04        62.80441
539.47        62.81507
539.91        62.83411
540.35        62.83976
540.79        62.83968
541.22        62.82006
541.66        62.77394
542.10        62.70044
542.54         62.6032
542.97        62.50961
543.41        62.49488
543.85        62.56336
544.29        62.70426
544.72         62.8531
545.16        62.95611
545.60        62.98185
546.04        62.89626
546.47        62.77308
546.91         62.8227
547.35        63.00555
547.79        63.11285
548.22         63.0722
548.66        62.88993
549.10        62.63736
549.53        62.51554
549.97        62.54588
550.41        62.53166
550.84        62.47115
551.28        62.51288
551.72        62.63886
552.15        62.72337
552.59        62.75993
553.03        62.82033
553.46        62.82156
553.90         62.7981
554.34        62.71354
554.77        62.64085
555.21        62.65125
555.65         62.4611
556.08        62.64763
556.52        62.79099
556.96        63.00179
557.39        63.03597
557.83        62.88839
558.27        63.06257
558.70        62.88052
559.14        62.87586
559.57        62.83624
560.01        62.90393
560.45        63.00559
560.88        62.89787
561.32        62.68913
561.75        62.60986
562.19        62.70591
562.63        62.84583
563.06         62.9473
563.50        62.88709
563.93        62.68216
564.37        62.52345
564.80        62.45054
565.24         62.5545
565.68        62.78587
566.11        62.90462
566.55        62.90022
566.98         62.9896
567.42        63.14909
567.85        62.98701
568.29        62.64951
568.72        62.64726
569.16        62.99661
569.60        63.06723
570.03        63.14833
570.47        63.23101
570.90        63.33331
571.34        63.50021
571.77        63.65179
572.21        63.43382
572.64          63.475
573.08        63.29579
573.51        63.36282
573.95         63.7495
574.38        63.56139
574.82        64.05402
