SpectraSmart Spectrum 2.9.0.0
--------- Device Information -----------
Spectrum Name :  反射率_0
Saving Time :  2024/04/21 00:06:08
Spectro-Module Model Name : SE2030-DUVN
Spectro-Module Serial Number : OS361AC55029948
Wavelength Start : 200
Wavelength End : 1025
Wavelength Unit : Wavelength(nm)
Spectrum Unit : Reflectance(%)
-----------Spectrum Setting ------------
Integration Time : 20ms
Average : 10
Boxcar : 0
Background removal :  enabled
linearity correction :  enabled
SC :  disabled
Intensity correction :  disabled
DWT denoise :  enabled
savitzky-golay :  disabled
FFT :  disabled
Running average :  disabled
Kalman :  disabled
High pass :  disabled
---------------BEGIN--------------------
Wavelength(nm)             Reflectance(%)
200.29               0
200.75       -30.80682
201.21        7.439726
201.67        31.14651
202.13        42.72267
202.58        47.66375
203.04        50.75727
203.50        51.98228
203.96        49.92816
204.42        44.37838
204.88        34.60012
205.34        24.49316
205.80        19.18816
206.26        19.53236
206.72        27.49509
207.18        35.88975
207.64        25.71873
208.10       -8.014102
208.55       -56.72739
209.01       -88.64626
209.47       -66.39742
209.93        -23.3677
210.39        12.94136
210.85        37.17661
211.31        49.69884
211.77        54.74805
212.23        55.67328
212.69        51.18838
213.14        37.57747
213.60        3.602504
214.06       -115.0426
214.52       -429.0054
214.98       -198.5113
215.44       -37.09153
215.90        19.71119
216.36        39.22662
216.81        41.79535
217.27        30.81135
217.73       -28.72418
218.19        701.1798
218.65        322.4597
219.11       -672.7543
219.57       -14.83399
220.02        27.34076
220.48        34.23425
220.94        29.05757
221.40        10.13767
221.86       -32.78087
222.32       -51.94163
222.77       -4.178785
223.23        32.54274
223.69        49.21978
224.15        52.65396
224.61        48.74285
225.06        40.67268
225.52        30.40958
225.98         21.1441
226.44         14.6946
226.90        9.324497
227.36         8.04624
227.81        15.05147
228.27        25.79429
228.73        36.06784
229.19        42.60084
229.65        43.88159
230.10        40.88864
230.56        34.94622
231.02        26.97766
231.48        21.13189
231.93        20.66947
232.39        24.25723
232.85        28.81139
233.31        31.55824
233.77        32.53436
234.22        33.04938
234.68        32.97067
235.14        31.94004
235.60        30.25198
236.05        27.21939
236.51        23.52449
236.97        26.48627
237.43        36.91267
237.88        44.40312
238.34        45.02422
238.80        65.82826
239.26        57.69374
239.71        56.43536
240.17        49.38869
240.63        41.62297
241.08        36.67341
241.54        36.81793
242.00        43.53192
242.46        49.98724
242.91        55.02144
243.37        60.61425
243.83        66.58086
244.28        70.15261
244.74        69.05421
245.20        63.33972
245.66        54.92381
246.11        45.71472
246.57        35.66773
247.03        24.89555
247.48        11.84575
247.94       -7.389179
248.40       -41.15908
248.85       -124.0136
249.31       -380.0112
249.77       -587.4855
250.22       -195.6085
250.68       -32.37102
251.14        21.15142
251.59        39.30299
252.05        44.85013
252.51        44.62454
252.96        38.34234
253.42        28.04107
253.88        18.67918
254.33        12.03462
254.79        13.70401
255.25        24.31715
255.70        37.32612
256.16        48.85891
256.62        56.51799
257.07        59.12666
257.53        58.70857
257.99         56.7713
258.44        54.43832
258.90        53.30086
259.35        52.81504
259.81        52.78032
260.27         52.5559
260.72        51.61568
261.18        50.39294
261.63        48.97097
262.09        47.73904
262.55        46.67488
263.00        45.67633
263.46        44.83565
263.91        43.98964
264.37        43.32063
264.83        42.74156
265.28        42.18677
265.74        41.67721
266.19        41.05332
266.65        40.34686
267.11        39.54525
267.56        38.65087
268.02         37.7583
268.47         36.8528
268.93        35.95935
269.38        35.05414
269.84        34.15789
270.30        33.27159
270.75        32.40547
271.21        31.61357
271.66         30.9084
272.12        30.31711
272.57        29.81228
273.03        29.37039
273.48        28.92283
273.94         28.4682
274.39        27.98174
274.85        27.51747
275.31        27.09482
275.76        26.70883
276.22        26.38476
276.67         26.0625
277.13        25.72666
277.58        25.34755
278.04         24.9674
278.49        24.60541
278.95           24.36
279.40        24.19456
279.86        24.09753
280.31        23.97034
280.77        23.75123
281.22         23.3972
281.68        22.99282
282.13         22.5474
282.59        22.14642
283.04        21.79098
283.50        21.48086
283.95        21.23665
284.41        21.11418
284.86          21.104
285.32        21.20414
285.77        21.32333
286.22        21.33791
286.68        21.24885
287.13        21.05831
287.59        20.90804
288.04        20.90973
288.50        21.05484
288.95        21.41876
289.41        21.92269
289.86        21.95672
290.32        21.41641
290.77        22.32457
291.22        21.43309
291.68        21.55815
292.13        21.76053
292.59        22.10528
293.04         22.5668
293.50        23.17766
293.95         23.9532
294.40        24.86632
294.86        25.89448
295.31        26.98535
295.77        28.11971
296.22        29.29317
296.68        30.51752
297.13        31.80903
297.58        33.18885
298.04        34.65446
298.49        36.21002
298.95        37.88152
299.40        39.64388
299.85        41.48594
300.31        43.36493
300.76        45.19466
301.21        46.96599
301.67        48.72441
302.12        50.49066
302.58        52.39928
303.03        54.45035
303.48        56.65526
303.94        58.97515
304.39        61.29391
304.84        63.58071
305.30        65.86272
305.75        68.12421
306.20        70.45335
306.66        72.84748
307.11        75.20843
307.57        77.48636
308.02        79.53805
308.47        81.36833
308.93        83.06326
309.38        84.63663
309.83        86.17419
310.29        87.75749
310.74        89.29087
311.19         90.7971
311.65        92.27393
312.10        93.69123
312.55        95.05843
313.00        96.32368
313.46        97.40532
313.91        98.27763
314.36        98.97933
314.82        99.59856
315.27        100.2651
315.72        101.0261
316.18        101.8522
316.63        102.6835
317.08        103.4218
317.53        104.0298
317.99        104.5242
318.44        104.9484
318.89        105.3566
319.35        105.7622
319.80         106.161
320.25         106.501
320.70        106.7081
321.16        106.7714
321.61        106.7439
322.06        106.7236
322.51        106.8715
322.97        107.2057
323.42        107.7131
323.87        108.2684
324.32         108.678
324.78        108.8662
325.23        108.9268
325.68        108.9267
326.13         109.013
326.59        109.2043
327.04        109.5035
327.49        109.8436
327.94        110.1519
328.39        110.4024
328.85        110.5973
329.30        110.8076
329.75        111.0053
330.20        111.1999
330.66        111.3496
331.11        111.5527
331.56        111.8356
332.01        112.2082
332.46        112.6549
332.92        113.0813
333.37         113.472
333.82        113.7598
334.27        113.9777
334.72        114.1738
335.17        114.4318
335.63          114.75
336.08        115.1634
336.53        115.6404
336.98        116.1775
337.43         116.757
337.88        117.3742
338.34        117.9503
338.79        118.4166
339.24        118.7277
339.69        118.9071
340.14        119.0259
340.59         119.208
341.05        119.4891
341.50        119.8446
341.95        120.2323
342.40        120.5825
342.85        120.8731
343.30        121.1339
343.75        121.3709
344.20        121.5932
344.66        121.8166
345.11        122.0111
345.56        122.2005
346.01        122.4273
346.46         122.696
346.91        122.9688
347.36         123.186
347.81        123.3275
348.26         123.397
348.72        123.1538
349.17        123.1269
349.62        123.0205
350.07        123.0039
350.52         123.023
350.97        123.0545
351.42        123.0522
351.87        122.9834
352.32        122.8639
352.77        122.6497
353.22          122.27
353.67        121.7252
354.13        121.0572
354.58        120.3281
355.03        119.6985
355.48        119.2106
355.93        118.8257
356.38        118.4831
356.83        118.0766
357.28        117.5691
357.73         116.989
358.18        116.3486
358.63        115.6767
359.08        114.9914
359.53        114.2792
359.98        113.5544
360.43         112.838
360.88        112.1271
361.33        111.4191
361.78        110.6878
362.23         109.889
362.68        109.0217
363.13        108.1071
363.58        107.1788
364.03        106.2877
364.48        105.4455
364.93        104.6345
365.38        103.8425
365.83        103.0503
366.28        102.2493
366.73        101.4454
367.18        100.6292
367.63        99.78823
368.08        98.92364
368.53        98.04083
368.98        97.15176
369.43         96.2635
369.88        95.37526
370.33        94.48936
370.78        93.60246
371.23         92.7263
371.68        91.88078
372.13        91.06808
372.58        90.32781
373.03        89.70325
373.48        89.18267
373.93        88.74722
374.38        88.30459
374.83        87.71489
375.28        86.96405
375.72        86.08831
376.17        85.23151
376.62        84.53259
377.07          84.007
377.52        83.58862
377.97        83.19975
378.42        82.72733
378.87        82.14834
379.32        81.51836
379.77        80.86214
380.22        80.19327
380.67         79.5141
381.11        78.81705
381.56        78.12834
382.01        77.52378
382.46        77.03388
382.91        76.65108
383.36          76.323
383.81        75.96036
384.26        75.53262
384.71        75.05054
385.15         74.5453
385.60         74.1312
386.05        73.80037
386.50        73.52633
386.95        73.23106
387.40        72.80489
387.85        72.25081
388.29        71.58363
388.74        71.00209
389.19         70.5892
389.64        70.35108
390.09        70.23142
390.54        70.14916
390.98        69.96371
391.43        69.68274
391.88        69.34134
392.33        68.98677
392.78        68.69871
393.23         68.4957
393.67        68.27337
394.12        68.09222
394.57        67.97842
395.02        67.86775
395.47         67.5415
395.91        67.07802
396.36        66.77475
396.81        66.69038
397.26        66.70859
397.71        66.70593
398.15        66.56615
398.60        66.34116
399.05        65.85531
399.50        65.33406
399.95        65.39422
400.39        65.89598
400.84        66.06941
401.29        65.78328
401.74        65.15161
402.18        64.38123
402.63        64.04969
403.08        64.13058
403.53        63.92596
403.97        63.43049
404.42        63.16937
404.87        63.14228
405.32        63.12762
405.76        63.10193
406.21        63.06235
406.66        63.01469
407.11        63.11288
407.55        63.28521
408.00        63.18925
408.45        62.85769
408.90        62.46999
409.34         62.1754
409.79        62.27848
410.24        62.65778
410.68         62.7949
411.13         62.6478
411.58        62.52001
412.03        62.46455
412.47        62.43726
412.92        62.43513
413.37        62.48452
413.81        62.54647
414.26        62.61388
414.71        62.66293
415.15        62.70821
415.60        62.73697
416.05        62.78221
416.49        62.84743
416.94        62.91027
417.39        62.94429
417.83        62.90806
418.28        62.79828
418.73        62.62283
419.17        62.42994
419.62        62.30995
420.07        62.29484
420.51        62.36475
420.96        62.47957
421.41        62.57541
421.85        62.61509
422.30        62.51991
422.74        62.37271
423.19        62.69621
423.64        63.37108
424.08         63.6721
424.53        63.50265
424.98        63.57124
425.42        63.92715
425.87        63.88502
426.31        63.58893
426.76        64.03117
427.21        65.00654
427.65        65.09196
428.10        64.35011
428.54        64.13918
428.99        64.53524
429.44        64.77584
429.88         64.7702
430.33        64.80849
430.77          64.828
431.22        64.79984
431.66        64.74763
432.11        64.93308
432.56        65.39214
433.00        65.46178
433.45        64.97523
433.89        65.41236
434.34        66.75454
434.78        65.44425
435.23        64.76252
435.67         66.0507
436.12        66.63808
436.57        67.16336
437.01        66.65503
437.46        66.35957
437.90          66.973
438.35         66.9977
438.79        66.86526
439.24        66.82543
439.68        66.97803
440.13        67.14734
440.57        67.28533
441.02        67.60478
441.46        67.96604
441.91        67.78791
442.35        67.26471
442.80        67.54463
443.24        68.44971
443.69        68.83087
444.13        68.58459
444.58        68.40733
445.02        68.36408
445.47        68.41244
445.91        68.52006
446.36        68.55486
446.80        68.51114
447.24        68.48351
447.69        68.51058
448.13        68.76198
448.58        68.98103
449.02         69.0037
449.47         68.8204
449.91        68.78852
450.36         68.9438
450.80        68.99814
451.25        68.96675
451.69        69.05074
452.13        69.19424
452.58        69.06246
453.02        68.71061
453.47        68.53133
453.91        68.54457
454.36        68.56236
454.80        68.53643
455.24        68.50991
455.69        68.49417
456.13        68.37238
456.58        68.20187
457.02         68.3032
457.46         68.2663
457.91        68.19587
458.35        68.09473
458.79        67.97912
459.24        67.89789
459.68         67.8121
460.13        67.79057
460.57        67.63433
461.01        67.31786
461.46        67.50924
461.90        67.50531
462.34        66.93066
462.79        67.25066
463.23        67.39688
463.68        67.70458
464.12        67.44344
464.56        66.79714
465.01        66.78121
465.45        67.21989
465.89        67.42733
466.34        67.39866
466.78        67.29735
467.22        67.07582
467.67        67.53168
468.11        66.71935
468.55        66.67027
468.99          66.768
469.44        66.71942
469.88        66.50863
470.32         66.3624
470.77        66.31451
471.21         66.2537
471.65        66.18135
472.10        66.13058
472.54        66.09307
472.98        66.08095
473.42        66.09547
473.87        66.12202
474.31        66.11207
474.75        66.14763
475.20        66.17944
475.64        66.04361
476.08        65.80747
476.52        65.67752
476.97        65.64162
477.41        65.78246
477.85        66.02235
478.29         65.7905
478.74        65.33003
479.18        65.65043
479.62        66.00298
480.06        66.22433
480.50        66.03522
480.95         66.1128
481.39        66.47282
481.83        65.92067
482.27        66.41304
482.72        66.31737
483.16        66.11461
483.60         66.4789
484.04        66.50906
484.48        66.34415
484.93        66.32092
485.37        66.11002
485.81        66.28319
486.25        65.85465
486.69        67.60835
487.14        67.63799
487.58        65.99538
488.02          65.899
488.46        65.97765
488.90        66.27146
489.34        66.20487
489.79        65.80571
490.23         65.8421
490.67        65.80209
491.11        65.92282
491.55        65.98725
491.99        65.97087
492.43         65.9366
492.88        65.87342
493.32        65.78537
493.76        65.64146
494.20        65.52689
494.64        65.48186
495.08        65.12022
495.52        65.00259
495.96        65.19363
496.41        65.70105
496.85        65.78644
497.29        65.42337
497.73        65.50057
498.17         65.6484
498.61        65.60974
499.05        65.30135
499.49        65.17105
499.93        65.24682
500.37        65.26009
500.82        65.20802
501.26        65.28178
501.70        65.50362
502.14        65.27827
502.58        65.24926
503.02        64.87093
503.46        65.14951
503.90        65.23038
504.34        65.29228
504.78        65.29677
505.22        65.24996
505.66        65.07826
506.10        64.82266
506.54        64.84074
506.98        65.20565
507.42        64.81194
507.86        65.39251
508.30        65.43377
508.74        65.30345
509.18        65.09575
509.62         64.8575
510.06        64.73981
510.50        64.74134
510.94        64.76391
511.38        64.76289
511.82        64.73862
512.26        64.67419
512.70        64.55032
513.14        64.40742
513.58        64.32735
514.02        64.32797
514.46        64.38658
514.90        64.45305
515.34        64.48143
515.78        64.45947
516.22        64.38351
516.66        64.14622
517.10        64.38332
517.54        64.29427
517.98        64.48354
518.42         64.6451
518.86        64.69537
519.30         64.6125
519.74         64.3954
520.18        64.15362
520.62        64.13633
521.06        64.32736
521.50        64.44968
521.93        64.45679
522.37        64.47927
522.81        64.50386
523.25        64.43348
523.69        64.30231
524.13        64.22173
524.57        64.21125
525.01        64.23651
525.45          64.286
525.89        64.34409
526.32        64.39733
526.76         64.4546
527.20        64.50778
527.64        64.54505
528.08        64.56218
528.52        64.55972
528.96        64.53493
529.40        64.48742
529.83        64.41457
530.27        64.33234
530.71        64.25072
531.15        64.19929
531.59        64.18433
532.03        64.19785
532.46        64.21786
532.90        64.22749
533.34        64.21477
533.78        64.18557
534.22        64.14997
534.66         64.1241
535.09        64.10326
535.53        64.10368
535.97        64.10508
536.41        64.09422
536.85        64.06915
537.28        64.03481
537.72        64.00643
538.16        64.00941
538.60        64.04499
539.04        64.10278
539.47        64.14586
539.91        64.17272
540.35        64.16214
540.79        64.12656
541.22        64.07579
541.66        64.04076
542.10        64.02505
542.54        64.01707
542.97        64.01337
543.41        64.04185
543.85        64.09741
544.29        64.18658
544.72        64.26564
545.16        64.32294
545.60        64.34188
546.04        64.25115
546.47        64.12495
546.91        64.24326
547.35        64.52804
547.79        64.61459
548.22        64.46899
548.66        64.28266
549.10        64.13701
549.53        64.14751
549.97        64.28968
550.41        64.30672
550.84         64.1688
551.28        64.09474
551.72        64.12993
552.15        64.10365
552.59        64.00229
553.03        64.43584
553.46        64.30853
553.90        64.39306
554.34        64.37154
554.77        64.27621
555.21        64.16938
555.65        64.15469
556.08        64.25153
556.52        64.41001
556.96        64.56551
557.39        64.69074
557.83        64.74965
558.27        64.61536
558.70        64.36324
559.14        64.24683
559.57        64.28437
560.01        64.40901
560.45        64.52503
560.88        64.50807
561.32        64.40812
561.75        64.21738
562.19         64.0479
562.63         64.1468
563.06        64.41689
563.50         64.3485
563.93        63.98983
564.37        63.89951
564.80        64.07365
565.24        64.26022
565.68        64.39339
566.11        64.48494
566.55        64.53728
566.98        64.52726
567.42        64.50938
567.85        64.51765
568.29        64.58498
568.72        64.62958
569.16        64.71501
569.60        64.70814
570.03        64.90478
570.47        65.03675
570.90        65.13802
571.34        65.15421
571.77        65.42127
572.21        65.25082
572.64         65.1148
573.08        65.01762
573.51        64.88139
573.95        65.42963
574.38        65.45702
574.82        66.15002
