SpectraSmart Spectrum 2.9.0.0
--------- Device Information -----------
Spectrum Name :  反射率_0
Saving Time :  2024/04/21 00:33:49
Spectro-Module Model Name : SE2030-DUVN
Spectro-Module Serial Number : OS361AC55029948
Wavelength Start : 200
Wavelength End : 1025
Wavelength Unit : Wavelength(nm)
Spectrum Unit : Reflectance(%)
-----------Spectrum Setting ------------
Integration Time : 20ms
Average : 10
Boxcar : 0
Background removal :  enabled
linearity correction :  enabled
SC :  disabled
Intensity correction :  disabled
DWT denoise :  enabled
savitzky-golay :  disabled
FFT :  disabled
Running average :  disabled
Kalman :  disabled
High pass :  disabled
---------------BEGIN--------------------
Wavelength(nm)             Reflectance(%)
200.29               0
200.75       -56.18475
201.21        8.268833
201.67        41.43631
202.13        52.40337
202.58        50.53936
203.04        40.38682
203.50         24.4757
203.96        11.61579
204.42        7.091586
204.88        7.339915
205.34        10.18882
205.80        12.01761
206.26        11.97964
206.72        14.88048
207.18        16.60435
207.64        6.348637
208.10       -16.89645
208.55       -50.48677
209.01       -65.88136
209.47       -32.86495
209.93        13.51609
210.39        50.42788
210.85        73.16764
211.31        81.28217
211.77        78.01386
212.23        63.42472
212.69        31.99038
213.14       -19.08173
213.60       -93.01394
214.06       -263.0597
214.52       -554.3201
214.98       -183.6138
215.44       -15.29547
215.90        35.10986
216.36        50.03577
216.81        49.38486
217.27        34.55313
217.73        -39.3327
218.19        851.7031
218.65        379.9548
219.11       -752.8644
219.57       -8.260592
220.02        39.09688
220.48        47.58158
220.94        43.08125
221.40        24.72421
221.86       -21.46921
222.32       -58.52843
222.77       -24.66013
223.23        8.834421
223.69        26.52297
224.15        32.70797
224.61        32.85694
225.06        30.54985
225.52        26.72445
225.98        22.20745
226.44        17.73687
226.90        12.03379
227.36         8.29484
227.81        12.18221
228.27        20.63216
228.73        29.41711
229.19         34.9064
229.65         35.0015
230.10        30.36209
230.56        22.28464
231.02        12.00673
231.48        4.900118
231.93        5.032128
232.39        10.52012
232.85        16.91048
233.31        20.28491
233.77        20.78152
234.22        20.06339
234.68        18.68709
235.14        17.63355
235.60        17.65177
236.05        17.58751
236.51         17.2935
236.97        22.63997
237.43        33.62878
237.88         39.9802
238.34        37.78949
238.80        59.61204
239.26        48.96989
239.71        47.42057
240.17        39.95703
240.63        32.19479
241.08        27.76297
241.54        30.05881
242.00        39.22477
242.46        45.03093
242.91        44.95432
243.37        39.44428
243.83        31.29066
244.28         30.5567
244.74        41.22096
245.20        57.00778
245.66        69.05267
246.11        68.67074
246.57        55.56693
247.03        32.34361
247.48        3.744261
247.94       -22.07614
248.40       -44.83629
248.85       -78.48271
249.31       -147.3102
249.77       -148.4502
250.22       -28.54817
250.68        7.328825
251.14        16.77642
251.59        20.15414
252.05         21.9895
252.51        22.80059
252.96        21.58869
253.42        18.17549
253.88        13.99638
254.33        11.59295
254.79         14.1464
255.25         21.3134
255.70        29.55205
256.16        36.53954
256.62        41.82616
257.07        45.39724
257.53        47.91446
257.99        49.63212
258.44        50.20387
258.90        49.88205
259.35        48.52854
259.81        46.79229
260.27        45.02981
260.72        43.70709
261.18        43.04427
261.63        42.61683
262.09        42.17212
262.55        41.14647
263.00        39.55505
263.46        37.80386
263.91        36.18121
264.37        35.39594
264.83        35.37144
265.28        35.74531
265.74        36.19036
266.19        36.15332
266.65        35.59285
267.11        34.66595
267.56        33.51164
268.02        32.41109
268.47        31.42705
268.93        30.52501
269.38        29.67873
269.84        28.90863
270.30        28.20532
270.75         27.5834
271.21        27.07429
271.66        26.64909
272.12        26.30241
272.57        25.99581
273.03         25.6775
273.48        25.25475
273.94        24.73242
274.39        24.12016
274.85         23.5004
275.31        22.93937
275.76        22.46169
276.22          22.084
276.67        21.77912
277.13        21.56501
277.58         21.3947
278.04        21.25889
278.49        21.11657
278.95        20.97033
279.40        20.77245
279.86        20.55113
280.31        20.22653
280.77        19.75319
281.22        19.13006
281.68        18.45626
282.13        17.82043
282.59        17.40727
283.04        17.22835
283.50        17.23265
283.95        17.36518
284.41        17.55594
284.86        17.75597
285.32        17.98314
285.77        18.16729
286.22        18.21538
286.68        18.14445
287.13        17.95383
287.59        17.78929
288.04        17.77613
288.50        17.90972
288.95        18.27739
289.41        18.81576
289.86        18.91931
290.32        18.47437
290.77        19.56542
291.22        18.78445
291.68        18.98578
292.13        19.18779
292.59        19.47687
293.04        19.85911
293.50        20.41959
293.95        21.18915
294.40        22.11851
294.86        23.17049
295.31        24.27247
295.77        25.38795
296.22        26.50998
296.68        27.63665
297.13        28.76487
297.58        29.91269
298.04        31.08899
298.49        32.30414
298.95        33.59465
299.40        34.95594
299.85        36.38821
300.31        37.88316
300.76        39.40846
301.21        40.95389
301.67        42.53389
302.12        44.13062
302.58        45.80875
303.03        47.54964
303.48        49.38078
303.94        51.25903
304.39        53.07438
304.84        54.81326
305.30        56.50979
305.75        58.20794
306.20        60.07108
306.66        62.10583
307.11        64.20374
307.57        66.25392
308.02        68.03262
308.47        69.52097
308.93        70.83545
309.38        72.03794
309.83        73.25595
310.29        74.62824
310.74        76.01006
311.19        77.40972
311.65        78.78566
312.10         80.0988
312.55        81.37025
313.00        82.56153
313.46         83.6101
313.91        84.49323
314.36        85.23194
314.82        85.89474
315.27        86.59283
315.72        87.35893
316.18        88.16316
316.63         88.9489
317.08        89.62389
317.53        90.15889
317.99          90.583
318.44        90.93135
318.89        91.24306
319.35        91.54138
319.80        91.83089
320.25        92.11398
320.70        92.40162
321.16        92.68551
321.61        92.97064
322.06        93.27076
322.51        93.61134
322.97        93.97491
323.42        94.38735
323.87        94.75459
324.32        94.94078
324.78        94.90917
325.23        94.73367
325.68        94.54481
326.13        94.58653
326.59        94.89212
327.04        95.44075
327.49        96.05474
327.94        96.46027
328.39        96.57866
328.85        96.46336
329.30        96.29707
329.75        96.26987
330.20        96.45338
330.66        96.75005
331.11        97.15249
331.56        97.52364
332.01        97.82689
332.46        98.11346
332.92        98.35917
333.37        98.64516
333.82        98.94571
334.27        99.24062
334.72        99.57262
335.17        100.0237
335.63        100.5722
336.08        101.2478
336.53        101.9315
336.98         102.466
337.43        102.8112
337.88        103.0095
338.34        103.1312
338.79        103.3534
339.24        103.7042
339.69         104.139
340.14         104.611
340.59         105.049
341.05        105.4324
341.50         105.798
341.95        106.1544
342.40        106.5142
342.85        106.8837
343.30        107.2507
343.75        107.6142
344.20        107.9851
344.66         108.366
345.11        108.7284
345.56        109.0676
346.01          109.37
346.46         109.636
346.91        109.8738
347.36        110.0563
347.81        110.1756
348.26         110.245
348.72        110.1596
349.17        110.1995
349.62        110.3411
350.07        110.6619
350.52        111.1023
350.97        111.5175
351.42        111.6666
351.87        111.4902
352.32        111.0675
352.77        110.5326
353.22        110.0913
353.67        109.8049
354.13         109.634
354.58        109.4881
355.03        109.2741
355.48         108.963
355.93        108.5905
356.38         108.205
356.83        107.8714
357.28        107.5896
357.73        107.3175
358.18        106.9856
358.63        106.4957
359.08        105.8363
359.53        105.0595
359.98        104.2318
360.43        103.4466
360.88        102.7346
361.33        102.0711
361.78        101.4535
362.23        100.8772
362.68        100.3299
363.13        99.81277
363.58        99.28419
364.03         98.6739
364.48        97.96726
364.93        97.18207
365.38        96.36335
365.83        95.59173
366.28        94.89208
366.73        94.24023
367.18        93.61765
367.63        92.99484
368.08        92.35749
368.53        91.71642
368.98         91.0535
369.43        90.32868
369.88        89.53158
370.33        88.66921
370.78        87.77457
371.23        86.92436
371.68        86.16011
372.13        85.47881
372.58        84.87621
373.03        84.32502
373.48        83.80344
373.93        83.31123
374.38        82.83256
374.83        82.35002
375.28        81.85938
375.72        81.34293
376.17        80.82565
376.62        80.28252
377.07        79.70312
377.52        79.08514
377.97        78.44798
378.42        77.84057
378.87        77.29776
379.32        76.83064
379.77        76.41992
380.22        76.01868
380.67        75.60571
381.11        75.18438
381.56        74.78015
382.01        74.45813
382.46        74.22849
382.91        74.06425
383.36        73.88431
383.81        73.56657
384.26        73.08962
384.71        72.49675
385.15        71.86328
385.60        71.36844
386.05        71.02751
386.50        70.79292
386.95         70.5996
387.40        70.34892
387.85        70.02122
388.29        69.61571
388.74        69.24655
389.19        68.89077
389.64        68.54305
390.09        68.17301
390.54        67.79737
390.98        67.44167
391.43        67.15399
391.88         66.9288
392.33        66.70793
392.78        66.41138
393.23        66.03933
393.67        65.56046
394.12        65.14449
394.57          64.953
395.02        64.96039
395.47        64.94559
395.91        64.85976
396.36        64.75058
396.81        64.61852
397.26        64.43935
397.71        64.20384
398.15         63.9303
398.60        63.69781
399.05        63.34666
399.50        63.02108
399.95        63.07357
400.39        63.41807
400.84        63.68398
401.29        63.69587
401.74        63.16185
402.18        62.25566
402.63        61.74536
403.08        61.68729
403.53        61.45914
403.97        61.07829
404.42        61.02391
404.87        61.20666
405.32        61.27782
405.76        61.18989
406.21        60.97365
406.66         60.6955
407.11        60.65659
407.55        60.80618
408.00        60.62936
408.45        60.17767
408.90        59.90051
409.34        59.85913
409.79        59.93759
410.24        60.04622
410.68        60.04433
411.13        59.90594
411.58        59.71402
412.03        59.52898
412.47        59.43389
412.92        59.43655
413.37        59.52497
413.81        59.63389
414.26        59.71123
414.71        59.72374
415.15        59.70559
415.60        59.65401
416.05         59.6168
416.49        59.60699
416.94        59.59348
417.39        59.57135
417.83        59.52699
418.28        59.45977
418.73        59.38255
419.17        59.27957
419.62        59.13354
420.07        58.94827
420.51        58.72929
420.96        58.55499
421.41        58.47788
421.85        58.47829
422.30        58.63051
422.74        58.82822
423.19        58.86814
423.64        58.77813
424.08        58.93414
424.53        59.24212
424.98        59.35713
425.42        59.27311
425.87        59.10558
426.31         58.9448
426.76        59.05435
427.21         59.4115
427.65         59.5271
428.10        59.29779
428.54        59.71159
428.99         59.4644
429.44        59.52618
429.88         59.4777
430.33        59.33704
430.77        59.12615
431.22        59.15948
431.66        59.40304
432.11        59.60406
432.56        59.77917
433.00        59.86104
433.45        59.60532
433.89        59.57818
434.34         60.0186
434.78        58.38745
435.23        58.55642
435.67        59.55962
436.12         59.6815
436.57        59.89315
437.01        59.44399
437.46         59.3389
437.90        60.27439
438.35        59.42969
438.79         60.0259
439.24        59.82175
439.68        59.76005
440.13        59.57486
440.57        59.35541
441.02        59.63119
441.46        60.20848
441.91        60.12455
442.35        59.52872
442.80        59.80439
443.24        60.72123
443.69        60.82158
444.13         60.1268
444.58        59.74297
445.02        59.75878
445.47        59.92577
445.91        60.14261
446.36        60.25185
446.80        60.21428
447.24        60.12724
447.69         60.0587
448.13        60.20316
448.58        60.35012
449.02        60.34332
449.47        60.14509
449.91        60.02284
450.36        60.00394
450.80        59.85651
451.25        59.64889
451.69        59.63152
452.13        59.77063
452.58        59.75656
453.02        59.56734
453.47        59.43435
453.91        59.35035
454.36        59.18037
454.80        58.96518
455.24        58.86213
455.69        58.89188
456.13        58.97457
456.58        59.06846
457.02        59.14581
457.46        58.82144
457.91        58.88182
458.35        58.46242
458.79        58.34629
459.24        58.31337
459.68         58.3644
460.13        58.48681
460.57        58.41773
461.01        58.13153
461.46        58.27556
461.90        57.96341
462.34        57.67472
462.79        57.65042
463.23        57.64146
463.68        57.72834
464.12        57.59002
464.56        57.29833
465.01        57.42542
465.45        57.76938
465.89        57.74413
466.34           57.44
466.78         57.2242
467.22         57.0671
467.67        57.48805
468.11        56.78605
468.55        56.68853
468.99        56.67291
469.44        56.55445
469.88        56.31775
470.32        56.08506
470.77        55.90329
471.21        55.75548
471.65        55.65611
472.10        55.60851
472.54        55.58882
472.98        55.59585
473.42        55.64372
473.87        55.65655
474.31        55.58831
474.75        55.71532
475.20        56.03614
475.64        55.53376
476.08        55.71223
476.52        55.57021
476.97        55.53198
477.41        55.61157
477.85        55.76024
478.29        55.44483
478.74         55.2694
479.18        55.09697
479.62        55.31133
480.06        55.39037
480.50        55.42075
480.95        55.48951
481.39        55.48842
481.83        55.81614
482.27        55.93523
482.72        55.46755
483.16        55.53574
483.60        55.72493
484.04         55.7492
484.48        55.45641
484.93        55.25771
485.37         55.6179
485.81         55.7496
486.25        55.52859
486.69        57.72394
487.14        57.61431
487.58        56.36865
488.02        55.68196
488.46        55.15782
488.90        54.99456
489.34        54.80279
489.79        54.81745
490.23        55.03347
490.67        55.16017
491.11        55.18872
491.55        55.00408
491.99        54.70087
492.43        54.53036
492.88        54.53873
493.32        54.64408
493.76        54.73317
494.20        54.77383
494.64        54.76399
495.08        54.31499
495.52        54.16415
495.96        54.18961
496.41        54.49202
496.85        54.61016
497.29        54.46416
497.73        54.40617
498.17        54.19588
498.61        54.22986
499.05        54.36459
499.49        54.26367
499.93        53.99873
500.37        53.89412
500.82        53.95683
501.26        54.19619
501.70        54.48703
502.14        54.14402
502.58        53.71928
503.02        53.50954
503.46        53.64175
503.90         53.7846
504.34        53.86123
504.78        53.92749
505.22        53.94636
505.66         53.9276
506.10        53.90215
506.54        53.83352
506.98        53.70591
507.42        53.85173
507.86        53.74031
508.30        53.66698
508.74         53.6931
509.18        53.65441
509.62         53.6059
510.06        53.56361
510.50        53.52015
510.94        53.40197
511.38        53.24984
511.82        53.19267
512.26        53.23967
512.70        53.32877
513.14        53.40522
513.58        53.41813
514.02        53.35347
514.46        53.19522
514.90        52.96194
515.34         52.9311
515.78        52.82456
516.22        52.80433
516.66          52.628
517.10        52.96622
517.54        52.75187
517.98        52.82764
518.42        52.87225
518.86        52.88895
519.30         52.8708
519.74        52.78856
520.18        52.69937
520.62        52.75244
521.06        52.91794
521.50        52.98518
521.93        52.92411
522.37        52.85381
522.81        52.77676
523.25        52.61681
523.69        52.41955
524.13        52.30239
524.57        52.28692
525.01         52.3381
525.45        52.43758
525.89        52.55523
526.32        52.66814
526.76        52.78217
527.20        52.87613
527.64        52.91881
528.08        52.90471
528.52        52.84507
528.96        52.75536
529.40        52.65684
529.83        52.56127
530.27        52.49289
530.71        52.45266
531.15        52.43761
531.59        52.44532
532.03        52.47797
532.46        52.51654
532.90        52.54033
533.34        52.53799
533.78        52.51701
534.22        52.47692
534.66        52.41874
535.09        52.34222
535.53        52.26802
535.97         52.2064
536.41        52.18812
536.85        52.21766
537.28        52.28333
537.72        52.36708
538.16        52.43907
538.60        52.48476
539.04        52.50984
539.47        52.49936
539.91        52.47645
540.35        52.43279
540.79         52.3711
541.22        52.30121
541.66        52.25201
542.10        52.22729
542.54         52.2219
542.97        52.22556
543.41         52.2464
543.85         52.2762
544.29        52.32346
544.72        52.36588
545.16        52.40401
545.60        52.42471
546.04        52.40082
546.47        52.37099
546.91        52.44256
547.35        52.58748
547.79        52.70611
548.22        52.73643
548.66        52.63126
549.10        52.44077
549.53        52.34109
549.97        52.34173
550.41        52.27267
550.84        52.13268
551.28        52.05228
551.72         52.0533
552.15        52.05919
552.59         52.0682
553.03        52.26624
553.46        52.29649
553.90        52.32227
554.34        52.27332
554.77        52.13848
555.21        52.00178
555.65        51.97635
556.08        52.07989
556.52        52.26942
556.96        52.45918
557.39        52.57842
557.83        52.58715
558.27        52.39293
558.70        52.10137
559.14        51.98401
559.57        52.07014
560.01        52.30076
560.45        52.53522
560.88        52.55757
561.32        52.41608
561.75        52.16017
562.19        51.93642
562.63        52.08867
563.06        52.49651
563.50        52.46565
563.93        52.04394
564.37        51.96366
564.80        52.19598
565.24        52.28716
565.68         52.2178
566.11        52.20191
566.55          52.255
566.98        52.30649
567.42         52.3667
567.85        52.35286
568.29        52.32786
568.72        52.42825
569.16        52.68803
569.60        52.79731
570.03        52.96766
570.47        53.13118
570.90        53.34759
571.34        53.39357
571.77        53.39931
572.21        53.71445
572.64        53.58201
573.08        53.16985
573.51        53.04007
573.95        53.57624
574.38        53.91682
574.82        54.49803
