SpectraSmart Spectrum 2.9.0.0
--------- Device Information -----------
Spectrum Name :  反射率_0
Saving Time :  2024/04/21 00:37:25
Spectro-Module Model Name : SE2030-DUVN
Spectro-Module Serial Number : OS361AC55029948
Wavelength Start : 200
Wavelength End : 1025
Wavelength Unit : Wavelength(nm)
Spectrum Unit : Reflectance(%)
-----------Spectrum Setting ------------
Integration Time : 20ms
Average : 10
Boxcar : 0
Background removal :  enabled
linearity correction :  enabled
SC :  disabled
Intensity correction :  disabled
DWT denoise :  enabled
savitzky-golay :  disabled
FFT :  disabled
Running average :  disabled
Kalman :  disabled
High pass :  disabled
---------------BEGIN--------------------
Wavelength(nm)             Reflectance(%)
200.29               0
200.75       -57.77294
201.21        6.790954
201.67        41.28995
202.13        53.32906
202.58        52.12662
203.04         42.9924
203.50        27.62335
203.96        12.48688
204.42        2.739975
204.88       -3.844059
205.34       -7.613172
205.80       -10.01938
206.26       -11.66091
206.72       -8.192271
207.18       -2.995681
207.64       -6.671228
208.10        -21.2611
208.55        -44.1692
209.01       -54.15611
209.47       -28.33457
209.93        7.036421
210.39        34.62372
210.85         51.9163
211.31        59.51022
211.77        60.25042
212.23        55.37671
212.69        42.03046
213.14        16.21155
213.60       -31.59151
214.06       -168.5807
214.52       -482.3071
214.98       -209.3659
215.44       -43.87738
215.90        11.97011
216.36        29.98829
216.81         30.0235
217.27        13.57067
217.73       -67.95939
218.19        917.6899
218.65        400.9897
219.11       -898.2459
219.57       -41.99531
220.02        13.27961
220.48        23.98969
220.94        20.85957
221.40        4.412447
221.86       -36.13617
222.32       -61.65269
222.77       -23.78418
223.23         8.39705
223.69        24.35214
224.15        29.51113
224.61        29.08986
225.06        26.14056
225.52        21.79495
225.98        17.36761
226.44        13.72263
226.90        9.664549
227.36        7.744393
227.81        12.03587
228.27        19.59328
228.73        27.17784
229.19        31.91635
229.65        32.10756
230.10        28.44167
230.56        22.34768
231.02        14.92723
231.48        10.20347
231.93        11.11763
232.39        16.09424
232.85        21.75732
233.31        25.29215
233.77        26.89416
234.22        27.90109
234.68        28.28951
235.14        27.90387
235.60        27.06673
236.05        25.02014
236.51        22.31931
236.97        26.00693
237.43        36.70689
237.88        44.11961
238.34        44.33398
238.80        65.00317
239.26        56.13231
239.71        54.22936
240.17        46.42166
240.63        38.62039
241.08         35.0549
241.54        38.28456
242.00        48.50803
242.46        57.05657
242.91        62.12957
243.37        65.16026
243.83        65.60612
244.28        62.41105
244.74        56.24488
245.20        47.74255
245.66         38.5009
246.11        29.75915
246.57        20.99103
247.03        12.35864
247.48        2.594567
247.94       -11.22463
248.40       -35.20768
248.85       -93.98505
249.31       -274.8432
249.77       -423.5559
250.22       -146.7781
250.68       -30.86399
251.14        8.109335
251.59        23.32383
252.05        31.38374
252.51        38.18892
252.96        44.64834
253.42        50.07959
253.88        52.73375
254.33        52.68426
254.79        54.11504
255.25        58.67983
255.70        64.00806
256.16        68.66913
256.62        71.70599
257.07        72.69764
257.53         72.7094
257.99        72.04757
258.44         70.7838
258.90        69.73235
259.35        68.39542
259.81        67.17068
260.27        65.83806
260.72        64.30975
261.18        63.02866
261.63        61.72276
262.09        60.59249
262.55        59.32624
263.00        57.83018
263.46         56.3867
263.91        54.95679
264.37        53.96566
264.83         53.3236
265.28        52.84217
265.74          52.456
266.19        51.84406
266.65        51.02649
267.11         50.0293
267.56        48.88666
268.02        47.75596
268.47         46.6297
268.93        45.50922
269.38        44.35907
269.84        43.19736
270.30        42.02436
270.75         40.8697
271.21        39.78299
271.66        38.75456
272.12         37.8245
272.57        36.97016
273.03        36.22258
273.48        35.57448
273.94        35.03232
274.39         34.5387
274.85        34.08046
275.31        33.56746
275.76         32.9737
276.22        32.36423
276.67        31.74257
277.13        31.20461
277.58        30.72354
278.04        30.30406
278.49        29.89548
278.95        29.51544
279.40        29.11186
279.86        28.72762
280.31        28.30234
280.77        27.83934
281.22        27.31377
281.68        26.79742
282.13         26.2998
282.59         25.9175
283.04        25.63758
283.50        25.45534
283.95        25.35573
284.41        25.34706
284.86        25.40588
285.32        25.54878
285.77        25.70002
286.22         25.7717
286.68        25.77504
287.13        25.69373
287.59        25.67102
288.04        25.81688
288.50        26.11955
288.95        26.63525
289.41        27.26604
289.86        27.39651
290.32        26.93402
290.77        27.78156
291.22        26.95091
291.68         27.1035
292.13        27.38591
292.59        27.86141
293.04        28.51885
293.50        29.40869
293.95        30.53894
294.40        31.87043
294.86        33.35474
295.31         34.8962
295.77        36.45365
296.22        38.01719
296.68        39.58841
297.13        41.17139
297.58        42.79248
298.04        44.45225
298.49        46.17514
298.95        48.02508
299.40        49.98252
299.85        52.02887
300.31        54.10746
300.76        56.09674
301.21        57.98414
301.67        59.83126
302.12        61.65839
302.58        63.62011
303.03        65.70877
303.48        67.92271
303.94        70.23128
304.39        72.52302
304.84        74.76781
305.30        77.00271
305.75        79.16682
306.20        81.29311
306.66        83.39063
307.11        85.38604
307.57        87.32078
308.02         89.1683
308.47        90.95535
308.93         92.7216
309.38          94.398
309.83        95.96483
310.29        97.44439
310.74        98.80638
311.19        100.1076
311.65        101.4154
312.10        102.7183
312.55         103.992
313.00        105.1931
313.46        106.2551
313.91        107.1464
314.36        107.9165
314.82        108.5884
315.27        109.1816
315.72        109.7344
316.18        110.2459
316.63        110.7799
317.08        111.4416
317.53        112.2292
317.99        113.0898
318.44        113.9125
318.89        114.5007
319.35        114.8065
319.80        114.9073
320.25        114.8748
320.70        114.8389
321.16        114.8517
321.61        114.9016
322.06        115.0275
322.51        115.2964
322.97        115.6893
323.42        116.2317
323.87         116.799
324.32        117.1945
324.78        117.3445
325.23        117.3322
325.68        117.2475
326.13        117.2867
326.59        117.4773
327.04        117.8237
327.49        118.2186
327.94        118.5186
328.39        118.6856
328.85        118.7442
329.30        118.8315
329.75        119.0199
330.20        119.3428
330.66        119.7202
331.11         120.193
331.56        120.6799
332.01        121.1543
332.46         121.628
332.92        122.0273
333.37        122.3904
333.82        122.6657
334.27        122.8658
334.72        123.0501
335.17        123.3228
335.63         123.683
336.08        124.1773
336.53        124.7342
336.98        125.2812
337.43        125.7867
337.88        126.2592
338.34        126.6858
338.79        127.1168
339.24        127.5286
339.69        127.9116
340.14        128.2475
340.59        128.5165
341.05        128.7281
341.50        128.9118
341.95        129.1169
342.40         129.425
342.85        129.8494
343.30        130.3556
343.75        130.8862
344.20        131.3528
344.66        131.7302
345.11        132.0175
345.56        132.2206
346.01        132.3546
346.46         132.443
346.91        132.4556
347.36        132.4061
347.81        132.4219
348.26        132.5305
348.72        132.3348
349.17        132.4999
349.62        132.4686
350.07        132.4372
350.52         132.385
350.97        132.2872
351.42        132.0942
351.87        131.7913
352.32        131.3977
352.77        130.9489
353.22        130.4953
353.67        130.0536
354.13        129.6363
354.58        129.1922
355.03         128.695
355.48        128.1442
355.93        127.5518
356.38        126.9719
356.83        126.4817
357.28        126.0765
357.73        125.7145
358.18        125.2999
358.63        124.6879
359.08        123.8561
359.53        122.8644
359.98        121.8041
360.43        120.8089
360.88        119.9168
361.33        119.0899
361.78        118.3017
362.23        117.5097
362.68        116.6972
363.13        115.8826
363.58        115.0497
364.03        114.1665
364.48         113.226
364.93        112.2282
365.38        111.2059
365.83        110.2206
366.28        109.2902
366.73        108.4027
367.18        107.5297
367.63        106.6243
368.08        105.6803
368.53        104.7228
368.98        103.7741
369.43        102.8519
369.88        101.9582
370.33        101.0854
370.78        100.2296
371.23        99.40479
371.68        98.62392
372.13        97.88181
372.58        97.20008
373.03        96.59625
373.48        96.05363
373.93        95.56133
374.38        95.03964
374.83         94.3727
375.28        93.55637
375.72         92.6192
376.17        91.71375
376.62         90.9801
377.07        90.43219
377.52        90.00845
377.97        89.61594
378.42        89.11318
378.87        88.47857
379.32        87.78214
379.77        87.07665
380.22        86.41918
380.67        85.81316
381.11        85.22279
381.56        84.65244
382.01        84.14322
382.46        83.70636
382.91        83.34873
383.36        82.98595
383.81         82.4807
384.26        81.81165
384.71        81.01365
385.15        80.21072
385.60        79.66418
386.05        79.38973
386.50         79.3129
386.95        79.25894
387.40        78.95742
387.85        78.37244
388.29        77.57423
388.74        76.82955
389.19        76.29621
389.64        76.00408
390.09        75.86956
390.54        75.80566
390.98        75.66096
391.43        75.42255
391.88        75.13226
392.33        74.84567
392.78        74.50774
393.23        74.11371
393.67        73.89393
394.12        73.93298
394.57        73.10841
395.02        72.92451
395.47        72.72171
395.91        72.87574
396.36        72.81721
396.81         72.5393
397.26        72.34274
397.71        72.20267
398.15        71.97768
398.60        71.75018
399.05        71.42272
399.50        71.09708
399.95         71.0652
400.39        71.25661
400.84        71.27077
401.29        71.04393
401.74        70.61697
402.18        70.10763
402.63        69.83405
403.08        69.78006
403.53        69.57246
403.97        69.20114
404.42        68.93903
404.87        68.82069
405.32        68.76789
405.76        68.76061
406.21         68.8692
406.66        68.97996
407.11        68.82583
407.55        68.42626
408.00        68.02293
408.45        67.73508
408.90        67.43772
409.34        67.17535
409.79        67.38517
410.24        67.51844
410.68        67.56691
411.13        67.36429
411.58         67.0502
412.03        66.72742
412.47        66.57832
412.92        66.63371
413.37        66.82909
413.81        67.05684
414.26         67.2189
414.71        67.26197
415.15        67.23867
415.60        67.14053
416.05        67.01448
416.49        66.88563
416.94        66.73003
417.39        66.57816
417.83        66.46806
418.28        66.41116
418.73        66.40874
419.17        66.41533
419.62        66.36044
420.07        66.22655
420.51        66.02329
420.96         65.8466
421.41        65.77248
421.85        65.78481
422.30        65.95925
422.74         66.1644
423.19        66.17071
423.64        66.00532
424.08        66.06179
424.53        66.28838
424.98        66.42587
425.42        66.48063
425.87        66.49893
426.31        66.52752
426.76        66.78396
427.21        67.16579
427.65        67.15631
428.10         66.7688
428.54        66.55184
428.99        66.56976
429.44        66.54151
429.88        66.45141
430.33        66.40419
430.77         66.3693
431.22        66.57351
431.66        66.91296
432.11        67.03029
432.56        66.95836
433.00        66.81568
433.45        66.44431
433.89        66.35624
434.34         66.7832
434.78        65.42483
435.23         65.8487
435.67        66.82624
436.12        67.03017
436.57          67.242
437.01        66.95529
437.46        66.65656
437.90         67.0059
438.35        67.47137
438.79        67.20684
439.24        67.22752
439.68        67.23471
440.13        67.30246
440.57        67.38861
441.02        67.31605
441.46        67.17551
441.91        67.33405
442.35        67.65664
442.80        68.12624
443.24        68.58882
443.69        68.60851
444.13        68.18832
444.58        68.13858
445.02        67.79755
445.47        67.89415
445.91        68.14066
446.36        68.19686
446.80        68.00896
447.24        67.91521
447.69        68.02824
448.13        67.68195
448.58        68.12468
449.02        67.99081
449.47        67.71955
449.91        67.64487
450.36        67.81095
450.80        67.91259
451.25        67.93699
451.69        68.07607
452.13         68.2613
452.58        68.16036
453.02        67.81995
453.47         67.6175
453.91        67.56837
454.36         67.4941
454.80        67.37484
455.24        67.22464
455.69        67.04372
456.13        66.89746
456.58        66.85956
457.02        66.57048
457.46        66.47375
457.91         66.6123
458.35        66.50758
458.79        66.48232
459.24        66.37663
459.68        66.23944
460.13        66.13132
460.57        65.95867
461.01        65.73598
461.46        65.77608
461.90        65.73509
462.34        65.42017
462.79        65.05417
463.23        65.16206
463.68        65.67099
464.12         65.5144
464.56        64.80769
465.01        64.85336
465.45        65.41217
465.89        65.30036
466.34        64.67266
466.78        64.46429
467.22        64.64297
467.67        64.98531
468.11        64.40331
468.55        64.31725
468.99        64.39147
469.44        64.33542
469.88        64.13543
470.32        63.91768
470.77        63.74546
471.21        63.65262
471.65        63.65458
472.10        63.73652
472.54        63.81887
472.98         63.8215
473.42        63.74443
473.87        63.55252
474.31        63.27187
474.75        63.26694
475.20        63.52192
475.64         63.1837
476.08        63.21277
476.52        63.11091
476.97        63.11815
477.41        63.20977
477.85        63.31086
478.29        63.20354
478.74        62.31247
479.18        62.91298
479.62        62.86409
480.06        63.08127
480.50        62.97894
480.95        62.99248
481.39        63.09095
481.83        63.06021
482.27         63.3926
482.72        62.99802
483.16         63.2823
483.60        63.19823
484.04        63.38395
484.48        63.05543
484.93        63.08206
485.37        62.70126
485.81        63.05638
486.25        62.86934
486.69        63.52091
487.14        63.63554
487.58        63.33729
488.02        62.85892
488.46        62.19053
488.90        62.86985
489.34        62.65604
489.79          62.158
490.23        62.42417
490.67        62.30323
491.11        62.29767
491.55        62.17873
491.99        62.02546
492.43        61.97562
492.88        62.03063
493.32        62.16322
493.76        62.26527
494.20        62.31142
494.64        62.31469
495.08        61.89663
495.52        61.68995
495.96        61.79726
496.41        62.24098
496.85        62.20361
497.29        61.72969
497.73        61.77653
498.17        61.99355
498.61        62.25331
499.05        62.32949
499.49        62.04074
499.93        61.56686
500.37        61.55847
500.82        61.94844
501.26        62.18141
501.70        62.15915
502.14        61.71878
502.58        61.47874
503.02        61.29857
503.46        61.30823
503.90        61.42559
504.34        61.54858
504.78        61.52205
505.22        61.38319
505.66        61.32575
506.10        61.36714
506.54        61.50248
506.98        61.73743
507.42          61.425
507.86        61.88004
508.30        61.65372
508.74        61.81025
509.18        61.73016
509.62        61.63035
510.06        61.54951
510.50        61.47517
510.94        61.33509
511.38        61.15241
511.82        61.05252
512.26        61.04492
512.70         61.0665
513.14        61.10038
513.58        61.15915
514.02         61.2337
514.46        61.28007
514.90        61.24532
515.34        61.31447
515.78        61.12508
516.22        60.95327
516.66        60.60356
517.10         60.7884
517.54         60.6363
517.98        60.81095
518.42        60.98737
518.86        61.07391
519.30        61.04095
519.74        60.89364
520.18        60.70919
520.62        60.68043
521.06         60.7892
521.50        60.78388
521.93        60.67312
522.37        60.66663
522.81        60.76644
523.25        60.84999
523.69        60.88759
524.13        60.88763
524.57        60.84494
525.01        60.75851
525.45        60.65854
525.89        60.59614
526.32        60.58193
526.76        60.60661
527.20        60.65045
527.64        60.68191
528.08        60.69027
528.52        60.69015
528.96        60.68209
529.40        60.65829
529.83        60.61953
530.27        60.59418
530.71        60.58123
531.15        60.57919
531.59        60.58893
532.03        60.61409
532.46        60.64082
532.90        60.65994
533.34        60.66239
533.78        60.65185
534.22        60.62853
534.66        60.59379
535.09        60.54166
535.53        60.49298
535.97        60.44356
536.41        60.40268
536.85        60.37509
537.28        60.36328
537.72        60.36547
538.16        60.37705
538.60        60.38917
539.04        60.40776
539.47        60.42726
539.91        60.45357
540.35        60.46242
540.79        60.60299
541.22        60.57863
541.66        60.55862
542.10        60.45798
542.54        60.29943
542.97        60.13199
543.41        60.06843
543.85        60.12611
544.29        60.28024
544.72        60.45146
545.16        60.56923
545.60        60.59924
546.04        60.49174
546.47        60.33054
546.91        60.40641
547.35        60.65679
547.79        60.71198
548.22        60.53741
548.66        60.35714
549.10        60.22361
549.53        60.14329
549.97        60.12962
550.41        60.09243
550.84        60.01234
551.28        60.03392
551.72        60.16594
552.15        60.16422
552.59        59.98963
553.03        60.46719
553.46        60.17943
553.90        60.23972
554.34        60.22712
554.77        60.17898
555.21        60.12241
555.65        60.11641
556.08         60.1711
556.52        60.25286
556.96        60.33422
557.39        60.41118
557.83        60.46501
558.27        60.43396
558.70         60.3303
559.14        60.20067
559.57        60.08641
560.01        60.11908
560.45        60.24253
560.88        60.27867
561.32        60.24706
561.75         60.1261
562.19        60.00012
562.63        60.04423
563.06        60.19709
563.50        60.13869
563.93         59.8872
564.37        59.75848
564.80        59.76627
565.24        59.86705
565.68        60.00705
566.11        60.06849
566.55        60.04977
566.98        60.03093
567.42        60.03695
567.85        59.96575
568.29        59.89828
568.72        59.93442
569.16        60.07984
569.60         60.2161
570.03        60.11167
570.47        60.14074
570.90        60.24284
571.34        60.10044
571.77        60.28904
572.21        60.48018
572.64         60.3179
573.08        60.43604
573.51        60.36298
573.95        60.79898
574.38        60.60248
574.82        61.06717
