SpectraSmart Spectrum 2.9.0.0
--------- Device Information -----------
Spectrum Name :  反射率_0
Saving Time :  2024/04/21 00:35:26
Spectro-Module Model Name : SE2030-DUVN
Spectro-Module Serial Number : OS361AC55029948
Wavelength Start : 200
Wavelength End : 1025
Wavelength Unit : Wavelength(nm)
Spectrum Unit : Reflectance(%)
-----------Spectrum Setting ------------
Integration Time : 20ms
Average : 10
Boxcar : 0
Background removal :  enabled
linearity correction :  enabled
SC :  disabled
Intensity correction :  disabled
DWT denoise :  enabled
savitzky-golay :  disabled
FFT :  disabled
Running average :  disabled
Kalman :  disabled
High pass :  disabled
---------------BEGIN--------------------
Wavelength(nm)             Reflectance(%)
200.29               0
200.75       -48.29733
201.21       -3.048643
201.67        20.97636
202.13        30.20069
202.58         31.1424
203.04        27.02616
203.50        21.04148
203.96         20.5775
204.42        27.84919
204.88        39.18421
205.34        49.21652
205.80        50.71348
206.26        41.47421
206.72        22.95027
207.18       -3.239054
207.64       -29.64837
208.10       -47.11616
208.55       -56.02156
209.01       -44.40759
209.47       -8.465242
209.93        25.86792
210.39        50.19712
210.85        64.82289
211.31        71.51816
211.77        72.98326
212.23        69.58403
212.69        59.56308
213.14        42.54219
213.60        14.92381
214.06       -55.87334
214.52       -220.6104
214.98       -100.3099
215.44       -18.62648
215.90        12.07161
216.36        21.32637
216.81        17.06828
217.27       -3.717553
217.73       -99.23882
218.19        1030.364
218.65        421.7638
219.11       -916.1736
219.57       -39.94746
220.02        15.57694
220.48        25.53234
220.94        20.85686
221.40       0.6697446
221.86       -47.42521
222.32       -74.29279
222.77       -26.12968
223.23        13.21357
223.69        32.28075
224.15        38.02135
224.61        36.78824
225.06        32.21026
225.52        25.61417
225.98        18.74666
226.44        12.80582
226.90        6.248934
227.36        2.775319
227.81        8.452899
228.27        19.16988
228.73        29.98577
229.19        36.79315
229.65        37.42508
230.10        32.79949
230.56        24.31091
231.02        13.42353
231.48        6.333109
231.93        7.340932
232.39        13.92854
232.85        21.35232
233.31        25.65982
233.77        27.02196
234.22        27.20791
234.68        26.40371
235.14        24.83172
235.60        23.05752
236.05        20.13119
236.51        16.64473
236.97         20.2236
237.43        31.59408
237.88        39.65722
238.34        40.21682
238.80        62.74817
239.26        53.78366
239.71        52.20262
240.17        44.32468
240.63        36.20243
241.08        31.99463
241.54        34.19727
242.00        42.96837
242.46        48.87852
242.91        49.49334
243.37        46.08268
243.83        38.87064
244.28        30.80825
244.74        25.57394
245.20        21.71859
245.66        18.32444
246.11         14.5089
246.57        9.411306
247.03         3.82329
247.48       -3.413831
247.94       -14.84542
248.40       -35.89461
248.85       -89.35222
249.31       -256.5483
249.77       -399.7862
250.22       -145.6068
250.68       -37.94767
251.14       -1.159959
251.59        13.98493
252.05        22.78734
252.51        30.96027
252.96        38.12243
253.42        40.14759
253.88        34.89882
254.33        26.20251
254.79        22.09734
255.25        26.20571
255.70        34.23906
256.16         42.2183
256.62        48.34063
257.07        51.81418
257.53         53.6576
257.99         54.5137
258.44        54.61951
258.90        54.76754
259.35        54.55252
259.81        54.26684
260.27        53.63717
260.72        52.49371
261.18        51.30363
261.63        50.00621
262.09        48.89278
262.55        47.85096
263.00        46.78887
263.46        45.85416
263.91        44.96448
264.37        44.40281
264.83        44.07052
265.28        43.84497
265.74        43.64284
266.19        43.16728
266.65         42.4421
267.11        41.49575
267.56        40.43366
268.02        39.50918
268.47        38.73144
268.93        38.07326
269.38        37.38845
269.84        36.51344
270.30         35.4136
270.75        34.16092
271.21        32.94297
271.66        31.97561
272.12        31.32746
272.57        30.90102
273.03        30.55292
273.48        30.03309
273.94        29.31671
274.39        28.46338
274.85         27.6278
275.31         26.9739
275.76        26.52996
276.22        26.25511
276.67        26.05114
277.13        25.85297
277.58        25.59953
278.04        25.34325
278.49        25.06027
278.95        24.78803
279.40        24.49179
279.86         24.1833
280.31        23.83318
280.77        23.48516
281.22        23.11556
281.68        22.77777
282.13        22.42685
282.59        22.06388
283.04        21.67832
283.50        21.30757
283.95        21.01081
284.41        20.90005
284.86        20.97486
285.32        21.19883
285.77        21.46672
286.22        21.63942
286.68         21.7046
287.13        21.66875
287.59        21.63968
288.04        21.67633
288.50        21.77088
288.95        22.01824
289.41        22.40431
289.86        22.41628
290.32        21.97063
290.77        23.05027
291.22        22.37829
291.68        22.65676
292.13        22.93558
292.59        23.30297
293.04        23.78461
293.50        24.49389
293.95        25.45699
294.40         26.6125
294.86        27.87069
295.31        29.07703
295.77        30.18986
296.22        31.23797
296.68        32.29533
297.13        33.47258
297.58        34.81386
298.04        36.28507
298.49         37.8466
298.95        39.45613
299.40        41.07114
299.85        42.70803
300.31        44.34959
300.76        45.94634
301.21        47.49833
301.67        49.03146
302.12        50.56096
302.58        52.21431
303.03        53.98672
303.48        55.89887
303.94        57.89261
304.39        59.82424
304.84        61.66655
305.30        63.45633
305.75        65.23573
306.20        67.17432
306.66        69.28117
307.11        71.44247
307.57         73.5301
308.02        75.28652
308.47        76.69698
308.93         77.8847
309.38        78.96294
309.83        80.15733
310.29        81.59825
310.74        83.13176
311.19        84.67952
311.65        86.07157
312.10        87.24254
312.55        88.25373
313.00        89.16062
313.46        90.05173
313.91        90.93825
314.36        91.79512
314.82         92.6035
315.27        93.33392
315.72        93.99003
316.18        94.59232
316.63        95.15822
317.08        95.71352
317.53        96.25885
317.99        96.77573
318.44        97.25204
318.89        97.65382
319.35        97.97717
319.80        98.25468
320.25         98.4901
320.70        98.69431
321.16        98.87152
321.61        99.02972
322.06        99.21931
322.51        99.52865
322.97        99.95025
323.42        100.4923
323.87         101.023
324.32        101.3399
324.78        101.3794
325.23        101.2326
325.68        101.0322
326.13         101.031
326.59        101.2728
327.04        101.7405
327.49        102.2796
327.94        102.6588
328.39        102.8115
328.85        102.7809
329.30        102.7375
329.75        102.8375
330.20        103.1347
330.66        103.5306
331.11        104.0084
331.56        104.4116
332.01        104.6989
332.46          104.92
332.92        105.0676
333.37        105.2633
333.82        105.4975
334.27        105.7594
334.72        106.0789
335.17          106.51
335.63        107.0265
336.08        107.6668
336.53        108.3576
336.98        109.0191
337.43         109.615
337.88        110.1534
338.34        110.6037
338.79        110.9834
339.24        111.2824
339.69        111.5113
340.14        111.7237
340.59        112.0076
341.05        112.3932
341.50        112.8764
341.95        113.4251
342.40        113.9821
342.85        114.5175
343.30        115.0278
343.75        115.5104
344.20        115.9718
344.66        116.4099
345.11        116.7896
345.56        117.0812
346.01        117.2422
346.46        117.2871
346.91        117.2447
347.36        117.1575
347.81        117.1404
348.26          117.23
348.72        117.2029
349.17        117.4297
349.62        117.6665
350.07        118.0049
350.52        118.4065
350.97        118.7494
351.42         118.832
351.87        118.6066
352.32        118.1355
352.77        117.5516
353.22        117.0619
353.67        116.7292
354.13        116.5276
354.58        116.3544
355.03         116.094
355.48        115.7158
355.93        115.2553
356.38        114.8001
356.83        114.4769
357.28        114.2883
357.73        114.1704
358.18        113.9766
358.63        113.4853
359.08        112.6633
359.53        111.6049
359.98        110.4692
360.43        109.4939
360.88        108.7416
361.33        108.1409
361.78        107.6215
362.23        107.0665
362.68        106.4374
363.13        105.7837
363.58        105.0979
364.03        104.3617
364.48         103.579
364.93        102.7375
365.38        101.9015
365.83        101.1867
366.28        100.6107
366.73        100.1409
367.18        99.67621
367.63        99.05331
368.08        98.24082
368.53         97.2963
368.98        96.31541
369.43        95.43671
369.88        94.69252
370.33        94.03866
370.78        93.41856
371.23        92.75101
371.68        92.02117
372.13        91.26588
372.58         90.5379
373.03        89.89997
373.48        89.35784
373.93        88.88487
374.38        88.42275
374.83        87.89026
375.28        87.27695
375.72         86.5967
376.17        85.94128
376.62        85.37066
377.07        84.88425
377.52        84.44173
377.97        83.99414
378.42         83.4782
378.87        82.89305
379.32        82.28256
379.77        81.67146
380.22        81.07535
380.67        80.49261
381.11        79.91344
381.56        79.35496
382.01        78.87267
382.46        78.48558
382.91        78.18905
383.36        77.92081
383.81        77.57904
384.26        77.14162
384.71        76.63277
385.15        76.11473
385.60        75.75157
386.05         75.5426
386.50         75.4374
386.95        75.33765
387.40        75.09694
387.85        74.69456
388.29        74.14883
388.74        73.63834
389.19        73.21293
389.64        72.88543
390.09        72.61545
390.54        72.37092
390.98        72.09142
391.43        71.79977
391.88        71.50634
392.33        71.22032
392.78        70.92603
393.23         70.6211
393.67        70.33664
394.12        70.13634
394.57        69.79314
395.02        69.37022
395.47        69.22562
395.91        69.30347
396.36        69.15829
396.81        68.78596
397.26        68.45827
397.71        68.20787
398.15        67.96443
398.60        67.80682
399.05        67.60979
399.50        67.43873
399.95        67.49987
400.39        67.71087
400.84         67.7974
401.29        67.66397
401.74        67.09879
402.18        66.29559
402.63        65.98035
403.08        66.12963
403.53        65.98063
403.97        65.51369
404.42        65.24197
404.87        65.17683
405.32        65.11794
405.76         65.0478
406.21        65.00508
406.66        64.95846
407.11        64.92068
407.55        64.86953
408.00        64.65221
408.45        64.32979
408.90        64.06332
409.34        63.90424
409.79        63.89348
410.24        63.94904
410.68        63.88295
411.13        63.67414
411.58        63.41678
412.03        63.17732
412.47        63.05835
412.92        63.06828
413.37        63.17841
413.81        63.32171
414.26        63.45184
414.71        63.52692
415.15        63.57756
415.60        63.56576
416.05         63.4842
416.49        63.34356
416.94        63.14259
417.39        62.93031
417.83        62.77419
418.28         62.6926
418.73        62.66787
419.17        62.66793
419.62         62.6442
420.07        62.57952
420.51        62.48751
420.96        62.40311
421.41        62.32038
421.85        62.22211
422.30        62.17838
422.74        62.16602
423.19        62.17969
423.64        62.23215
424.08        62.49613
424.53        62.83988
424.98        63.00083
425.42        62.94581
425.87        62.76289
426.31        62.55603
426.76        62.45478
427.21        62.47991
427.65        62.58912
428.10        62.68262
428.54        62.67551
428.99        62.58347
429.44        62.43169
429.88        62.25431
430.33         62.1688
430.77        62.13816
431.22        62.23279
431.66        62.38576
432.11        62.47463
432.56         62.5218
433.00        62.47252
433.45        62.16913
433.89        62.11848
434.34        62.50193
434.78        61.46843
435.23         61.6362
435.67        62.57816
436.12        62.93232
436.57        62.95871
437.01        62.22017
437.46         62.1041
437.90        62.38115
438.35        62.58889
438.79        62.58637
439.24        62.63041
439.68        62.70817
440.13        62.78871
440.57        62.84939
441.02        62.89624
441.46        62.91755
441.91        62.85317
442.35        62.73062
442.80        63.00975
443.24         63.5351
443.69        63.68358
444.13        63.42736
444.58          63.212
445.02        63.10641
445.47        63.17775
445.91        63.34467
446.36        63.35463
446.80        63.18471
447.24        62.96141
447.69        62.77486
448.13        62.86317
448.58        63.01226
449.02        63.04364
449.47        62.90577
449.91        62.85924
450.36        62.91991
450.80        62.84426
451.25        62.68238
451.69         62.6728
452.13        62.77281
452.58        62.65208
453.02        62.32963
453.47        62.11536
453.91        62.02242
454.36        61.90752
454.80        61.74532
455.24        61.61438
455.69        61.53286
456.13        61.35015
456.58        61.16533
457.02        61.31939
457.46        61.52477
457.91         61.6295
458.35        61.09718
458.79        60.92495
459.24        60.99659
459.68        60.95737
460.13        60.83449
460.57        60.75453
461.01        60.74411
461.46        60.51602
461.90        60.77161
462.34        60.27773
462.79        60.27203
463.23        60.11061
463.68        60.17954
464.12        59.88328
464.56        59.41999
465.01        59.74954
465.45        60.53416
465.89        60.69357
466.34        60.30505
466.78        59.98685
467.22         59.7404
467.67        60.28067
468.11        59.47821
468.55        59.39871
468.99        59.39444
469.44        59.33027
469.88        59.18492
470.32        59.05736
470.77        58.96386
471.21        58.83949
471.65         58.6861
472.10        58.52121
472.54        58.36196
472.98        58.24751
473.42        58.19229
473.87        58.21175
474.31        58.24212
474.75        58.25399
475.20        58.28238
475.64        58.20172
476.08        58.50887
476.52        58.52045
476.97        58.33814
477.41        58.26569
477.85        58.36293
478.29        57.92271
478.74        57.63341
479.18        58.12245
479.62        57.80913
480.06        57.95869
480.50        58.05918
480.95        58.10154
481.39        57.97972
481.83        58.40047
482.27        58.30479
482.72        58.16926
483.16        58.11725
483.60        58.35268
484.04        58.26828
484.48        58.00971
484.93        57.99775
485.37        57.86124
485.81        58.25109
486.25        57.70055
486.69        60.09332
487.14        60.19636
487.58        59.07977
488.02        58.22047
488.46        57.73967
488.90        57.95139
489.34        57.64086
489.79        57.51055
490.23        57.57492
490.67        57.61066
491.11        57.68909
491.55         57.5509
491.99        57.27321
492.43         57.1285
492.88        57.15163
493.32        57.24066
493.76        57.29387
494.20        57.32626
494.64        57.34737
495.08        56.90002
495.52        56.78053
495.96         56.8479
496.41        57.20586
496.85        57.26213
497.29         56.9782
497.73        56.95456
498.17        56.89883
498.61        56.91208
499.05        56.87499
499.49        56.73221
499.93        56.56403
500.37        56.59251
500.82        56.77052
501.26         56.9655
501.70        57.09138
502.14        56.72845
502.58         56.4332
503.02        56.22695
503.46        56.23719
503.90        56.29036
504.34        56.33108
504.78        56.37853
505.22        56.40409
505.66        56.41068
506.10        56.41614
506.54        56.40502
506.98        56.36412
507.42        56.43143
507.86        56.43139
508.30        56.28552
508.74        56.27244
509.18        56.13035
509.62        55.98672
510.06        55.91606
510.50        55.91902
510.94        55.90682
511.38        55.86138
511.82        55.82297
512.26         55.7841
512.70        55.71096
513.14        55.61676
513.58        55.55951
514.02        55.55024
514.46        55.54055
514.90        55.48969
515.34        55.55296
515.78        55.45688
516.22        55.37899
516.66        55.12001
517.10        55.38234
517.54        55.16871
517.98         55.2563
518.42        55.32777
518.86        55.36982
519.30        55.36939
519.74        55.30767
520.18        55.23384
520.62        55.28611
521.06         55.4338
521.50        55.45975
521.93        55.36202
522.37        55.31511
522.81        55.32626
523.25        55.29291
523.69        55.22084
524.13        55.17015
524.57        55.14601
525.01        55.13004
525.45        55.12717
525.89        55.14392
526.32         55.1766
526.76        55.23207
527.20        55.28543
527.64        55.29898
528.08        55.26653
528.52        55.19706
528.96        55.12864
529.40        55.11777
529.83         55.1689
530.27        55.28288
530.71        55.39788
531.15        55.41806
531.59        55.32596
532.03        55.15878
532.46         54.9732
532.90        54.85773
533.34        54.83067
533.78        54.89145
534.22        55.00499
534.66        54.97752
535.09        55.00721
535.53        54.95519
535.97        54.89917
536.41        54.86562
536.85         54.8649
537.28        54.88046
537.72        54.90077
538.16        54.91753
538.60        54.92432
539.04        54.92701
539.47        54.91331
539.91         54.9082
540.35        54.90073
540.79        54.89228
541.22        54.88112
541.66        54.87909
542.10        54.88179
542.54         54.8808
542.97         54.8756
543.41        54.89423
543.85        54.93438
544.29        55.00256
544.72         55.0534
545.16        55.07137
545.60        55.03492
546.04        54.89416
546.47          54.736
546.91        54.83981
547.35        55.14365
547.79        55.31909
548.22        55.29617
548.66        55.18171
549.10         55.0318
549.53        54.95329
549.97        54.95909
550.41        54.90519
550.84        54.79957
551.28        54.75425
551.72        54.76366
552.15        54.78068
552.59        54.81303
553.03        54.73914
553.46        54.83489
553.90        54.79713
554.34        54.68292
554.77        54.76982
555.21        54.65913
555.65        54.64439
556.08        54.79865
556.52        54.96709
556.96        55.13118
557.39         55.1637
557.83        55.07065
558.27        54.89842
558.70        54.71261
559.14        54.59747
559.57         54.5669
560.01        54.66908
560.45        54.81437
560.88        54.78964
561.32        54.66047
561.75        54.55573
562.19        54.54559
562.63        54.69743
563.06        54.93496
563.50        54.89728
563.93        54.62893
564.37        54.64468
564.80        54.88617
565.24        54.93812
565.68        54.81469
566.11        54.78889
566.55         54.8786
566.98         55.0074
567.42        55.15501
567.85        55.03082
568.29           54.93
568.72        54.95268
569.16        55.20706
569.60        55.29035
570.03        55.45567
570.47        55.62797
570.90        55.83266
571.34        55.91006
571.77        56.30085
572.21        56.06245
572.64        56.14859
573.08        55.93113
573.51        55.83602
573.95        56.25268
574.38        56.19224
574.82        57.02256
