SpectraSmart Spectrum 2.9.0.0
--------- Device Information -----------
Spectrum Name :  反射率_0
Saving Time :  2024/04/21 00:05:22
Spectro-Module Model Name : SE2030-DUVN
Spectro-Module Serial Number : OS361AC55029948
Wavelength Start : 200
Wavelength End : 1025
Wavelength Unit : Wavelength(nm)
Spectrum Unit : Reflectance(%)
-----------Spectrum Setting ------------
Integration Time : 20ms
Average : 10
Boxcar : 0
Background removal :  enabled
linearity correction :  enabled
SC :  disabled
Intensity correction :  disabled
DWT denoise :  enabled
savitzky-golay :  disabled
FFT :  disabled
Running average :  disabled
Kalman :  disabled
High pass :  disabled
---------------BEGIN--------------------
Wavelength(nm)             Reflectance(%)
200.29               0
200.75       -81.31748
201.21       -21.17522
201.67        11.36105
202.13        22.01561
202.58        19.36657
203.04        8.201749
203.50       -7.361964
203.96       -15.95746
204.42       -12.31958
204.88       -1.278193
205.34        10.21065
205.80        12.48418
206.26        2.803113
206.72       -15.70801
207.18       -40.72019
207.64       -63.87887
208.10       -76.06841
208.55       -80.24162
209.01       -64.62137
209.47       -25.63903
209.93        9.851064
210.39        34.24246
210.85        47.50932
211.31        50.19785
211.77        44.06715
212.23        27.35618
212.69       -6.762742
213.14       -64.36464
213.60       -154.3445
214.06       -378.3955
214.52       -805.4663
214.98        -329.185
215.44       -89.92766
215.90       -14.07395
216.36        8.479328
216.81        5.421181
217.27       -23.37405
217.73       -162.4356
218.19        1478.499
218.65        577.4604
219.11       -1206.047
219.57       -46.12882
220.02        25.55954
220.48         37.1941
220.94        28.18107
221.40        -4.88993
221.86       -85.65248
222.32       -144.7701
222.77       -79.54568
223.23       -18.32508
223.69        13.48029
224.15        24.47915
224.61        24.64422
225.06        20.08996
225.52        12.91564
225.98        5.767839
226.44       0.2560081
226.90       -5.718394
227.36       -8.322137
227.81       -1.343933
228.27        10.55497
228.73        22.32436
229.19        29.77156
229.65        30.74214
230.10        26.31236
230.56        18.04598
231.02        7.524008
231.48       0.9264073
231.93        2.483291
232.39        9.676707
232.85        17.59269
233.31        22.19559
233.77         23.7538
234.22        24.03955
234.68        23.53868
235.14        23.02621
235.60        23.11701
236.05        22.67334
236.51        21.69453
236.97        26.10746
237.43        36.15273
237.88        41.99587
238.34        39.43859
238.80        59.82164
239.26        47.15314
239.71         42.4127
240.17        30.44655
240.63        18.80169
241.08        13.11187
241.54        18.17483
242.00        32.30774
242.46        39.42406
242.91        34.67519
243.37        18.11669
243.83       -6.756758
244.28       -21.42589
244.74       -14.51365
245.20        3.661257
245.66         21.4983
246.11        28.01147
246.57        21.93309
247.03        7.780112
247.48       -13.18976
247.94       -40.27563
248.40       -80.72363
248.85       -177.4351
249.31       -471.5059
249.77       -696.7271
250.22       -242.1577
250.68        -54.0634
251.14         5.92113
251.59        22.25977
252.05        20.77423
252.51        7.483351
252.96       -15.24347
253.42       -30.68246
253.88        -25.7244
254.33       -7.826581
254.79        13.14936
255.25        27.83895
255.70        35.71668
256.16        40.33342
256.62        43.33267
257.07         45.7111
257.53        47.97519
257.99         49.6812
258.44        50.59442
258.90        51.14219
259.35        50.95623
259.81        50.53912
260.27        49.73713
260.72          48.462
261.18        47.17517
261.63        45.81906
262.09        44.62395
262.55        43.45342
263.00        42.24569
263.46        41.16817
263.91        40.20712
264.37        39.70601
264.83        39.55646
265.28        39.57287
265.74        39.62456
266.19        39.38054
266.65        38.84278
267.11        38.06977
267.56        37.11506
268.02        36.14703
268.47        35.18683
268.93        34.23911
269.38        33.30442
269.84        32.44238
270.30        31.65511
270.75        30.94275
271.21         30.3175
271.66        29.72273
272.12        29.16308
272.57        28.62638
273.03        28.10963
273.48        27.57796
273.94        27.04749
274.39        26.50069
274.85        25.98434
275.31        25.50972
275.76        25.07622
276.22        24.70685
276.67        24.38353
277.13        24.14447
277.58         23.9497
278.04        23.80317
278.49        23.63892
278.95         23.4335
279.40        23.14293
279.86        22.80846
280.31        22.41881
280.77        22.03416
281.22         21.6455
281.68        21.30059
282.13        20.96689
282.59          20.664
283.04        20.37491
283.50        20.11328
283.95        19.92135
284.41        19.88271
284.86        19.98617
285.32        20.20667
285.77        20.41696
286.22        20.44429
286.68        20.28614
287.13        19.96963
287.59        19.67616
288.04         19.5782
288.50        19.68251
288.95        20.05144
289.41        20.58817
289.86        20.64711
290.32        20.11328
290.77        21.05541
291.22        20.16729
291.68        20.30387
292.13        20.50854
292.59        20.83687
293.04        21.27474
293.50        21.87899
293.95        22.65904
294.40        23.56841
294.86        24.54347
295.31        25.46977
295.77        26.31766
296.22        27.10989
296.68        27.89162
297.13        28.73066
297.58        29.66536
298.04        30.67899
298.49         31.7825
298.95        33.01116
299.40        34.33846
299.85        35.75227
300.31         37.1794
300.76        38.48938
301.21        39.66551
301.67        40.76757
302.12        41.85198
302.58        43.09245
303.03        44.50478
303.48        46.08461
303.94        47.77783
304.39         49.4576
304.84        51.09178
305.30        52.71695
305.75        54.34317
306.20        56.07335
306.66        57.90834
307.11        59.76468
307.57        61.56662
308.02        63.15653
308.47        64.52404
308.93        65.75524
309.38        66.90768
309.83        68.08638
310.29          69.435
310.74        70.81171
311.19         72.1791
311.65        73.41593
312.10        74.48035
312.55        75.41387
313.00        76.29134
313.46        77.23122
313.91        78.24353
314.36         79.2955
314.82        80.30642
315.27        81.15376
315.72        81.81876
316.18        82.34053
316.63        82.80772
317.08        83.36612
317.53        84.04299
317.99        84.78656
318.44        85.49522
318.89        85.99456
319.35        86.24828
319.80        86.32551
320.25        86.33331
320.70        86.44753
321.16        86.71199
321.61        87.08887
322.06        87.51044
322.51        87.87283
322.97        88.13171
323.42        88.35536
323.87        88.55279
324.32        88.75224
324.78        88.94897
325.23        89.15165
325.68        89.36177
326.13        89.61564
326.59        89.89304
327.04        90.23496
327.49        90.56629
327.94        90.78796
328.39        90.88219
328.85        90.85293
329.30         90.8375
329.75        90.95547
330.20        91.24492
330.66        91.63542
331.11        92.10709
331.56          92.503
332.01        92.78419
332.46        92.99663
332.92        93.13966
333.37        93.33872
333.82        93.58601
334.27         93.8559
334.72        94.17908
335.17        94.60973
335.63        95.12308
336.08        95.76284
336.53        96.41984
336.98        96.94865
337.43        97.31146
337.88        97.53599
338.34        97.70286
338.79        98.00422
339.24        98.46412
339.69        99.03174
340.14        99.60698
340.59        100.0382
341.05        100.2934
341.50         100.429
341.95        100.5375
342.40        100.7693
342.85        101.1643
343.30        101.6768
343.75        102.2096
344.20        102.6156
344.66         102.864
345.11        102.9787
345.56        103.0601
346.01         103.259
346.46        103.6078
346.91        104.0597
347.36        104.4884
347.81        104.7205
348.26          104.73
348.72        104.5317
349.17        104.3564
349.62        104.3873
350.07        104.6965
350.52        105.1921
350.97        105.6835
351.42        105.8625
351.87        105.6489
352.32        105.1413
352.77        104.5094
353.22        104.0095
353.67        103.7138
354.13        103.5689
354.58        103.4423
355.03        103.1754
355.48        102.7341
355.93        102.1854
356.38        101.6455
356.83        101.2788
357.28        101.1061
357.73        101.0552
358.18        100.9925
358.63        100.7138
359.08        100.1745
359.53        99.44982
359.98        98.65247
360.43        97.95186
360.88        97.39183
361.33        96.91341
361.78         96.4655
362.23        95.97074
362.68        95.40116
363.13        94.78859
363.58        94.13142
364.03        93.41828
364.48        92.65707
364.93        91.85303
365.38           91.04
365.83        90.28011
366.28        89.58894
366.73        88.94584
367.18        88.33916
367.63        87.74566
368.08        87.15285
368.53        86.57491
368.98           85.97
369.43        85.26301
369.88        84.44403
370.33        83.52999
370.78        82.61539
371.23        81.87944
371.68         81.3776
372.13        81.06563
372.58        80.84288
373.03          80.536
373.48        80.08697
373.93        79.53524
374.38        78.93652
374.83        78.39297
375.28        77.94055
375.72        77.53365
376.17        77.15102
376.62        76.70516
377.07        76.17165
377.52        75.56803
377.97        74.95512
378.42        74.44413
378.87        74.07019
379.32        73.80642
379.77         73.5637
380.22         73.2019
380.67        72.68505
381.11        72.04949
381.56        71.38362
382.01        70.85773
382.46        70.52433
382.91        70.34061
383.36        70.19102
383.81        69.89562
384.26        69.41713
384.71        68.81339
385.15        68.19763
385.60        67.80254
386.05         67.6461
386.50        67.65458
386.95        67.68826
387.40        67.53542
387.85        67.15971
388.29        66.60565
388.74        66.07781
389.19        65.68504
389.64        65.44673
390.09        65.29707
390.54        65.17871
390.98        64.99299
391.43        64.75758
391.88        64.50747
392.33        64.25269
392.78         64.0282
393.23        63.84542
393.67        63.57628
394.12        63.33519
394.57        63.31512
395.02        63.42905
395.47        63.26044
395.91        62.83535
396.36        62.53814
396.81        62.41259
397.26        62.26059
397.71        62.06915
398.15        61.89656
398.60        61.80094
399.05        61.65229
399.50        61.51934
399.95        61.57771
400.39          61.772
400.84        61.90465
401.29        61.86889
401.74        61.41051
402.18         60.6765
402.63        60.29735
403.08        60.29274
403.53         60.1118
403.97        59.76123
404.42        59.64658
404.87        59.72377
405.32        59.76822
405.76        59.74379
406.21        59.63211
406.66        59.48002
407.11        59.52536
407.55        59.69809
408.00        59.61823
408.45        59.29433
408.90        58.84342
409.34        58.44691
409.79        58.55807
410.24        59.04237
410.68        59.22864
411.13        59.06807
411.58        58.95965
412.03        58.94346
412.47        58.90633
412.92        58.84287
413.37        58.79589
413.81        58.77154
414.26        58.82624
414.71        58.94522
415.15        59.12364
415.60        59.28702
416.05        59.35711
416.49        59.31441
416.94        59.17784
417.39        59.00005
417.83        58.85794
418.28        58.77707
418.73        58.73011
419.17        58.71044
419.62        58.71751
420.07        58.74705
420.51        58.80161
420.96         58.8692
421.41         58.9117
421.85        58.90296
422.30        58.80841
422.74        58.67438
423.19         58.8407
423.64        59.23281
424.08        59.43154
424.53        59.35139
424.98        59.39087
425.42        59.57764
425.87        59.51865
426.31        59.31936
426.76        59.56942
427.21        60.15835
427.65        60.29961
428.10        59.98114
428.54        59.87553
428.99        60.02799
429.44        60.09856
429.88        60.03455
430.33        59.90058
430.77         59.7009
431.22        59.69252
431.66        59.85126
432.11        59.96653
432.56        60.08515
433.00        60.25869
433.45        60.23032
433.89        60.30449
434.34         60.6859
434.78        59.29078
435.23         59.4882
435.67        60.57575
436.12        60.90951
436.57        61.19106
437.01        60.80804
437.46        60.53565
437.90        60.98769
438.35        61.22374
438.79        60.99899
439.24        60.95836
439.68        60.99886
440.13        61.04527
440.57        61.07059
441.02        61.16081
441.46        61.28846
441.91        61.25674
442.35        61.08939
442.80        61.41406
443.24        62.04398
443.69        62.05215
444.13        61.47079
444.58        61.34445
445.02        61.24857
445.47         61.5136
445.91         61.8417
446.36        61.94983
446.80        61.78902
447.24        61.50488
447.69          61.241
448.13        61.30165
448.58        61.49781
449.02        61.63168
449.47        61.61259
449.91        61.63153
450.36        61.69123
450.80        61.58081
451.25        61.38398
451.69        61.38323
452.13        61.55205
452.58         61.5503
453.02        61.37579
453.47        61.30475
453.91        61.33367
454.36        61.32333
454.80        61.26536
455.24        61.21044
455.69         61.1544
456.13        61.08841
456.58        61.10283
457.02          61.002
457.46        61.02279
457.91        61.33838
458.35        60.53671
458.79        60.45794
459.24        60.67846
459.68        60.88688
460.13        60.99457
460.57        61.04511
461.01        61.06328
461.46        60.65045
461.90        60.49915
462.34        60.40045
462.79        60.21415
463.23        60.31567
463.68        60.51017
464.12        60.34212
464.56        59.92691
465.01        60.12988
465.45        60.70475
465.89         60.7901
466.34        60.42902
466.78        60.03542
467.22        59.74287
467.67        59.90697
468.11        59.96397
468.55        59.97243
468.99        59.76684
469.44         59.6872
469.88        59.73048
470.32        59.67463
470.77        59.53146
471.21        59.42647
471.65        59.37191
472.10        59.33601
472.54        59.30362
472.98        59.27875
473.42          59.263
473.87        59.25258
474.31        59.22599
474.75        59.29185
475.20        59.40039
475.64        59.36989
476.08        59.24433
476.52        59.16273
476.97        59.11189
477.41        59.22277
477.85        59.45115
478.29        58.93624
478.74        58.86621
479.18        58.68516
479.62        59.21568
480.06        59.35289
480.50        59.24358
480.95        59.28344
481.39        59.45948
481.83        59.24042
482.27        59.79082
482.72        59.17839
483.16        59.62328
483.60        59.43019
484.04        59.67905
484.48        59.34282
484.93          59.318
485.37        59.05336
485.81        59.87422
486.25        59.20243
486.69        60.21491
487.14        60.20572
487.58        59.77618
488.02         59.6939
488.46        58.95944
488.90        58.87528
489.34        58.95107
489.79        58.64537
490.23        59.16302
490.67        59.27489
491.11        59.33656
491.55        59.20764
491.99        58.97472
492.43        58.84186
492.88        58.83417
493.32        58.88438
493.76        58.89517
494.20        58.89811
494.64        58.90878
495.08        58.47398
495.52         58.2956
495.96        58.50186
496.41        59.09166
496.85        59.19797
497.29        58.79073
497.73        58.62171
498.17        58.44632
498.61        58.56738
499.05        58.78405
499.49        58.55266
499.93         58.0289
500.37        58.03042
500.82        58.50528
501.26        58.86496
501.70        58.99774
502.14        58.71527
502.58        58.56676
503.02        58.42142
503.46        58.40056
503.90        58.36575
504.34         58.2747
504.78        58.19347
505.22        58.14283
505.66         58.0291
506.10        57.86033
506.54        57.92945
506.98        58.29727
507.42        57.83026
507.86        58.38055
508.30        58.42118
508.74        58.37168
509.18        58.28894
509.62        58.18918
510.06        58.16228
510.50        58.19029
510.94        58.20073
511.38        58.16647
511.82        58.11516
512.26        58.05215
512.70        57.91903
513.14        57.73853
513.58        57.68225
514.02        57.78912
514.46        57.55763
514.90        57.77241
515.34        57.74403
515.78        57.71237
516.22        57.62947
516.66        57.37837
517.10        57.62094
517.54        57.40255
517.98         57.4654
518.42        57.51566
518.86        57.56354
519.30        57.59908
519.74        57.59533
520.18        57.57707
520.62        57.64932
521.06        57.77205
521.50        57.72931
521.93        57.55014
522.37        57.46656
522.81        57.49764
523.25        57.52298
523.69        57.51583
524.13        57.48648
524.57        57.43177
525.01         57.3529
525.45         57.2877
525.89        57.29558
526.32         57.3814
526.76        57.52505
527.20        57.67793
527.64        57.76507
528.08         57.7672
528.52        57.71341
528.96        57.62995
529.40        57.55108
529.83        57.49123
530.27        57.46623
530.71        57.47028
531.15        57.49342
531.59        57.52967
532.03        57.58428
532.46        57.63536
532.90         57.6583
533.34        57.64286
533.78        57.59968
534.22        57.53619
534.66        57.46561
535.09        57.38939
535.53        57.32559
535.97        57.27871
536.41         57.2714
536.85        57.30441
537.28        57.36782
537.72         57.4417
538.16        57.49329
538.60        57.51009
539.04        57.50163
539.47        57.45756
539.91        57.41192
540.35        57.35799
540.79         57.2959
541.22        57.23652
541.66        57.21128
542.10        57.22041
542.54         57.2535
542.97        57.28997
543.41         57.3271
543.85        57.35137
544.29        57.37512
544.72         57.3934
545.16        57.40067
545.60        57.38704
546.04         57.3836
546.47          57.447
546.91        57.34273
547.35        57.79025
547.79        57.75562
548.22          57.503
548.66        57.48841
549.10        57.68781
549.53        57.67903
549.97        57.48068
550.41        57.39935
550.84        57.45876
551.28        57.48003
551.72         57.4395
552.15        57.47083
552.59        57.60519
553.03        57.35201
553.46        57.52409
553.90        57.47154
554.34        57.42941
554.77        57.37823
555.21        57.35389
555.65        57.38386
556.08        57.45615
556.52        57.56234
556.96        57.66044
557.39        57.75006
557.83        57.80437
558.27        57.70033
558.70        57.49399
559.14        57.38235
559.57        57.37463
560.01        57.45918
560.45         57.5558
560.88        57.46561
561.32          57.276
561.75        57.19356
562.19        57.26879
562.63        57.40788
563.06         57.5491
563.50        57.54816
563.93        57.41313
564.37        57.39135
564.80        57.46135
565.24        57.49002
565.68         57.4828
566.11        57.50285
566.55        57.56258
566.98          57.699
567.42        57.87724
567.85        57.79413
568.29        57.56324
568.72        57.61749
569.16         57.9798
569.60        58.02698
570.03        58.01176
570.47        58.07179
570.90        58.28895
571.34        58.05424
571.77        58.46275
572.21        58.31331
572.64        58.28885
573.08        58.03244
573.51        58.27828
573.95        58.64424
574.38        58.34712
574.82        58.76726
