SpectraSmart Spectrum 2.9.0.0
--------- Device Information -----------
Spectrum Name :  反射率_0
Saving Time :  2024/04/21 00:19:01
Spectro-Module Model Name : SE2030-DUVN
Spectro-Module Serial Number : OS361AC55029948
Wavelength Start : 200
Wavelength End : 1025
Wavelength Unit : Wavelength(nm)
Spectrum Unit : Reflectance(%)
-----------Spectrum Setting ------------
Integration Time : 20ms
Average : 10
Boxcar : 0
Background removal :  enabled
linearity correction :  enabled
SC :  disabled
Intensity correction :  disabled
DWT denoise :  enabled
savitzky-golay :  disabled
FFT :  disabled
Running average :  disabled
Kalman :  disabled
High pass :  disabled
---------------BEGIN--------------------
Wavelength(nm)             Reflectance(%)
200.29               0
200.75       -26.72981
201.21       -1.630447
201.67        11.40259
202.13        17.58853
202.58        20.28442
203.04        21.89834
203.50        21.31796
203.96         15.6635
204.42        5.064203
204.88       -9.243782
205.34       -22.25169
205.80       -28.16852
206.26       -25.27471
206.72       -10.48491
207.18        10.96175
207.64        21.89298
208.10        14.77098
208.55       -5.619991
209.01       -21.41757
209.47       -9.215833
209.93        14.12987
210.39        33.10075
210.85        45.74174
211.31        52.85491
211.77        56.85594
212.23         60.4887
212.69        63.12405
213.14        59.14143
213.60        32.09109
214.06       -87.20956
214.52       -442.0843
214.98       -216.5954
215.44       -38.21115
215.90        25.69041
216.36        47.26301
216.81          48.529
217.27        31.85787
217.73       -52.13109
218.19        973.9943
218.65        448.0035
219.11       -1016.487
219.57       -46.71983
220.02        15.94341
220.48        27.15205
220.94        21.37697
221.40       -1.911667
221.86       -57.03905
222.32        -88.6675
222.77        -34.3374
223.23        10.34559
223.69        32.44029
224.15        40.14945
224.61        40.60434
225.06        37.79714
225.52        32.83379
225.98        26.79855
226.44        20.70182
226.90        13.31342
227.36        8.594151
227.81        13.41429
228.27        24.00834
228.73        34.96568
229.19        42.11547
229.65        43.42606
230.10        39.83774
230.56        32.74208
231.02        23.26334
231.48        16.43599
231.93        16.11022
232.39        20.60689
232.85        26.00597
233.31        28.80899
233.77        29.09147
234.22        28.38496
234.68        27.11528
235.14        26.00051
235.60        25.69864
236.05        25.22793
236.51        24.57961
236.97        29.41126
237.43        39.76686
237.88        46.13729
238.34        45.08002
238.80        65.03169
239.26        56.67555
239.71        56.28231
240.17        50.72017
240.63        43.92322
241.08        38.11189
241.54        35.36525
242.00        37.95406
242.46        39.94526
242.91        40.16483
243.37        40.66401
243.83        41.80083
244.28         43.0687
244.74        43.94698
245.20        42.86856
245.66        41.30075
246.11        41.82085
246.57        44.39776
247.03        48.75291
247.48         52.3173
247.94         50.3658
248.40        37.33567
248.85          -5.141
249.31       -158.0973
249.77       -340.5959
250.22       -126.1023
250.68       -19.16217
251.14        19.29896
251.59        32.72663
252.05         36.6935
252.51          36.803
252.96         33.9918
253.42        31.91404
253.88        32.99643
254.33        35.38793
254.79         39.4136
255.25        43.93349
255.70        47.66434
256.16         50.6543
256.62        52.83137
257.07        54.19746
257.53        55.27458
257.99        55.97686
258.44        55.98247
258.90        55.64155
259.35        54.64185
259.81        53.53426
260.27        52.38186
260.72        51.34826
261.18          50.726
261.63          50.154
262.09         49.6295
262.55        48.77849
263.00        47.54887
263.46        46.24813
263.91        44.94771
264.37         44.1281
264.83        43.72127
265.28        43.52507
265.74        43.38805
266.19        42.92976
266.65        42.16046
267.11        41.15129
267.56         40.0315
268.02        39.08461
268.47        38.32574
268.93        37.70083
269.38        37.06721
269.84        36.27073
270.30        35.27089
270.75         34.1431
271.21        33.02543
271.66        32.05635
272.12        31.30375
272.57        30.70099
273.03        30.19715
273.48        29.67951
273.94        29.13766
274.39        28.57591
274.85        28.05179
275.31        27.58132
275.76        27.16386
276.22        26.81765
276.67        26.50125
277.13         26.2343
277.58        25.97388
278.04        25.72977
278.49        25.47656
278.95        25.25536
279.40        25.01813
279.86         24.7826
280.31        24.46709
280.77        24.03315
281.22        23.46586
281.68        22.86818
282.13        22.28022
282.59        21.82851
283.04         21.5181
283.50        21.32461
283.95        21.26009
284.41        21.36416
284.86        21.60208
285.32        21.96088
285.77        22.28948
286.22        22.38526
286.68        22.24251
287.13        21.88605
287.59        21.53628
288.04         21.4276
288.50        21.58009
288.95        22.03721
289.41        22.64964
289.86        22.70196
290.32        22.07388
290.77        22.81533
291.22        21.77515
291.68        21.85818
292.13        22.15213
292.59        22.68529
293.04        23.36322
293.50        24.11366
293.95        24.92134
294.40        25.78233
294.86        26.73261
295.31        27.81466
295.77        29.02398
296.22        30.31765
296.68        31.63084
297.13        32.86454
297.58         34.0213
298.04          35.145
298.49        36.32039
298.95        37.69955
299.40        39.29187
299.85        41.04586
300.31         42.8662
300.76        44.58603
301.21        46.16975
301.67        47.68676
302.12         49.1755
302.58         50.7928
303.03        52.54657
303.48        54.43704
303.94        56.41963
304.39        58.37746
304.84        60.28553
305.30        62.18192
305.75        64.07145
306.20         66.0619
306.66        68.15602
307.11        70.25788
307.57        72.29888
308.02        74.11532
308.47        75.69952
308.93        77.13518
309.38        78.45943
309.83        79.77764
310.29        81.19719
310.74        82.60963
311.19        83.99496
311.65         85.2747
312.10        86.41469
312.55        87.44658
313.00        88.41794
313.46         89.4048
313.91        90.40226
314.36         91.3872
314.82        92.30938
315.27        93.08637
315.72        93.71578
316.18        94.23733
316.63         94.7005
317.08        95.18755
317.53        95.71872
317.99        96.25735
318.44        96.79163
318.89        97.28793
319.35        97.72713
319.80        98.13194
320.25         98.4669
320.70          98.678
321.16        98.75954
321.61        98.74801
322.06        98.72408
322.51        98.82775
322.97        99.07787
323.42        99.47174
323.87        99.91385
324.32        100.2554
324.78         100.435
325.23        100.5311
325.68        100.5897
326.13        100.7195
326.59        100.9263
327.04        101.2175
327.49        101.5332
327.94         101.812
328.39        102.0326
328.85        102.1949
329.30        102.3642
329.75        102.5171
330.20         102.664
330.66        102.7676
331.11        102.9256
331.56        103.1736
332.01         103.521
332.46        103.9505
332.92        104.3608
333.37        104.7122
333.82        104.9396
334.27        105.0874
334.72         105.213
335.17        105.4168
335.63        105.7035
336.08        106.0877
336.53         106.551
336.98        107.1102
337.43        107.7395
337.88         108.425
338.34        109.0308
338.79        109.3873
339.24        109.4448
339.69        109.2769
340.14        109.0434
340.59         109.003
341.05        109.2343
341.50        109.6783
341.95        110.2624
342.40        110.8606
342.85        111.4138
343.30        111.9491
343.75        112.4413
344.20        112.8551
344.66        113.1894
345.11        113.4127
345.56        113.5581
346.01        113.6928
346.46        113.8393
346.91        113.9793
347.36        114.0752
347.81        114.1086
348.26        114.0843
348.72         113.868
349.17        113.7933
349.62        113.7243
350.07        113.7651
350.52         113.874
350.97        113.9798
351.42        113.9623
351.87        113.7882
352.32        113.4995
352.77        113.1517
353.22        112.8281
353.67        112.5528
354.13        112.3125
354.58        112.0589
355.03        111.7718
355.48        111.4396
355.93        111.0714
356.38         110.677
356.83        110.2655
357.28        109.8301
357.73        109.3577
358.18        108.8234
358.63        108.1977
359.08        107.4872
359.53        106.7175
359.98        105.9268
360.43        105.1636
360.88        104.4422
361.33        103.7541
361.78        103.0917
362.23        102.4403
362.68        101.7962
363.13        101.1661
363.58        100.5414
364.03        99.90675
364.48        99.25446
364.93        98.57745
365.38        97.88887
365.83        97.21699
366.28         96.5647
366.73        95.92209
367.18        95.26351
367.63        94.54779
368.08        93.77685
368.53        92.98217
368.98        92.18726
369.43        91.41708
369.88        90.67538
370.33        89.94185
370.78        89.24149
371.23        88.63013
371.68        88.11797
372.13        87.69399
372.58        87.27911
373.03        86.73699
373.48        86.03666
373.93         85.2153
374.38        84.36916
374.83        83.66975
375.28        83.16718
375.72         82.7956
376.17         82.4981
376.62        82.11896
377.07        81.61349
377.52         81.0185
377.97        80.38967
378.42        79.83519
378.87        79.39666
379.32        79.04096
379.77        78.72001
380.22        78.35709
380.67        77.92044
381.11        77.42986
381.56        76.90489
382.01        76.39969
382.46        75.94333
382.91        75.53313
383.36        75.13363
383.81        74.68704
384.26        74.18461
384.71        73.64583
385.15        73.12399
385.60        72.76191
386.05         72.5497
386.50        72.43961
386.95        72.33118
387.40        72.07378
387.85        71.64903
388.29        71.08274
388.74        70.54677
389.19        70.09156
389.64        69.73222
390.09        69.42563
390.54        69.16754
390.98         68.9433
391.43         68.7775
391.88        68.66117
392.33        68.54603
392.78        68.35783
393.23          68.092
393.67        67.73835
394.12        67.42315
394.57        67.18101
395.02         67.0116
395.47        66.85927
395.91        66.72169
396.36        66.58006
396.81        66.45257
397.26        66.38789
397.71        66.29679
398.15        66.06395
398.60        65.76455
399.05        65.20583
399.50        64.64481
399.95        64.77703
400.39        65.45293
400.84        65.82141
401.29        65.70061
401.74        65.18888
402.18        64.46688
402.63        64.07513
403.08        64.04554
403.53         63.8119
403.97        63.39535
404.42        63.28117
404.87        63.39457
405.32         63.4052
405.76        63.26896
406.21        63.00696
406.66        62.71609
407.11        62.71232
407.55        62.93417
408.00        62.95576
408.45        62.73362
408.90        62.29965
409.34        61.82238
409.79        61.81766
410.24        62.17627
410.68        62.24021
411.13        61.97482
411.58        61.77625
412.03        61.70151
412.47        61.66117
412.92        61.64705
413.37         61.6988
413.81         61.7603
414.26        61.79432
414.71         61.7711
415.15        61.70945
415.60        61.61111
416.05        61.54053
416.49        61.51442
416.94        61.50387
417.39         61.4783
417.83        61.38688
418.28         61.2219
418.73        60.99635
419.17        60.75491
419.62        60.58317
420.07         60.5111
420.51        60.51289
420.96        60.55788
421.41        60.60533
421.85        60.62525
422.30        60.51543
422.74        60.32474
423.19        60.58319
423.64        61.11806
424.08        61.05557
424.53        60.43512
424.98        60.24473
425.42         60.5707
425.87        60.85589
426.31        61.01395
426.76        61.15982
427.21        61.25879
427.65        61.29441
428.10        61.27801
428.54        61.21682
428.99        61.15052
429.44        61.21451
429.88        61.29282
430.33        60.98357
430.77        60.40054
431.22        60.27703
431.66        60.55433
432.11        60.68709
432.56        60.66949
433.00        60.70226
433.45        60.62926
433.89        60.72881
434.34        61.07596
434.78        60.28276
435.23        60.05777
435.67        60.89551
436.12        61.38905
436.57        61.51842
437.01         60.9455
437.46        60.56218
437.90        61.01106
438.35        61.58061
438.79        61.41926
439.24        61.47455
439.68        61.46342
440.13        61.30701
440.57        61.07626
441.02        61.12968
441.46        61.41179
441.91        61.44591
442.35        61.22299
442.80        61.44363
443.24         61.9748
443.69        62.02557
444.13        61.56031
444.58        61.60969
445.02        61.26841
445.47        61.40567
445.91        61.65402
446.36        61.77078
446.80        61.71675
447.24        61.63028
447.69        61.57349
448.13        61.71083
448.58        61.82624
449.02        61.76372
449.47        61.51702
449.91        61.41412
450.36        61.49061
450.80        61.48886
451.25        61.42989
451.69        61.50164
452.13        61.64901
452.58        61.56202
453.02        61.27098
453.47        61.09785
453.91        61.05774
454.36        61.00185
454.80        60.90921
455.24        60.81307
455.69        60.72725
456.13        60.58956
456.58        60.51365
457.02        60.40752
457.46        60.90829
457.91        60.72414
458.35        60.27161
458.79        60.07432
459.24        60.18867
459.68        60.30111
460.13        60.41582
460.57        60.35278
461.01        60.05754
461.46        60.48807
461.90         60.1707
462.34         59.9018
462.79        59.97717
463.23        59.99434
463.68        60.08092
464.12        59.75888
464.56        59.21386
465.01        59.34678
465.45        59.92865
465.89        60.07557
466.34        59.69934
466.78         59.5081
467.22        59.57106
467.67        59.50218
468.11        59.61501
468.55        59.57883
468.99          59.473
469.44        59.36448
469.88        59.25392
470.32        59.05369
470.77        58.81202
471.21        58.66454
471.65        58.63518
472.10         58.6978
472.54        58.77932
472.98        58.79808
473.42        58.73991
473.87        58.59695
474.31        58.42472
474.75        58.50769
475.20        58.79508
475.64        58.93017
476.08        58.86853
476.52        58.86847
476.97        58.92263
477.41        58.84394
477.85        58.60249
478.29         58.7011
478.74        58.32177
479.18        58.39458
479.62        58.87693
480.06        59.03452
480.50        58.95128
480.95        58.74594
481.39        58.41777
481.83        58.75074
482.27         58.7779
482.72        58.53106
483.16        58.72264
483.60        59.08714
484.04        59.16553
484.48        58.85311
484.93        58.61402
485.37        58.82188
485.81        59.18407
486.25        58.67633
486.69        59.09991
487.14        59.44704
487.58        59.28037
488.02        59.11336
488.46         58.3243
488.90        59.18764
489.34         58.6866
489.79        58.30165
490.23         58.6487
490.67        58.87659
491.11        59.28312
491.55         59.1883
491.99        58.73459
492.43         58.6039
492.88        58.83265
493.32        59.04479
493.76        59.11246
494.20        59.16332
494.64        59.20819
495.08         58.7971
495.52        58.60992
495.96        58.72102
496.41        59.17397
496.85        59.17855
497.29        58.74525
497.73        58.76812
498.17        58.91458
498.61         59.0062
499.05        58.90591
499.49         58.7082
499.93        58.51068
500.37        58.57949
500.82        58.84628
501.26        58.94693
501.70        58.83469
502.14        58.56128
502.58        58.49105
503.02        58.28514
503.46         58.4066
503.90        58.51003
504.34        58.65098
504.78         58.7711
505.22        58.86521
505.66        58.87333
506.10        58.79425
506.54        58.83819
506.98        59.05197
507.42        58.52936
507.86        59.00406
508.30        58.68136
508.74        58.81855
509.18         58.7574
509.62        58.72978
510.06        58.72786
510.50        58.72084
510.94        58.65093
511.38        58.51965
511.82         58.4168
512.26        58.34972
512.70        58.27279
513.14        58.19826
513.58        58.16413
514.02        58.17359
514.46        58.21803
514.90        58.26017
515.34        58.28137
515.78        58.27702
516.22        58.21207
516.66        57.97237
517.10         58.2376
517.54        58.07483
517.98        58.20575
518.42        58.31147
518.86         58.3522
519.30        58.31297
519.74        58.18428
520.18         58.0448
520.62        58.08386
521.06        58.27645
521.50        58.37746
521.93        58.35914
522.37        58.36364
522.81        58.38545
523.25        58.33073
523.69        58.21265
524.13         58.1053
524.57         58.0232
525.01        57.94523
525.45        57.89085
525.89        57.89182
526.32        57.94468
526.76        58.04385
527.20        58.14568
527.64        58.17978
528.08        58.13111
528.52        58.02535
528.96        57.89705
529.40        57.79467
529.83        57.73314
530.27        57.72445
530.71        57.74686
531.15        57.76395
531.59        57.76523
532.03         57.7654
532.46        57.75983
532.90        57.75179
533.34          57.738
533.78        57.71869
534.22        57.69029
534.66        57.64978
535.09        57.59144
535.53        57.53627
535.97         57.4886
536.41        57.47079
536.85         57.4849
537.28        57.52253
537.72        57.56551
538.16        57.58435
538.60        57.57175
539.04        57.54139
539.47        57.49014
539.91        57.46163
540.35        57.44853
540.79        57.44348
541.22        57.45088
541.66        57.49065
542.10        57.55612
542.54        57.64047
542.97        57.71048
543.41        57.74298
543.85        57.72752
544.29        57.68548
544.72        57.62732
545.16        57.60767
545.60        57.62284
546.04         57.6312
546.47        57.65189
546.91        57.74061
547.35        57.85758
547.79        57.97708
548.22        58.03456
548.66        57.86179
549.10        57.57434
549.53        57.60638
549.97         57.9257
550.41        58.06252
550.84        57.99688
551.28        57.97317
551.72        57.99678
552.15        58.05986
552.59        58.19614
553.03        57.95077
553.46        58.13694
553.90        58.02777
554.34         57.8516
554.77         57.7144
555.21        57.71657
555.65        57.41163
556.08        57.72115
556.52        57.87741
556.96        58.07866
557.39        58.24714
557.83        58.35065
558.27        58.28339
558.70        58.09489
559.14         57.9964
559.57        58.00068
560.01        58.06815
560.45        58.13731
560.88        58.09157
561.32        57.99421
561.75        57.92672
562.19        57.93727
562.63        58.03556
563.06        58.15954
563.50        58.07762
563.93        57.83252
564.37        57.79159
564.80        57.92805
565.24        58.02089
565.68        58.04808
566.11        58.08458
566.55        58.13467
566.98        58.20929
567.42        58.29899
567.85         58.1825
568.29         57.9727
568.72        58.01976
569.16        58.33879
569.60        58.40198
570.03        58.44773
570.47        58.51643
570.90        58.66175
571.34        58.66868
571.77        58.80139
572.21        58.91339
572.64        58.60669
573.08        58.51586
573.51        58.98962
573.95        59.00196
574.38        58.68265
574.82        59.16447
