SpectraSmart Spectrum 2.9.0.0
--------- Device Information -----------
Spectrum Name :  反射率_0
Saving Time :  2024/04/21 00:51:19
Spectro-Module Model Name : SE2030-DUVN
Spectro-Module Serial Number : OS361AC55029948
Wavelength Start : 200
Wavelength End : 1025
Wavelength Unit : Wavelength(nm)
Spectrum Unit : Reflectance(%)
-----------Spectrum Setting ------------
Integration Time : 20ms
Average : 10
Boxcar : 0
Background removal :  enabled
linearity correction :  enabled
SC :  disabled
Intensity correction :  disabled
DWT denoise :  enabled
savitzky-golay :  disabled
FFT :  disabled
Running average :  disabled
Kalman :  disabled
High pass :  disabled
---------------BEGIN--------------------
Wavelength(nm)             Reflectance(%)
200.29               0
200.75       -71.28849
201.21       -20.49681
201.67        7.368013
202.13        18.61331
202.58        20.61019
203.04         17.6236
203.50        11.71879
203.96        7.821625
204.42        8.107774
204.88        9.800508
205.34        11.80074
205.80        12.44414
206.26        11.47346
206.72        12.26227
207.18        11.38151
207.64       0.3399515
208.10       -20.89492
208.55       -49.39928
209.01       -60.77351
209.47       -30.27513
209.93        10.84656
210.39        43.01496
210.85        62.78766
211.31        70.19528
211.77         68.1576
212.23         57.0928
212.69        31.84793
213.14       -13.33448
213.60       -89.09779
214.06       -288.0175
214.52       -694.0603
214.98       -276.2605
215.44       -53.24401
215.90         17.5786
216.36        40.15894
216.81        42.14676
217.27        27.27645
217.73       -51.35075
218.19        915.8204
218.65         419.275
219.11        -951.165
219.57       -43.50011
220.02        15.32189
220.48         26.0017
220.94        20.91417
221.40      -0.5767784
221.86       -51.47738
222.32       -79.71214
222.77       -28.63123
223.23        12.95051
223.69        32.63741
224.15        37.61888
224.61        34.56825
225.06        27.25755
225.52        17.62495
225.98        8.656357
226.44        2.023155
226.90       -4.168962
227.36       -6.726974
227.81      -0.7204337
228.27        9.603086
228.73        20.02572
229.19        26.63985
229.65        27.32177
230.10        22.99885
230.56        15.08979
231.02        5.153732
231.48      -0.8900494
231.93       0.8541259
232.39        7.947624
232.85        15.34048
233.31        18.74187
233.77        18.44827
234.22        16.34897
234.68        13.30296
235.14         10.9509
235.60        10.37079
236.05        10.15044
236.51        10.14283
236.97        16.62842
237.43        29.33512
237.88         37.2787
238.34        36.29867
238.80        58.86915
239.26        47.05385
239.71         43.0497
240.17        31.50924
240.63         20.1348
241.08        14.74916
241.54        20.00827
242.00        35.12273
242.46        46.03877
242.91        49.31602
243.37         46.1489
243.83          38.787
244.28        36.49076
244.74        43.74317
245.20        54.83809
245.66        63.27174
246.11        62.94436
246.57        53.59451
247.03        37.55175
247.48        17.95863
247.94       0.1247247
248.40       -16.15041
248.85       -42.24962
249.31       -99.87278
249.77        -108.199
250.22       -10.01819
250.68         20.9573
251.14        28.46572
251.59        28.64268
252.05        25.40121
252.51        19.13671
252.96        9.570439
253.42        2.429106
253.88        3.076149
254.33        9.453403
254.79        20.73101
255.25        33.66877
255.70        44.60839
256.16        53.01335
256.62        58.06638
257.07        59.50111
257.53        59.00001
257.99        57.37202
258.44        55.62943
258.90        55.31785
259.35        55.68393
259.81         56.4515
260.27        56.66407
260.72        55.45535
261.18        53.46155
261.63        51.05481
262.09        48.90993
262.55        47.22931
263.00        45.89618
263.46        44.89054
263.91        43.97232
264.37        43.23767
264.83        42.57759
265.28        41.95297
265.74         41.3919
266.19        40.74328
266.65        40.02738
267.11        39.20621
267.56        38.26919
268.02        37.29411
268.47        36.27069
268.93        35.25313
269.38        34.20407
269.84        33.12241
270.30        32.01835
270.75        30.89854
271.21        29.91436
271.66        29.23134
272.12        28.86909
272.57        28.72865
273.03        28.59819
273.48        28.13116
273.94        27.30181
274.39         26.2194
274.85        25.11562
275.31        24.27917
275.76        23.77611
276.22        23.52179
276.67         23.4114
277.13         23.3611
277.58        23.28194
278.04        23.20988
278.49        23.06506
278.95         22.7964
279.40        22.37059
279.86        21.84264
280.31        21.24159
280.77        20.68956
281.22         20.2013
281.68        19.81467
282.13        19.49715
282.59        19.25932
283.04        19.07601
283.50        18.95646
283.95        18.92802
284.41        19.04661
284.86        19.29419
285.32        19.65121
285.77         19.9909
286.22        20.14491
286.68        20.11581
287.13         19.9269
287.59        19.77844
288.04        19.87189
288.50        20.21156
288.95        20.84365
289.41        21.63136
289.86        21.87799
290.32        21.46418
290.77        22.44387
291.22        21.61139
291.68          21.835
292.13        22.19765
292.59        22.75167
293.04        23.45972
293.50        24.33615
293.95         25.3864
294.40        26.58401
294.86         27.9134
295.31        29.33102
295.77        30.80957
296.22        32.32899
296.68        33.86661
297.13         35.3912
297.58        36.91891
298.04        38.46415
298.49        40.07361
298.95        41.84023
299.40        43.75854
299.85        45.80768
300.31        47.91109
300.76        49.92324
301.21        51.82434
301.67         53.6756
302.12        55.53556
302.58        57.60594
303.03         59.8825
303.48        62.33862
303.94        64.87007
304.39        67.26108
304.84        69.46037
305.30        71.53314
305.75        73.50724
306.20        75.54264
306.66        77.67039
307.11        79.78384
307.57        81.83218
308.02         83.6595
308.47        85.26867
308.93        86.74608
309.38        88.12051
309.83        89.50745
310.29        90.97359
310.74        92.41775
311.19        93.80737
311.65        95.06009
312.10        96.13637
312.55          97.078
313.00        97.90696
313.46        98.65988
313.91        99.34267
314.36        99.96086
314.82        100.5501
315.27        101.1539
315.72        101.7912
316.18        102.4566
316.63        103.1122
317.08        103.6953
317.53        104.1817
317.99        104.5749
318.44        104.9044
318.89        105.2079
319.35        105.4957
319.80        105.7671
320.25        105.9901
320.70        106.1357
321.16        106.1714
321.61        106.1528
322.06        106.1369
322.51        106.2303
322.97         106.441
323.42          106.78
323.87         107.148
324.32        107.3957
324.78        107.4673
325.23        107.4415
325.68        107.4017
326.13        107.5189
326.59        107.8073
327.04        108.2646
327.49        108.7622
327.94         109.122
328.39         109.293
328.85        109.2993
329.30        109.2906
329.75        109.3809
330.20        109.6165
330.66        109.9158
331.11        110.2966
331.56        110.6487
332.01        110.9407
332.46        111.1985
332.92        111.3885
333.37        111.5963
333.82        111.7933
334.27        111.9856
334.72        112.1888
335.17        112.4338
335.63        112.7011
336.08        113.0417
336.53        113.4488
336.98        113.9558
337.43        114.5506
337.88        115.2107
338.34        115.8218
338.79        116.2589
339.24        116.4692
339.69        116.5052
340.14        116.4793
340.59        116.5763
341.05        116.8531
341.50        117.2693
341.95        117.7719
342.40        118.2734
342.85        118.7308
343.30        119.1591
343.75        119.5443
344.20        119.8685
344.66         120.133
345.11         120.311
345.56         120.412
346.01        120.4584
346.46        120.4761
346.91        120.4671
347.36        120.4316
347.81        120.4291
348.26        120.4769
348.72        120.3272
349.17        120.4378
349.62        120.5407
350.07        120.7616
350.52        121.0592
350.97        121.3039
351.42        121.2816
351.87        120.9464
352.32        120.3651
352.77        119.7034
353.22         119.216
353.67        118.9618
354.13         118.888
354.58        118.8248
355.03        118.5513
355.48        118.0195
355.93        117.3104
356.38        116.5734
356.83        116.0277
357.28        115.7085
357.73         115.527
358.18        115.3355
358.63        114.9072
359.08        114.1923
359.53        113.2789
359.98        112.2844
360.43        111.3812
360.88        110.6146
361.33        109.9233
361.78        109.2637
362.23        108.5696
362.68        107.8205
363.13        107.0562
363.58        106.2618
364.03        105.4045
364.48        104.4861
364.93         103.505
365.38        102.5344
365.83        101.7008
366.28        101.0221
366.73        100.4565
367.18        99.89729
367.63        99.17168
368.08        98.24862
368.53         97.1989
368.98        96.10943
369.43        95.10266
369.88        94.21356
370.33        93.39933
370.78        92.65162
371.23        91.97264
371.68        91.35715
372.13        90.80901
372.58        90.29446
373.03        89.74116
373.48        89.12486
373.93        88.46095
374.38        87.75996
374.83         87.0595
375.28         86.3868
375.72        85.71785
376.17        85.11548
376.62         84.5966
377.07        84.14507
377.52        83.74234
377.97        83.32565
378.42        82.80466
378.87        82.17699
379.32        81.48626
379.77         80.7988
380.22        80.19581
380.67        79.68191
381.11        79.22733
381.56        78.78904
382.01        78.32035
382.46        77.81901
382.91        77.31638
383.36        76.81908
383.81        76.32942
384.26        75.85032
384.71         75.3744
385.15        74.91637
385.60        74.56466
386.05         74.2998
386.50        74.09964
386.95        73.89865
387.40        73.60006
387.85        73.19792
388.29        72.69092
388.74        72.23292
389.19        71.85202
389.64        71.54881
390.09        71.27721
390.54        71.02429
390.98        70.76291
391.43        70.52832
391.88        70.32536
392.33        70.10374
392.78        69.82861
393.23        69.50863
393.67        69.00671
394.12         68.5099
394.57        68.39964
395.02        68.55472
395.47        68.29119
395.91        67.66357
396.36        67.31314
396.81        67.29216
397.26        67.25972
397.71        67.12946
398.15        66.93715
398.60        66.74583
399.05        66.35984
399.50        65.94337
399.95        65.99941
400.39         66.4072
400.84        66.47392
401.29        66.13039
401.74        65.64333
402.18        65.15658
402.63        64.91599
403.08        64.90485
403.53         64.7331
403.97        64.40164
404.42        64.24469
404.87        64.23576
405.32        64.21365
405.76        64.15347
406.21        64.01223
406.66         63.8512
407.11        63.94192
407.55        64.20239
408.00        64.21884
408.45        63.95022
408.90        63.43154
409.34        62.84884
409.79        62.73496
410.24        62.99836
410.68        62.99986
411.13        62.71284
411.58        62.53416
412.03        62.51735
412.47        62.55984
412.92        62.63738
413.37        62.77986
413.81          62.918
414.26         62.9996
414.71        62.99415
415.15        62.93225
415.60         62.8074
416.05        62.67525
416.49        62.56204
416.94        62.44437
417.39         62.3497
417.83         62.3115
418.28        62.33107
418.73        62.39759
419.17        62.45781
419.62        62.43245
420.07        62.31118
420.51        62.11858
420.96        61.93177
421.41        61.84829
421.85         61.8647
422.30        61.91523
422.74         61.9574
423.19        62.18019
423.64        62.48796
424.08        62.55643
424.53        62.34523
424.98        62.26669
425.42        62.37407
425.87         62.3222
426.31        62.18295
426.76        62.40676
427.21        62.89209
427.65        63.03284
428.10        62.81862
428.54        62.73962
428.99        62.84469
429.44        62.98109
429.88        63.02838
430.33        62.78817
430.77        62.37873
431.22        62.29267
431.66         62.5354
432.11         63.0709
432.56         63.6835
433.00        63.61459
433.45        62.78458
433.89        62.33852
434.34        62.51991
434.78        62.31181
435.23        62.43126
435.67        63.28719
436.12        63.71395
436.57        63.77258
437.01         63.3009
437.46        62.95844
437.90        63.43833
438.35        63.89717
438.79        63.87406
439.24        63.94296
439.68        63.92899
440.13        63.83754
440.57        63.69374
441.02        63.63904
441.46         63.6949
441.91        63.69206
442.35        63.60118
442.80        64.01385
443.24        64.72971
443.69        64.69778
444.13        63.92583
444.58        64.00484
445.02        63.64982
445.47        63.85839
445.91        64.12039
446.36         64.2523
446.80        64.20676
447.24          64.119
447.69        64.05511
448.13        64.18098
448.58         64.2747
449.02        64.17454
449.47         63.8995
449.91        63.82961
450.36        64.00485
450.80        64.14473
451.25        64.22173
451.69        64.35776
452.13        64.47946
452.58         64.2813
453.02        63.85184
453.47        63.61512
453.91        63.60738
454.36        63.65777
454.80        63.69671
455.24        63.62831
455.69        63.43708
456.13        63.17922
456.58        63.07888
457.02        62.68021
457.46        63.54306
457.91        63.44583
458.35        62.95465
458.79        62.72795
459.24        62.81744
459.68        62.76184
460.13        62.58965
460.57         62.4762
461.01        62.42253
461.46        62.38541
461.90        62.52562
462.34        62.30689
462.79        62.27954
463.23        62.36006
463.68        62.61017
464.12        62.35363
464.56        61.74198
465.01        61.91602
465.45        62.63229
465.89         62.5684
466.34        61.83536
466.78        61.71338
467.22        62.26533
467.67        61.73553
468.11        61.85816
468.55        61.55252
468.99        61.35514
469.44        61.39201
469.88        61.13517
470.32        61.05003
470.77        60.95297
471.21        60.86886
471.65        60.78848
472.10        60.71181
472.54         60.6608
472.98        60.66955
473.42        60.73994
473.87          60.885
474.31        61.00665
474.75        61.02805
475.20        60.93004
475.64        60.74379
476.08        60.54526
476.52        60.47464
476.97        60.53552
477.41        60.76037
477.85        60.91119
478.29        61.12825
478.74         60.3132
479.18        60.49389
479.62        60.62868
480.06        60.49343
480.50        60.57921
480.95          60.516
481.39        60.42537
481.83        60.77196
482.27        60.97458
482.72        60.52076
483.16        60.77467
483.60         61.0477
484.04        61.00092
484.48        60.68584
484.93        60.67348
485.37        60.42296
485.81        61.41391
486.25        60.90141
486.69        61.82779
487.14        61.90182
487.58        61.22208
488.02        60.64085
488.46        60.89637
488.90        60.53324
489.34        60.09675
489.79        59.47234
490.23        60.37556
490.67        60.69674
491.11         60.7959
491.55        60.62865
491.99        60.30725
492.43        60.17898
492.88         60.2673
493.32        60.35967
493.76        60.35283
494.20        60.33201
494.64        60.31151
495.08        59.90874
495.52        59.76334
495.96        59.79985
496.41        60.09628
496.85        60.15118
497.29        59.92656
497.73         59.9818
498.17        59.96809
498.61        59.97883
499.05        59.88842
499.49        59.56978
499.93        59.20805
500.37         59.3699
500.82        59.93789
501.26        60.32928
501.70        60.41865
502.14        60.03215
502.58        59.77938
503.02        59.58219
503.46        59.58195
503.90        59.62811
504.34        59.65751
504.78        59.68459
505.22        59.69728
505.66        59.66655
506.10        59.60214
506.54        59.63672
506.98        59.79378
507.42        59.60334
507.86        59.80622
508.30        59.85435
508.74        59.83541
509.18        59.82652
509.62         59.7861
510.06        59.73242
510.50        59.64409
510.94        59.46418
511.38        59.23723
511.82         59.0943
512.26        59.05222
512.70        59.05345
513.14        59.06959
513.58        59.07101
514.02        59.04396
514.46        58.99895
514.90        58.93594
515.34        58.89697
515.78        58.89414
516.22        58.87554
516.66        58.69675
517.10        58.98362
517.54        58.80643
517.98         58.8887
518.42        58.93924
518.86        58.95386
519.30        58.92617
519.74        58.83259
520.18        58.72975
520.62         58.7755
521.06         58.9382
521.50        58.98447
521.93        58.90716
522.37        58.88211
522.81        58.91274
523.25        58.89228
523.69        58.82355
524.13        58.76575
524.57        58.72611
525.01        58.68723
525.45        58.66405
525.89        58.68041
526.32        58.73338
526.76        58.82015
527.20        58.90533
527.64        58.93438
528.08        58.89456
528.52        58.80292
528.96        58.69264
529.40        58.60868
529.83         58.5635
530.27        58.57547
530.71        58.60569
531.15        58.58965
531.59        58.51784
532.03        58.41547
532.46        58.32124
532.90        58.30759
533.34        58.38022
533.78        58.51222
534.22        58.64616
534.66        58.69635
535.09        58.63678
535.53        58.51457
535.97        58.36824
536.41        58.27529
536.85         58.2563
537.28        58.28723
537.72        58.33856
538.16        58.36336
538.60        58.34783
539.04         58.3137
539.47        58.26257
539.91        58.24249
540.35        58.24671
540.79        58.26542
541.22        58.29354
541.66        58.33918
542.10        58.39309
542.54        58.44828
542.97        58.48897
543.41        58.52283
543.85        58.54246
544.29        58.55495
544.72        58.54229
545.16        58.53083
545.60        58.51799
546.04        58.43536
546.47        58.32723
546.91        58.42483
547.35        58.65573
547.79        58.64979
548.22        58.41942
548.66        58.31925
549.10        58.37215
549.53        58.39921
549.97        58.39435
550.41        58.39553
550.84        58.40273
551.28        58.39477
551.72        58.38079
552.15        58.42454
552.59        58.54266
553.03        58.49073
553.46        58.69247
553.90        58.63701
554.34         58.4115
554.77         58.4178
555.21         58.4608
555.65        57.92312
556.08         58.3774
556.52        58.48893
556.96        58.67356
557.39        58.79797
557.83         58.8314
558.27        58.80146
558.70        58.54985
559.14        58.46374
559.57        58.49329
560.01        58.66973
560.45        58.85493
560.88         58.7386
561.32        58.44033
561.75        58.19749
562.19        58.13258
562.63        58.41686
563.06        58.86862
563.50        58.78765
563.93        58.24971
564.37        58.04172
564.80        58.19304
565.24        58.36954
565.68        58.51218
566.11        58.60897
566.55        58.65132
566.98        58.74749
567.42        58.87285
567.85        58.73773
568.29        58.48947
568.72        58.49945
569.16        58.74336
569.60        59.05946
570.03        58.94484
570.47         59.0019
570.90        59.05329
571.34        59.26749
571.77        59.36385
572.21        59.37875
572.64        59.24944
573.08        59.13469
573.51        59.46511
573.95         59.6448
574.38        59.36279
574.82        60.07746
