SpectraSmart Spectrum 2.9.0.0
--------- Device Information -----------
Spectrum Name :  反射率_0
Saving Time :  2024/04/21 00:41:21
Spectro-Module Model Name : SE2030-DUVN
Spectro-Module Serial Number : OS361AC55029948
Wavelength Start : 200
Wavelength End : 1025
Wavelength Unit : Wavelength(nm)
Spectrum Unit : Reflectance(%)
-----------Spectrum Setting ------------
Integration Time : 20ms
Average : 10
Boxcar : 0
Background removal :  enabled
linearity correction :  enabled
SC :  disabled
Intensity correction :  disabled
DWT denoise :  enabled
savitzky-golay :  disabled
FFT :  disabled
Running average :  disabled
Kalman :  disabled
High pass :  disabled
---------------BEGIN--------------------
Wavelength(nm)             Reflectance(%)
200.29               0
200.75       -61.08331
201.21       -1.047879
201.67          29.449
202.13        37.31082
202.58        31.31303
203.04        15.49227
203.50       -5.340266
203.96       -16.26837
204.42       -10.36689
204.88        5.983243
205.34        24.67033
205.80        35.10337
206.26        34.60717
206.72        26.73189
207.18        10.86898
207.64       -11.60218
208.10       -34.62425
208.55       -57.63428
209.01       -61.36843
209.47       -29.22498
209.93        9.034819
210.39        38.02482
210.85         55.6985
211.31        62.51737
211.77        61.24336
212.23        52.47271
212.69        31.01075
213.14       -11.61029
213.60       -92.79655
214.06       -327.2736
214.52       -849.1771
214.98       -362.5641
215.44       -80.66502
215.90         11.6421
216.36        42.29333
216.81        47.32405
217.27        33.64821
217.73       -44.91279
218.19        919.3776
218.65        411.7644
219.11       -837.2919
219.57       -15.70743
220.02        36.02754
220.48        43.93013
220.94        36.04774
221.40        9.758492
221.86       -53.45797
222.32       -99.74802
222.77         -48.826
223.23       -1.195097
223.69        23.83077
224.15        33.32046
224.61        34.96415
225.06        33.41604
225.52        29.79133
225.98        24.97572
226.44        19.83729
226.90        13.06759
227.36        8.409667
227.81        12.60789
228.27        22.29901
228.73        32.43934
229.19        39.02222
229.65        39.95538
230.10        36.10871
230.56        28.94713
231.02        19.63004
231.48        13.12906
231.93         13.1902
232.39         18.0023
232.85        23.75544
233.31        27.15168
233.77        28.29493
234.22        28.70194
234.68         28.4355
235.14        27.49917
235.60        26.30196
236.05        23.95909
236.51         21.0351
236.97        24.73231
237.43          35.675
237.88        43.41871
238.34        43.87304
238.80        64.60317
239.26        54.92719
239.71        51.53928
240.17        41.35732
240.63        31.42801
241.08        27.13191
241.54        32.03917
242.00        44.91501
242.46        52.91161
242.91        52.58683
243.37         44.9125
243.83         32.0649
244.28        24.46768
244.74        28.56015
245.20        38.11115
245.66        47.44128
246.11        51.65902
246.57        50.04775
247.03        44.83381
247.48        35.93825
247.94         22.3249
248.40       -1.286855
248.85       -61.17773
249.31       -255.0736
249.77       -446.1205
250.22       -162.0781
250.68       -32.17756
251.14        12.47698
251.59         27.1287
252.05        30.35078
252.51        28.08277
252.96        21.51357
253.42        16.82334
253.88        18.86902
254.33        24.97215
254.79        33.97746
255.25         43.2562
255.70        50.57763
256.16        56.03624
256.62        59.77274
257.07        61.95978
257.53        63.48048
257.99        64.44221
258.44        64.54065
258.90        64.22427
259.35         63.1526
259.81         61.8902
260.27        60.61718
260.72        59.62626
261.18        59.17884
261.63        58.77546
262.09        58.27567
262.55        57.07215
263.00        55.17594
263.46        53.08923
263.91        51.05727
264.37        49.84428
264.83        49.39577
265.28        49.36427
265.74        49.51569
266.19        49.34135
266.65        48.81307
267.11        48.02474
267.56        47.05376
268.02        46.11065
268.47        45.20419
268.93        44.30683
269.38        43.35757
269.84        42.34668
270.30        41.26903
270.75        40.16365
271.21        39.11855
271.66        38.17962
272.12        37.39197
272.57        36.71481
273.03        36.11957
273.48        35.51213
273.94        34.89226
274.39        34.24086
274.85        33.61808
275.31        33.04173
275.76        32.50635
276.22        32.03752
276.67        31.58113
277.13        31.15019
277.58        30.70111
278.04        30.26828
278.49        29.83377
278.95        29.46044
279.40        29.10394
279.86        28.78546
280.31        28.42617
280.77        28.00504
281.22        27.49188
281.68        26.97124
282.13        26.45681
282.59        26.05114
283.04        25.74222
283.50        25.51726
283.95        25.37095
284.41        25.32719
284.86        25.36284
285.32        25.49362
285.77        25.61323
286.22        25.58901
286.68        25.42796
287.13        25.12678
287.59        24.88447
288.04        24.89467
288.50        25.16175
288.95        25.72745
289.41        26.41807
289.86        26.50156
290.32         25.8646
290.77        26.46768
291.22         25.3687
291.68        25.42597
292.13        25.78286
292.59        26.44141
293.04        27.25417
293.50        28.05957
293.95         28.8267
294.40        29.59602
294.86        30.45018
295.31         31.5031
295.77        32.77404
296.22        34.18819
296.68        35.67917
297.13        37.14649
297.58        38.57383
298.04        39.99475
298.49        41.43761
298.95        42.96487
299.40        44.57412
299.85        46.25419
300.31        47.96596
300.76        49.62862
301.21         51.2359
301.67        52.82635
302.12        54.44377
302.58         56.2606
303.03        58.26248
303.48        60.44114
303.94        62.67326
304.39        64.71278
304.84          66.523
305.30        68.19287
305.75        69.82028
306.20        71.66602
306.66         73.7688
307.11         75.9772
307.57        78.17492
308.02        80.11343
308.47        81.76397
308.93        83.24325
309.38        84.58028
309.83        85.88441
310.29          87.247
310.74        88.55695
311.19        89.84045
311.65        91.10557
312.10        92.32706
312.55        93.52243
313.00        94.63599
313.46        95.57461
313.91        96.31345
314.36         96.8936
314.82        97.41919
315.27        98.04644
315.72        98.81948
316.18        99.69278
316.63        100.5748
317.08        101.3169
317.53        101.8719
317.99         102.278
318.44         102.596
318.89        102.9111
319.35        103.2491
319.80        103.5892
320.25        103.9007
320.70        104.1446
321.16        104.3042
321.61        104.4189
322.06        104.5174
322.51        104.6449
322.97        104.8033
323.42        105.0217
323.87        105.2581
324.32        105.4631
324.78        105.6043
325.23        105.7265
325.68        105.8644
326.13         106.105
326.59        106.4374
327.04         106.892
327.49        107.3486
327.94        107.6448
328.39         107.744
328.85        107.6572
329.30        107.5836
329.75        107.7245
330.20         108.139
330.66          108.73
331.11        109.4118
331.56        109.8968
332.01        110.1121
332.46        110.1303
332.92        110.0444
333.37         110.162
333.82        110.5153
334.27        111.0403
334.72        111.6402
335.17        112.1538
335.63        112.5029
336.08        112.8054
336.53        113.1075
336.98        113.5309
337.43        114.1013
337.88        114.7553
338.34        115.4029
338.79        115.9651
339.24        116.3794
339.69        116.6846
340.14        116.8966
340.59        117.0447
341.05         117.158
341.50        117.2422
341.95        117.3552
342.40        117.5954
342.85        117.9803
343.30        118.4876
343.75        119.0278
344.20        119.4548
344.66        119.7361
345.11        119.8843
345.56        119.9764
346.01        120.1387
346.46        120.4058
346.91        120.7218
347.36        120.9975
347.81        121.1665
348.26        121.2223
348.72        120.9606
349.17        120.9164
349.62        120.9075
350.07        121.0986
350.52        121.4188
350.97        121.7393
351.42        121.8449
351.87        121.6733
352.32        121.2885
352.77        120.8075
353.22        120.4076
353.67        120.1353
354.13          119.96
354.58        119.7619
355.03        119.4051
355.48        118.8703
355.93         118.221
356.38        117.5795
356.83        117.1236
357.28         116.872
357.73          116.74
358.18        116.5983
358.63        116.2474
359.08        115.6367
359.53        114.8435
359.98         113.933
360.43        112.9999
360.88        112.0878
361.33        111.1712
361.78        110.2944
362.23        109.5316
362.68        108.8888
363.13        108.3527
363.58        107.8326
364.03        107.1728
364.48        106.3379
364.93        105.3701
365.38        104.3547
365.83        103.4406
366.28        102.6659
366.73        101.9749
367.18        101.3196
367.63        100.6246
368.08        99.86664
368.53        99.08883
368.98        98.27361
369.43        97.37621
369.88        96.39603
370.33        95.33526
370.78        94.28844
371.23        93.44025
371.68        92.84035
372.13        92.43942
372.58        92.11399
373.03        91.65111
373.48        90.98631
373.93        90.17742
374.38        89.30101
374.83        88.49704
375.28        87.82487
375.72        87.23348
376.17        86.72088
376.62        86.21101
377.07        85.67036
377.52        85.10208
377.97        84.53731
378.42        84.03928
378.87        83.63093
379.32         83.2892
379.77        82.92622
380.22        82.44025
380.67        81.81198
381.11        80.93005
381.56        80.17078
382.01        79.55804
382.46        79.22894
382.91        79.11021
383.36        79.04039
383.81        78.76234
384.26        78.21484
384.71        77.48063
385.15        76.68945
385.60        76.10565
386.05        75.76446
386.50        75.59053
386.95        75.46185
387.40        75.19666
387.85        74.76361
388.29        74.19292
388.74        73.68195
389.19        73.30384
389.64        73.06791
390.09        72.91684
390.54        72.77679
390.98        72.52376
391.43        72.17067
391.88          71.754
392.33        71.33144
392.78        70.95757
393.23        70.64678
393.67        70.40553
394.12        70.26798
394.57        69.97964
395.02        69.58474
395.47         69.4145
395.91        69.44521
396.36        69.31481
396.81         69.0275
397.26        68.81323
397.71        68.64645
398.15        68.40401
398.60        68.17196
399.05        67.80367
399.50        67.43562
399.95        67.52889
400.39        67.96528
400.84        68.04205
401.29        67.70302
401.74        67.31548
402.18        66.97276
402.63        66.68505
403.08        66.45064
403.53        66.13837
403.97        65.75968
404.42        65.47879
404.87         65.3222
405.32        65.23199
405.76        65.18353
406.21        65.25945
406.66        65.36004
407.11        65.18511
407.55        64.77565
408.00        64.48933
408.45         64.3814
408.90        64.09499
409.34        63.71113
409.79        63.71661
410.24         63.9945
410.68        64.03159
411.13        63.78799
411.58        63.49717
412.03        63.25216
412.47        63.14975
412.92        63.20576
413.37        63.38634
413.81        63.58971
414.26        63.72298
414.71        63.74001
415.15        63.68782
415.60        63.57431
416.05        63.47308
416.49        63.41304
416.94        63.36025
417.39        63.31856
417.83        63.29045
418.28        63.27272
418.73        63.26434
419.17        63.24572
419.62         63.1907
420.07        63.10326
420.51        62.99568
420.96         62.9053
421.41        62.87161
421.85        62.87856
422.30        62.86537
422.74        62.83923
423.19        63.08593
423.64        63.51557
424.08        63.73033
424.53        63.62468
424.98        63.58813
425.42        63.65485
425.87        63.37997
426.31        62.92688
426.76         63.0932
427.21        63.72462
427.65        63.72419
428.10        63.11518
428.54        62.89378
428.99        63.11508
429.44        63.23473
429.88        63.19689
430.33        63.18866
430.77        63.17739
431.22        63.29021
431.66        63.47987
432.11        63.64381
432.56        63.72621
433.00         63.5536
433.45        63.05894
433.89        62.79899
434.34        62.88869
434.78        62.65055
435.23        62.38836
435.67        63.27545
436.12         63.6604
436.57        63.81561
437.01        63.39258
437.46        63.05667
437.90        63.50254
438.35         63.6808
438.79        63.62749
439.24        63.65631
439.68         63.7159
440.13        63.86502
440.57         64.0429
441.02        63.95686
441.46        63.69023
441.91        63.81691
442.35        64.18653
442.80        64.44184
443.24        64.51377
443.69         64.5998
444.13        64.67139
444.58        64.56402
445.02        64.34474
445.47        64.39948
445.91        64.65805
446.36        64.74337
446.80        64.62731
447.24        64.45998
447.69        64.32273
448.13        64.44864
448.58        64.61339
449.02        64.63055
449.47        64.44836
449.91        64.34039
450.36        64.33157
450.80        64.18317
451.25        63.95741
451.69        63.91053
452.13        64.00642
452.58        63.90673
453.02        63.63811
453.47        63.52596
453.91        63.56856
454.36        63.60422
454.80        63.58163
455.24        63.48647
455.69        63.32598
456.13        63.09568
456.58        62.89909
457.02        62.70411
457.46        62.77007
457.91        62.73164
458.35        62.74215
458.79        62.72064
459.24        62.70644
459.68        62.65351
460.13        62.56606
460.57        62.45007
461.01        62.33877
461.46        62.25769
461.90        61.62876
462.34        62.17109
462.79        61.59176
463.23        61.57907
463.68        61.69553
464.12        61.49701
464.56         61.1559
465.01         61.2354
465.45         61.5668
465.89        61.73083
466.34        61.70736
466.78         61.3412
467.22        60.73655
467.67         61.0937
468.11        60.97824
468.55        60.92118
468.99        60.53325
469.44        60.35252
469.88        60.38895
470.32        60.38889
470.77        60.31438
471.21        60.18763
471.65        59.99607
472.10         59.7375
472.54        59.49539
472.98        59.37028
473.42        59.37434
473.87         59.6209
474.31        59.93887
474.75         59.8488
475.20        59.44333
475.64        59.43908
476.08        59.80707
476.52        59.86178
476.97        59.56528
477.41        59.51439
477.85        59.73424
478.29         59.1534
478.74        59.14803
479.18        58.99792
479.62        59.33405
480.06        59.40521
480.50         59.2793
480.95        59.49427
481.39        59.38601
481.83        59.46456
482.27        59.84658
482.72        59.32708
483.16        59.59315
483.60         59.7063
484.04        59.78604
484.48        59.41918
484.93        59.16972
485.37        59.37926
485.81        59.58042
486.25        59.29834
486.69        61.68353
487.14        61.68942
487.58        60.25815
488.02        59.38726
488.46        59.16703
488.90         59.2231
489.34         58.9418
489.79        58.45206
490.23        58.99158
490.67         59.0204
491.11        58.93428
491.55        58.70319
491.99        58.43335
492.43         58.2995
492.88        58.32909
493.32        58.47675
493.76        58.62675
494.20        58.73391
494.64        58.79155
495.08        58.43451
495.52        58.31986
495.96        58.35714
496.41        58.62373
496.85        58.61224
497.29        58.29958
497.73         58.2282
498.17        58.10873
498.61        58.15068
499.05        58.21932
499.49        58.09439
499.93         57.8717
500.37        57.99566
500.82        58.38136
501.26        58.58945
501.70        58.56424
502.14         58.2186
502.58        58.09745
503.02        57.89515
503.46        57.80343
503.90        57.74248
504.34        57.71046
504.78        57.72257
505.22        57.77356
505.66        57.82661
506.10        57.88146
506.54        57.95056
506.98        58.02325
507.42        57.79531
507.86        58.27668
508.30        57.56193
508.74        57.90474
509.18        57.69352
509.62        57.54573
510.06        57.48083
510.50        57.49613
510.94        57.50004
511.38        57.45662
511.82        57.42517
512.26        57.39528
512.70        57.33053
513.14        57.24818
513.58         57.1954
514.02        57.17983
514.46        57.18762
514.90        57.18574
515.34          57.166
515.78        57.12868
516.22        57.03812
516.66        56.77742
517.10        57.02968
517.54         56.8343
517.98        56.93364
518.42        57.01245
518.86        57.05087
519.30        57.03329
519.74        56.94226
520.18        56.83062
520.62        56.84508
521.06        56.95706
521.50        56.94511
521.93        56.81108
522.37         56.7392
522.81        56.73915
523.25        56.70587
523.69        56.64514
524.13        56.61721
524.57        56.62519
525.01        56.64768
525.45        56.68454
525.89        56.73615
526.32        56.79357
526.76        56.85962
527.20        56.90998
527.64        56.90888
528.08        56.85236
528.52        56.75654
528.96        56.65267
529.40        56.58239
529.83        56.55582
530.27        56.58783
530.71        56.64555
531.15        56.67366
531.59        56.65891
532.03        56.61956
532.46        56.56892
532.90        56.54057
533.34        56.53741
533.78        56.55075
534.22        56.55929
534.66        56.53132
535.09        56.45686
535.53        56.37001
535.97        56.28956
536.41        56.25964
536.85        56.28849
537.28        56.35731
537.72        56.44511
538.16        56.51919
538.60        56.56362
539.04         56.5874
539.47        56.57233
539.91        56.53883
540.35        56.47838
540.79        56.39489
541.22        56.30587
541.66        56.25458
542.10        56.24513
542.54        56.26402
542.97        56.29116
543.41        56.32283
543.85        56.34813
544.29        56.38108
544.72        56.39788
545.16        56.41272
545.60        56.42002
546.04        56.35178
546.47         56.2655
546.91        56.40555
547.35        56.70661
547.79        56.80901
548.22        56.68251
548.66         56.6128
549.10        56.60579
549.53        56.47723
549.97        56.28093
550.41        56.18836
550.84        56.22892
551.28        56.31961
551.72        56.40572
552.15        56.49559
552.59         56.6008
553.03        56.35698
553.46        56.45356
553.90        56.35509
554.34        56.25414
554.77        56.18244
555.21        56.21323
555.65        56.09576
556.08        56.31842
556.52        56.53859
556.96        56.79638
557.39        56.78861
557.83        56.57004
558.27        56.46317
558.70        56.49039
559.14        56.45479
559.57        56.36387
560.01        56.39977
560.45        56.49511
560.88        56.50906
561.32        56.47481
561.75        56.26418
562.19        56.02114
562.63         56.2243
563.06         56.7257
563.50        56.72243
563.93        56.25113
564.37         56.0465
564.80        56.13248
565.24        56.22031
565.68        56.28875
566.11         56.3596
566.55        56.43397
566.98        56.61337
567.42        56.85867
567.85        56.78353
568.29        56.58174
568.72        56.60123
569.16        56.90112
569.60        56.99128
570.03        57.12866
570.47        57.25976
570.90        57.40032
571.34        57.63747
571.77        57.69964
572.21        57.77209
572.64        57.66953
573.08        57.58434
573.51         57.5791
573.95        57.93961
574.38        57.71342
574.82        58.64332
