SpectraSmart Spectrum 2.9.0.0
--------- Device Information -----------
Spectrum Name :  反射率_0
Saving Time :  2024/04/21 00:47:19
Spectro-Module Model Name : SE2030-DUVN
Spectro-Module Serial Number : OS361AC55029948
Wavelength Start : 200
Wavelength End : 1025
Wavelength Unit : Wavelength(nm)
Spectrum Unit : Reflectance(%)
-----------Spectrum Setting ------------
Integration Time : 20ms
Average : 10
Boxcar : 0
Background removal :  enabled
linearity correction :  enabled
SC :  disabled
Intensity correction :  disabled
DWT denoise :  enabled
savitzky-golay :  disabled
FFT :  disabled
Running average :  disabled
Kalman :  disabled
High pass :  disabled
---------------BEGIN--------------------
Wavelength(nm)             Reflectance(%)
200.29               0
200.75       -30.45063
201.21       -7.040522
201.67        6.257673
202.13        13.57422
202.58         18.1552
203.04        22.43303
203.50        27.29629
203.96        32.37748
204.42        36.22843
204.88        37.88792
205.34        37.16607
205.80        33.72645
206.26        27.23859
206.72        18.38115
207.18        5.869142
207.64       -11.70795
208.10        -30.9516
208.55       -49.74929
209.01       -52.29171
209.47       -25.59565
209.93        5.790431
210.39        29.25526
210.85        43.16233
211.31        47.75718
211.77        45.09402
212.23        35.25137
212.69        13.05821
213.14       -29.20079
213.60       -106.0742
214.06        -322.856
214.52       -786.0882
214.98       -324.0301
215.44       -69.61578
215.90         11.6874
216.36        37.70735
216.81         40.2101
217.27        23.78526
217.73        -63.0489
218.19        993.6953
218.65        438.4792
219.11       -942.7613
219.57       -33.49589
220.02        24.34311
220.48        34.14919
220.94        27.53217
221.40        2.927736
221.86       -57.43634
222.32       -102.7963
222.77       -55.16505
223.23       -10.17212
223.69        13.51289
224.15        22.40573
224.61          23.826
225.06        22.37202
225.52        19.05054
225.98        14.59514
226.44        9.822829
226.90        3.386042
227.36      -0.7675514
227.81        4.300598
228.27        14.78336
228.73        25.40812
229.19        32.09052
229.65        32.63096
230.10        27.89571
230.56        19.43569
231.02        8.402025
231.48        0.191952
231.93      -0.6933883
232.39         4.02618
232.85        10.32539
233.31        14.61638
233.77        16.97237
234.22        19.04015
234.68        20.71909
235.14        21.56137
235.60        21.76089
236.05        20.43505
236.51        18.29545
236.97        23.02887
237.43        35.16903
237.88        43.92059
238.34        45.38081
238.80        66.04105
239.26        56.91166
239.71        53.37498
240.17        42.78251
240.63        31.82745
241.08        25.83038
241.54        28.56329
242.00        39.88828
242.46        47.85335
242.91        49.51664
243.37         46.6327
243.83        41.43091
244.28         41.4957
244.74        49.76498
245.20        60.12063
245.66        68.25663
246.11         71.0164
246.57        68.27747
247.03        61.88337
247.48        51.62427
247.94        35.97005
248.40         8.92074
248.85       -58.21568
249.31       -271.6365
249.77       -466.4474
250.22       -148.3662
250.68       -7.980709
251.14        39.41663
251.59        55.10007
252.05        58.98862
252.51        56.98034
252.96        49.59581
253.42        41.20623
253.88         37.4277
254.33        38.10643
254.79        44.03351
255.25        53.15038
255.70        61.60052
256.16         68.0911
256.62        72.63724
257.07        75.40405
257.53        77.20806
257.99        78.13792
258.44        77.31637
258.90        74.74924
259.35         70.5382
259.81        65.97292
260.27        62.05975
260.72        59.98205
261.18        59.76378
261.63        60.24021
262.09        60.70654
262.55        60.04191
263.00        58.23049
263.46        55.98398
263.91        53.69118
264.37        52.31165
264.83        51.80875
265.28        51.74232
265.74        51.80431
266.19        51.38364
266.65        50.46195
267.11        49.20695
267.56         47.7678
268.02        46.45972
268.47        45.31697
268.93        44.25836
269.38         43.2268
269.84        42.21593
270.30        41.19798
270.75         40.2193
271.21        39.24377
271.66        38.12745
272.12        36.90609
272.57        35.60567
273.03        34.41727
273.48        33.57141
273.94        33.11385
274.39        32.92241
274.85         32.8199
275.31        32.46891
275.76        31.80157
276.22        30.96716
276.67        30.12923
277.13        29.60641
277.58        29.39572
278.04        29.39746
278.49        29.41017
278.95        29.24352
279.40        28.81477
279.86        28.25095
280.31        27.60169
280.77        27.02483
281.22        26.52949
281.68        26.12593
282.13        25.76326
282.59         25.4539
283.04        25.16228
283.50        24.91451
283.95        24.71961
284.41        24.61588
284.86        24.59314
285.32        24.66012
285.77        24.73454
286.22        24.71831
286.68        24.62568
287.13        24.45287
287.59         24.3626
288.04        24.49272
288.50        24.83105
288.95        25.42034
289.41        26.13917
289.86        26.33538
290.32        25.90162
290.77        26.77012
291.22        25.90878
291.68        26.01605
292.13         26.2303
292.59        26.61852
293.04        27.17454
293.50        27.95724
293.95        28.98298
294.40        30.21545
294.86        31.61764
295.31        33.11016
295.77         34.6501
296.22        36.21673
296.68        37.79416
297.13         39.3611
297.58        40.93477
298.04          42.525
298.49        44.15731
298.95        45.89562
299.40         47.7358
299.85        49.67467
300.31        51.67896
300.76        53.66488
301.21        55.62121
301.67        57.58234
302.12        59.56837
302.58        61.72774
303.03         64.0416
303.48        66.51314
303.94         69.0418
304.39        71.41273
304.84        73.59017
305.30        75.64128
305.75        77.64095
306.20        79.82709
306.66        82.23233
307.11        84.71226
307.57        87.14427
308.02        89.25505
308.47        91.03221
308.93         92.6088
309.38        94.06269
309.83        95.60229
310.29        97.30495
310.74        99.05296
311.19        100.8096
311.65        102.4988
312.10        104.0571
312.55        105.5059
313.00        106.8118
313.46        107.9229
313.91        108.8229
314.36          109.55
314.82        110.1656
315.27        110.7559
315.72        111.3744
316.18        112.0139
316.63        112.6957
317.08        113.4452
317.53        114.2463
317.99        115.0751
318.44        115.8678
318.89        116.5047
319.35        116.9516
319.80        117.2464
320.25        117.4261
320.70        117.5685
321.16        117.7004
321.61        117.8257
322.06         117.965
322.51        118.1555
322.97        118.3881
323.42         118.709
323.87        119.0567
324.32        119.3407
324.78        119.5175
325.23        119.6438
325.68         119.769
326.13        120.0154
326.59        120.3772
327.04         120.875
327.49        121.3843
327.94        121.7383
328.39        121.8973
328.85        121.8804
329.30        121.8652
329.75        121.9981
330.20        122.3304
330.66        122.7641
331.11        123.3018
331.56        123.7864
332.01        124.1734
332.46        124.5081
332.92        124.7448
333.37        124.9701
333.82         125.158
334.27        125.3113
334.72        125.5076
335.17        125.8815
335.63        126.4236
336.08        127.1601
336.53        127.9698
336.98        128.6981
337.43        129.2837
337.88         129.753
338.34        130.0954
338.79        130.3784
339.24        130.6003
339.69        130.7556
340.14        130.8858
340.59        131.0611
341.05        131.3059
341.50        131.6303
341.95        132.0117
342.40        132.4046
342.85        132.7902
343.30        133.1723
343.75        133.5538
344.20        133.9454
344.66        134.3497
345.11        134.7291
345.56        135.0575
346.01        135.3038
346.46        135.4715
346.91          135.54
347.36        135.5217
347.81        135.5495
348.26        135.6555
348.72        135.4048
349.17        135.5379
349.62        135.4601
350.07        135.3983
350.52        135.3382
350.97        135.2612
351.42         135.121
351.87        134.9025
352.32        134.6191
352.77        134.3075
353.22        134.0237
353.67        133.7719
354.13        133.5457
354.58        133.2596
355.03        132.8377
355.48        132.2673
355.93        131.5798
356.38        130.8497
356.83        130.1847
357.28        129.6019
357.73        129.0649
358.18        128.5031
358.63        127.8087
359.08        126.9662
359.53        126.0231
359.98        125.0482
360.43        124.1373
360.88         123.309
361.33        122.5264
361.78         121.749
362.23        120.9176
362.68        120.0161
363.13        119.0697
363.58         118.088
364.03        117.0805
364.48        116.0575
364.93         115.021
365.38        113.9925
365.83        113.0112
366.28        112.0861
366.73        111.2012
367.18        110.3495
367.63        109.5171
368.08        108.6945
368.53        107.8923
368.98         107.065
369.43        106.1294
369.88        105.0721
370.33        103.9114
370.78        102.7427
371.23         101.754
371.68        101.0033
372.13        100.4387
372.58        99.96725
373.03        99.42245
373.48        98.74461
373.93        97.98177
374.38        97.15539
374.83        96.31467
375.28        95.50105
375.72        94.68671
376.17        93.94358
376.62        93.29495
377.07        92.72346
377.52        92.19959
377.97        91.68556
378.42        91.13018
378.87        90.53125
379.32         89.9236
379.77        89.29523
380.22        88.61144
380.67        87.86497
381.11        87.06129
381.56        86.27322
382.01        85.65511
382.46        85.24992
382.91        85.02329
383.36        84.84557
383.81        84.50994
384.26          83.969
384.71        83.27786
385.15        82.55291
385.60        82.04552
386.05        81.77483
386.50        81.66315
386.95        81.56684
387.40        81.27101
387.85        80.74499
388.29        80.03396
388.74        79.36732
389.19         78.8469
389.64         78.4883
390.09        78.22086
390.54        77.98611
390.98        77.68163
391.43        77.32996
391.88        76.97188
392.33        76.61613
392.78         76.2527
393.23        75.88995
393.67        75.51009
394.12        75.25098
394.57        75.01228
395.02        74.98324
395.47        75.00304
395.91        75.03757
396.36        74.89401
396.81        74.55777
397.26        74.11289
397.71        73.64331
398.15        73.23719
398.60        73.00369
399.05        72.81319
399.50        72.66125
399.95        72.61491
400.39        72.62032
400.84        72.48071
401.29        72.18127
401.74        71.76604
402.18        71.31114
402.63        70.96032
403.08        70.72435
403.53        70.45122
403.97        70.15269
404.42        69.98271
404.87        69.90926
405.32        69.85983
405.76        69.81437
406.21        69.70087
406.66        69.55091
407.11        69.64753
407.55        69.90374
408.00        69.75934
408.45        69.25925
408.90        68.87228
409.34        68.68298
409.79        68.60915
410.24        68.57696
410.68        68.44253
411.13        68.19246
411.58        67.93264
412.03        67.72733
412.47        67.65185
412.92        67.70033
413.37        67.85111
413.81        68.02235
414.26        68.14724
414.71        68.17998
415.15        68.15842
415.60         68.0509
416.05        67.87107
416.49        67.64225
416.94        67.36127
417.39        67.08748
417.83         66.9024
418.28        66.82169
418.73        66.81913
419.17        66.84476
419.62        66.82074
420.07        66.72894
420.51        66.59377
420.96        66.45559
421.41        66.35205
421.85        66.27646
422.30        66.18495
422.74        66.08704
423.19        66.26904
423.64        66.64108
424.08        66.81411
424.53        66.71649
424.98        66.74731
425.42        66.93107
425.87        66.91114
426.31        66.74429
426.76        66.84216
427.21        67.13374
427.65        67.11114
428.10        66.77666
428.54        66.63461
428.99        66.73262
429.44        66.73055
429.88        66.64159
430.33        66.74286
430.77        66.91084
431.22        67.09173
431.66        67.18165
432.11         67.0138
432.56        66.71664
433.00        66.41084
433.45        66.02005
433.89        66.21327
434.34          67.057
434.78        65.81314
435.23        66.16739
435.67        66.80348
436.12        66.68023
436.57          66.839
437.01        66.75377
437.46        66.58576
437.90         67.0332
438.35        66.98308
438.79        67.19183
439.24        67.17195
439.68        67.09856
440.13         66.9692
440.57         66.8323
441.02        66.82497
441.46        66.93913
441.91        67.06473
442.35         67.0747
442.80        67.36699
443.24        67.84905
443.69          67.773
444.13        67.07506
444.58        67.68627
445.02        67.02671
445.47        67.11941
445.91        67.59241
446.36        67.70659
446.80         67.5544
447.24        67.37589
447.69        67.26424
448.13        67.25127
448.58        67.17267
449.02        67.16522
449.47        67.15617
449.91        67.13622
450.36         67.1104
450.80        66.98124
451.25        66.80581
451.69        66.77935
452.13        66.85809
452.58         66.6976
453.02        66.34162
453.47        66.16245
453.91        66.17336
454.36        66.20132
454.80        66.17552
455.24        66.09318
455.69        65.96467
456.13        65.68571
456.58        65.39577
457.02        65.41521
457.46        65.67204
457.91        65.67243
458.35        65.50704
458.79        65.39265
459.24        65.38795
459.68        65.24435
460.13         64.9922
460.57        64.82014
461.01        64.80219
461.46        64.46147
461.90         64.2617
462.34        64.47235
462.79        64.12696
463.23          63.845
463.68        64.30617
464.12        64.07442
464.56        63.58884
465.01        63.89577
465.45        64.66562
465.89        64.60136
466.34        63.85165
466.78        63.40308
467.22        63.34227
467.67         63.6371
468.11        63.42302
468.55        63.34859
468.99        63.16709
469.44        63.03709
469.88        62.94838
470.32        62.74394
470.77         62.4712
471.21        62.29039
471.65        62.22723
472.10        62.23693
472.54         62.2511
472.98        62.22231
473.42        62.14638
473.87        61.96216
474.31        61.72091
474.75        61.83054
475.20        62.16858
475.64        62.09515
476.08        61.70759
476.52        61.57149
476.97        61.65422
477.41        61.92723
477.85        62.31875
478.29        61.73963
478.74        61.30466
479.18        61.62341
479.62        61.55653
480.06        61.64348
480.50        61.41082
480.95        61.69511
481.39        61.93709
481.83        61.61518
482.27        62.05552
482.72        61.99854
483.16         61.7958
483.60        62.11058
484.04        62.14992
484.48        61.80252
484.93         61.5041
485.37        61.77292
485.81         62.0117
486.25        61.73944
486.69        63.22979
487.14        63.57097
487.58        62.38448
488.02        61.82787
488.46        61.40568
488.90        61.32874
489.34        61.09534
489.79        60.51089
490.23        61.12304
490.67        61.24282
491.11        61.31734
491.55        61.22741
491.99        61.05854
492.43        61.01854
492.88        61.11724
493.32        61.26587
493.76        61.34182
494.20        61.33031
494.64        61.23673
495.08        60.69685
495.52        60.39064
495.96        60.34926
496.41        60.64368
496.85        60.73017
497.29        60.53154
497.73        60.50241
498.17         60.3696
498.61        60.47949
499.05         60.6693
499.49        60.66349
499.93        60.50127
500.37        60.41186
500.82        60.42338
501.26        60.58748
501.70        60.80037
502.14         60.4864
502.58        60.24253
503.02        59.75225
503.46        59.95907
503.90        59.94436
504.34        59.90845
504.78        59.93456
505.22        60.03085
505.66        60.09694
506.10        60.12042
506.54        60.18933
506.98        60.31127
507.42        59.73977
507.86        60.57133
508.30         59.4724
508.74         60.1628
509.18         60.0593
509.62        60.06493
510.06        60.05217
510.50        59.99083
510.94        59.81842
511.38        59.56175
511.82        59.41925
512.26        59.41464
512.70        59.45584
513.14        59.49206
513.58        59.51897
514.02        59.53039
514.46        59.30351
514.90        59.27768
515.34        59.18627
515.78        59.17295
516.22        59.16404
516.66        59.00434
517.10         59.2908
517.54        59.09045
517.98        59.13802
518.42        59.14232
518.86        59.09634
519.30        58.99902
519.74        58.82651
520.18        58.66098
520.62        58.69995
521.06        58.91501
521.50        59.05997
521.93        59.08523
522.37        59.09719
522.81        59.08563
523.25        58.96821
523.69         58.7889
524.13        58.67208
524.57        58.64222
525.01        58.65969
525.45        58.72074
525.89        58.81916
526.32        58.93848
526.76        59.08545
527.20        59.21771
527.64        59.26786
528.08        59.22449
528.52        59.10772
528.96        58.96737
529.40        58.87834
529.83        58.85678
530.27        58.90704
530.71        58.98017
531.15        58.99364
531.59        58.93152
532.03         58.8308
532.46        58.71495
532.90        58.63218
533.34        58.59328
533.78         58.5816
534.22        58.59227
534.66         58.6198
535.09        58.64844
535.53        58.69843
535.97        58.74117
536.41        58.74721
536.85        58.71159
537.28        58.64066
537.72         58.5598
538.16        58.51419
538.60        58.51324
539.04        58.54522
539.47         58.5723
539.91        58.58413
540.35        58.56017
540.79        58.51676
541.22        58.46746
541.66        58.44707
542.10        58.45803
542.54        58.48267
542.97        58.51225
543.41        58.56506
543.85        58.63296
544.29        58.72425
544.72        58.79315
545.16        58.82136
545.60        58.79387
546.04        58.64794
546.47        58.47031
546.91        58.54269
547.35        58.80095
547.79          58.917
548.22        58.83332
548.66         58.6655
549.10         58.4896
549.53        58.45776
549.97        58.57065
550.41        58.60578
550.84        58.55037
551.28        58.57231
551.72        58.66206
552.15        58.68489
552.59        58.62597
553.03        58.63904
553.46        58.60312
553.90          58.507
554.34        58.27864
554.77        58.53935
555.21        58.24754
555.65        58.31204
556.08        58.41179
556.52        58.56014
556.96        58.69201
557.39        58.78191
557.83        58.81052
558.27        58.66469
558.70        58.42945
559.14        58.32201
559.57        58.36407
560.01        58.55706
560.45        58.75276
560.88        58.65851
561.32        58.39439
561.75        58.04031
562.19        58.11201
562.63        58.29671
563.06        58.60382
563.50         58.6825
563.93        58.51673
564.37        58.42502
564.80        58.41957
565.24        58.44842
565.68        58.49459
566.11         58.4994
566.55        58.47983
566.98        58.53136
567.42        58.65292
567.85        58.63087
568.29         58.5423
568.72        58.62425
569.16        58.90379
569.60        58.98863
570.03        59.14621
570.47        59.26099
570.90        59.35674
571.34        59.47985
571.77        59.60637
572.21        59.44193
572.64        59.29666
573.08        59.12891
573.51        59.41401
573.95        59.91592
574.38        59.70316
574.82        60.32915
