SpectraSmart Spectrum 2.9.0.0
--------- Device Information -----------
Spectrum Name :  反射率_0
Saving Time :  2024/04/21 00:52:02
Spectro-Module Model Name : SE2030-DUVN
Spectro-Module Serial Number : OS361AC55029948
Wavelength Start : 200
Wavelength End : 1025
Wavelength Unit : Wavelength(nm)
Spectrum Unit : Reflectance(%)
-----------Spectrum Setting ------------
Integration Time : 20ms
Average : 10
Boxcar : 0
Background removal :  enabled
linearity correction :  enabled
SC :  disabled
Intensity correction :  disabled
DWT denoise :  enabled
savitzky-golay :  disabled
FFT :  disabled
Running average :  disabled
Kalman :  disabled
High pass :  disabled
---------------BEGIN--------------------
Wavelength(nm)             Reflectance(%)
200.29               0
200.75       -119.8514
201.21       -60.09893
201.67       -25.89696
202.13       -13.36348
202.58       -14.10132
203.04       -22.35469
203.50       -35.58783
203.96       -46.74481
204.42       -51.63792
204.88       -53.66456
205.34       -55.22413
205.80       -60.61814
206.26       -71.15096
206.72       -81.56543
207.18       -93.06366
207.64       -109.2399
208.10       -125.8305
208.55       -142.6524
209.01       -133.9352
209.47       -80.70898
209.93       -24.53105
210.39         15.7667
210.85          39.312
211.31         47.7593
211.77        44.78135
212.23        30.30116
212.69       -3.057686
213.14       -65.93723
213.60        -177.448
214.06       -480.5057
214.52       -1130.415
214.98       -510.5079
215.44       -159.4644
215.90       -44.56055
216.36       -6.313563
216.81       0.1216698
217.27       -16.59567
217.73       -113.0601
218.19        1063.699
218.65        434.2029
219.11       -990.8358
219.57       -56.91702
220.02        2.745781
220.48         14.1754
220.94         10.8578
221.40       -6.558423
221.86       -48.67072
222.32       -71.88679
222.77       -29.10855
223.23        5.149833
223.69        21.69538
224.15        26.87251
224.61        26.20449
225.06        22.98956
225.52        17.85059
225.98        11.31264
226.44         4.19408
226.90       -4.825382
227.36       -10.79062
227.81       -5.068434
228.27          7.7627
228.73        21.10257
229.19        29.63626
229.65        30.64242
230.10        25.25997
230.56        15.15101
231.02         2.21047
231.48       -5.843831
231.93       -3.879724
232.39          4.7507
232.85        14.19617
233.31        19.72358
233.77        21.61114
234.22        21.97416
234.68        21.18234
235.14        19.74866
235.60        18.34686
236.05        15.81319
236.51        12.70784
236.97        16.87734
237.43        28.93634
237.88        37.40533
238.34        37.77093
238.80        60.55561
239.26         49.3474
239.71        44.94019
240.17        32.49824
240.63        19.57705
241.08        12.06547
241.54         14.4868
242.00        26.60653
242.46        34.11775
242.91        32.92595
243.37        24.23784
243.83        10.82891
244.28        4.543183
244.74        11.93196
245.20        25.77368
245.66        37.34184
246.11        38.51248
246.57        28.64686
247.03        10.57827
247.48       -12.15553
247.94       -33.56306
248.40        -54.2415
248.85       -89.49844
249.31       -171.9956
249.77       -194.7135
250.22       -56.27249
250.68       -10.58253
251.14        2.296919
251.59        6.310141
252.05         7.58843
252.51        8.226384
252.96        7.558917
253.42        5.927823
253.88        5.150986
254.33        6.447807
254.79        14.09274
255.25        28.53341
255.70        43.49651
256.16        55.27197
256.62        62.57291
257.07        64.98366
257.53        64.57214
257.99        62.80766
258.44         60.3255
258.90        58.29987
259.35        56.41871
259.81        54.85246
260.27        53.60712
260.72        52.81356
261.18        52.62386
261.63        52.59029
262.09        52.51204
262.55        51.79826
263.00        50.43234
263.46        48.83229
263.91        47.22674
264.37        46.32583
264.83        46.06478
265.28        46.13534
265.74        46.25893
266.19        45.87832
266.65        44.99331
267.11        43.75006
267.56         42.3673
268.02        41.26219
268.47        40.48239
268.93          39.926
269.38        39.40352
269.84          38.695
270.30         37.7313
270.75        36.60246
271.21        35.45205
271.66        34.42365
272.12         33.5891
272.57        32.87623
273.03         32.2336
273.48        31.54359
273.94         30.8107
274.39           30.06
274.85        29.37168
275.31        28.79124
275.76        28.32025
276.22        27.95344
276.67        27.65629
277.13        27.45974
277.58        27.30597
278.04        27.20375
278.49        27.05112
278.95        26.78653
279.40        26.36257
279.86        25.84037
280.31        25.25867
280.77        24.76075
281.22         24.3462
281.68        24.04152
282.13        23.75662
282.59        23.43252
283.04        23.03955
283.50        22.62904
283.95        22.29496
284.41        22.20068
284.86        22.35054
285.32        22.69462
285.77        23.06312
286.22        23.22905
286.68        23.17366
287.13        22.93113
287.59        22.70871
288.04        22.71483
288.50        22.96122
288.95        23.48263
289.41        24.13943
289.86        24.24327
290.32        23.68246
290.77        24.46415
291.22        23.49315
291.68        23.59533
292.13        23.88044
292.59        24.38837
293.04        25.06196
293.50        25.88289
293.95        26.84738
294.40        27.94119
294.86        29.15432
295.31        30.45406
295.77         31.8176
296.22        33.21492
296.68        34.63435
297.13        36.06199
297.58        37.51007
298.04        38.98529
298.49         40.4971
298.95          42.081
299.40        43.72368
299.85        45.42335
300.31        47.14978
300.76        48.83208
301.21        50.46248
301.67        52.07247
302.12        53.68565
302.58        55.44445
303.03        57.33617
303.48        59.36943
303.94        61.45129
304.39        63.38427
304.84        65.13887
305.30        66.77931
305.75        68.38806
306.20        70.19981
306.66        72.24055
307.11        74.37073
307.57        76.44779
308.02        78.18782
308.47        79.56071
308.93        80.69009
309.38        81.67004
309.83        82.70378
310.29        83.91385
310.74        85.16668
311.19        86.40404
311.65        87.49201
312.10        88.38296
312.55        89.13677
313.00        89.82457
313.46        90.55451
313.91        91.33755
314.36        92.14361
314.82        92.92211
315.27        93.59061
315.72        94.13995
316.18        94.60213
316.63        95.01892
317.08        95.46116
317.53        95.93917
317.99        96.41394
318.44        96.85833
318.89        97.21489
319.35        97.47094
319.80        97.67151
320.25        97.80994
320.70        97.88023
321.16        97.88824
321.61        97.84271
322.06        97.83514
322.51        98.02044
322.97        98.40333
323.42         98.9791
323.87        99.55414
324.32        99.81747
324.78        99.68761
325.23         99.2957
325.68        98.85554
326.13        98.75366
326.59        99.06434
327.04        99.71478
327.49        100.4906
327.94         101.061
328.39        101.3125
328.85        101.3125
329.30        101.2117
329.75        101.1376
330.20        101.1571
330.66        101.1886
331.11        101.2896
331.56        101.4352
332.01        101.6234
332.46        101.8756
332.92        102.1405
333.37        102.4476
333.82        102.7431
334.27        103.0293
334.72        103.3152
335.17        103.6248
335.63        103.9363
336.08        104.2974
336.53        104.6743
336.98        105.0598
337.43        105.4462
337.88         105.826
338.34        106.1847
338.79        106.5522
339.24        106.9055
339.69        107.2466
340.14        107.5474
340.59        107.7698
341.05        107.9181
341.50        108.0149
341.95         108.127
342.40        108.3672
342.85        108.7561
343.30        109.2573
343.75         109.777
344.20         110.167
344.66        110.3964
345.11        110.4876
345.56        110.5176
346.01        110.6094
346.46        110.7952
346.91        111.0231
347.36        111.2254
347.81        111.3376
348.26        111.3474
348.72        111.1659
349.17        111.0667
349.62        110.9569
350.07        110.9305
350.52        110.9511
350.97        110.9679
351.42        110.8983
351.87        110.7146
352.32        110.4394
352.77        110.1157
353.22         109.805
353.67        109.5213
354.13        109.2646
354.58        108.9594
355.03        108.5412
355.48         108.007
355.93        107.3887
356.38        106.7738
356.83        106.2909
357.28         105.948
357.73         105.684
358.18         105.395
358.63        104.9181
359.08        104.2215
359.53        103.3791
359.98        102.4526
360.43        101.5302
360.88        100.6513
361.33        99.78906
361.78          98.992
362.23        98.33917
362.68        97.82893
363.13        97.43575
363.58        97.04047
364.03         96.4474
364.48        95.61359
364.93        94.59411
365.38        93.50459
365.83        92.54247
366.28        91.76559
366.73        91.11499
367.18        90.52727
367.63        89.89876
368.08        89.19853
368.53        88.47282
368.98        87.72776
369.43        86.95747
369.88        86.16023
370.33        85.31699
370.78         84.4676
371.23        83.70408
371.68        83.05762
372.13         82.5191
372.58        82.02136
373.03        81.43963
373.48        80.74118
373.93        79.95798
374.38        79.17101
374.83        78.52332
375.28        78.05217
375.72          77.696
376.17        77.38649
376.62        76.96247
377.07        76.37952
377.52        75.67101
377.97        74.91679
378.42           74.27
378.87        73.78292
379.32        73.41478
379.77        73.08142
380.22        72.64632
380.67        72.07294
381.11        71.40924
381.56        70.72192
382.01        70.14171
382.46        69.71897
382.91        69.41918
383.36        69.18205
383.81        68.91387
384.26        68.58269
384.71        68.20939
385.15        67.81986
385.60        67.51366
386.05        67.27911
386.50        67.08369
386.95        66.86405
387.40        66.53355
387.85        66.09325
388.29        65.55416
388.74        65.06756
389.19         64.6686
389.64        64.36126
390.09        64.10568
390.54        63.88447
390.98         63.6601
391.43        63.45786
391.88         63.2849
392.33        63.10453
392.78        62.87479
393.23        62.59506
393.67        62.20551
394.12         61.8536
394.57          61.686
395.02        61.67204
395.47        61.59708
395.91        61.40746
396.36        61.16286
396.81        60.86885
397.26        60.48505
397.71        60.08923
398.15        59.79934
398.60        59.69114
399.05        59.65932
399.50        59.67164
399.95        59.67497
400.39        59.64664
400.84        59.60988
401.29        59.51138
401.74        59.11988
402.18        58.51372
402.63        58.05451
403.08        57.79239
403.53        57.51373
403.97        57.24169
404.42         57.1659
404.87         57.2235
405.32        57.25188
405.76        57.20945
406.21        57.08738
406.66        56.93204
407.11        56.91803
407.55        57.01051
408.00        56.97221
408.45        56.78062
408.90        56.40451
409.34        55.97217
409.79        55.90176
410.24        56.11944
410.68        56.13954
411.13         55.9371
411.58        55.80106
412.03        55.76994
412.47        55.77479
412.92        55.80101
413.37         55.8761
413.81        55.95252
414.26        56.00599
414.71        56.01097
415.15        55.97943
415.60         55.9118
416.05        55.86297
416.49        55.84786
416.94        55.84582
417.39        55.82625
417.83        55.73482
418.28        55.56742
418.73         55.3428
419.17        55.11568
419.62        54.98516
420.07        54.97373
420.51         55.0471
420.96        55.16244
421.41        55.22157
421.85        55.18104
422.30        55.07659
422.74        54.94156
423.19         54.9725
423.64          55.141
424.08        55.28898
424.53        55.31851
424.98        55.32328
425.42        55.30426
425.87        55.12679
426.31        54.88714
426.76        54.88388
427.21         55.0919
427.65        55.20811
428.10        55.17065
428.54        55.18608
428.99        55.27282
429.44        55.25384
429.88        55.13924
430.33        55.15034
430.77        55.21107
431.22        55.21741
431.66        55.14491
432.11        55.12717
432.56        55.21542
433.00        55.11731
433.45        54.73069
433.89        54.88289
434.34        55.60941
434.78        54.70496
435.23        54.63511
435.67        55.28212
436.12        54.62385
436.57        54.95953
437.01        55.41342
437.46        55.45695
437.90        55.61427
438.35        55.47905
438.79        55.49353
439.24        55.42602
439.68        55.36275
440.13        55.32416
440.57        55.30195
441.02          55.313
441.46        55.33432
441.91        55.37699
442.35        55.39797
442.80        55.55349
443.24        55.77821
443.69        55.96301
444.13        56.02477
444.58        55.89862
445.02        55.63268
445.47        55.53397
445.91        55.59495
446.36        55.58081
446.80        55.48457
447.24        55.41356
447.69        55.39026
448.13        55.53378
448.58        55.63485
449.02        55.56217
449.47        55.30835
449.91        55.16528
450.36        55.16667
450.80        55.07623
451.25        54.93185
451.69        54.93083
452.13        55.03154
452.58        54.95782
453.02        54.70718
453.47        54.51757
453.91        54.39304
454.36        54.20778
454.80        53.98369
455.24        53.85613
455.69         53.8558
456.13        53.85571
456.58         53.8413
457.02        53.99017
457.46        53.95482
457.91         53.8289
458.35        53.65842
458.79        53.53011
459.24        53.47791
459.68        53.46287
460.13        53.53586
460.57        53.40562
461.01        53.02709
461.46         53.4578
461.90        53.31628
462.34        52.73554
462.79        52.80409
463.23        52.67511
463.68        53.14409
464.12        53.04112
464.56        52.59863
465.01        52.62617
465.45        52.96636
465.89        52.95984
466.34        52.63139
466.78        52.37413
467.22        52.24593
467.67        52.14244
468.11        51.88622
468.55        51.89639
468.99        52.03456
469.44        52.01436
469.88          51.807
470.32        51.54033
470.77        51.29049
471.21        51.12479
471.65        51.07447
472.10        51.12349
472.54        51.20639
472.98        51.24956
473.42        51.23719
473.87        51.16093
474.31        51.05062
474.75         51.1335
475.20        51.35399
475.64        51.39674
476.08        51.28671
476.52        51.24818
476.97        51.24788
477.41          51.347
477.85        51.52657
478.29        51.06719
478.74        50.77906
479.18        50.95649
479.62        50.79939
480.06        50.88487
480.50        50.93435
480.95        51.00542
481.39        50.99047
481.83        51.35389
482.27        51.48695
482.72        51.05206
483.16        51.32114
483.60        51.31097
484.04        51.34541
484.48        51.10771
484.93         51.1691
485.37        50.91212
485.81        51.24784
486.25         51.2086
486.69        52.99458
487.14        53.37257
487.58         52.1342
488.02        51.28495
488.46        51.09085
488.90        50.74246
489.34        50.85772
489.79        50.33902
490.23        50.74053
490.67        50.71719
491.11        50.69215
491.55        50.66359
491.99        50.64903
492.43        50.63044
492.88        50.60439
493.32        50.61647
493.76        50.61217
494.20        50.60759
494.64          50.626
495.08        50.26038
495.52        50.23749
495.96        50.25168
496.41        50.43143
496.85        50.42179
497.29        50.20903
497.73        50.21228
498.17        50.16225
498.61        50.22265
499.05        50.25472
499.49        50.06549
499.93        49.76598
500.37        49.74948
500.82        49.97489
501.26        50.19131
501.70        50.30198
502.14        49.95946
502.58         49.6732
503.02        49.51068
503.46        49.58688
503.90        49.70849
504.34        49.79792
504.78        49.86142
505.22        49.88792
505.66        49.81877
506.10        49.67754
506.54        49.69673
506.98        49.92657
507.42        49.56778
507.86        49.93845
508.30        49.87011
508.74        49.79591
509.18        49.65943
509.62        49.51758
510.06        49.44053
510.50        49.41834
510.94        49.38667
511.38        49.33508
511.82        49.30531
512.26         49.2928
512.70        49.26258
513.14        49.20432
513.58        49.17186
514.02        49.17718
514.46        49.10627
514.90        48.91378
515.34        49.12655
515.78        48.89923
516.22        48.84156
516.66        48.57982
517.10        48.88255
517.54        48.60736
517.98        48.66025
518.42        48.69685
518.86        48.71254
519.30        48.69947
519.74        48.64165
520.18        48.58743
520.62        48.66123
521.06        48.83276
521.50        48.90279
521.93        48.85882
522.37          48.838
522.81        48.84182
523.25        48.78753
523.69        48.67723
524.13        48.55978
524.57        48.44692
525.01        48.32879
525.45           48.24
525.89        48.23383
526.32        48.31556
526.76        48.47403
527.20        48.65078
527.64        48.76312
528.08        48.78927
528.52        48.72021
528.96         48.6098
529.40        48.61256
529.83        48.70936
530.27        48.73349
530.71        48.66841
531.15        48.63224
531.59         48.6225
532.03        48.56245
532.46        48.47006
532.90        48.42515
533.34         48.4321
533.78         48.4711
534.22        48.50459
534.66         48.4752
535.09         48.3693
535.53        48.22546
535.97        48.08661
536.41        48.03173
536.85        48.07692
537.28        48.19529
537.72        48.33759
538.16        48.42484
538.60        48.43265
539.04        48.38457
539.47        48.30159
539.91        48.25597
540.35        48.25034
540.79        48.26958
541.22        48.29109
541.66        48.29156
542.10        48.26203
542.54        48.21457
542.97        48.16603
543.41        48.16451
543.85        48.21221
544.29        48.30172
544.72        48.39169
545.16         48.4536
545.60        48.46489
546.04        48.40524
546.47        48.32526
546.91        48.34581
547.35         48.4417
547.79         48.5308
548.22        48.55022
548.66         48.3867
549.10        48.12847
549.53        48.10932
549.97        48.30936
550.41        48.36831
550.84        48.26792
551.28        48.21935
551.72        48.23841
552.15        48.26777
552.59        48.30421
553.03        48.31139
553.46        48.29033
553.90        48.27092
554.34        48.23146
554.77        48.23418
555.21        48.34551
555.65        48.10359
556.08        48.38575
556.52        48.52324
556.96        48.69038
557.39        48.64338
557.83        48.43155
558.27        48.29016
558.70        48.26023
559.14        48.25669
559.57        48.28223
560.01        48.43545
560.45        48.63286
560.88        48.71822
561.32        48.69118
561.75        48.49513
562.19        48.24881
562.63        48.20195
563.06        48.32925
563.50        48.36641
563.93        48.28558
564.37        48.22665
564.80        48.20729
565.24        48.31565
565.68         48.5072
566.11        48.59839
566.55        48.58978
566.98        48.59066
567.42        48.62437
567.85        48.61093
568.29        48.60794
568.72        48.65725
569.16        48.78355
569.60        48.94896
570.03        49.01741
570.47        49.14698
570.90        49.28295
571.34        49.28756
571.77        49.60171
572.21        49.46334
572.64        49.63308
573.08        49.37136
573.51        49.17699
573.95        49.67211
574.38        50.01519
574.82        50.41267
