SpectraSmart Spectrum 2.9.0.0
--------- Device Information -----------
Spectrum Name :  反射率_0
Saving Time :  2024/04/21 00:44:57
Spectro-Module Model Name : SE2030-DUVN
Spectro-Module Serial Number : OS361AC55029948
Wavelength Start : 200
Wavelength End : 1025
Wavelength Unit : Wavelength(nm)
Spectrum Unit : Reflectance(%)
-----------Spectrum Setting ------------
Integration Time : 20ms
Average : 10
Boxcar : 0
Background removal :  enabled
linearity correction :  enabled
SC :  disabled
Intensity correction :  disabled
DWT denoise :  enabled
savitzky-golay :  disabled
FFT :  disabled
Running average :  disabled
Kalman :  disabled
High pass :  disabled
---------------BEGIN--------------------
Wavelength(nm)             Reflectance(%)
200.29               0
200.75        -52.2386
201.21       -15.50125
201.67        2.885531
202.13        10.62879
202.58        12.81417
203.04        11.89717
203.50        8.807205
203.96         5.38129
204.42        2.721123
204.88       0.2354262
205.34       -2.466707
205.80       -6.844916
206.26       -13.32577
206.72       -19.58225
207.18       -25.76004
207.64       -32.57863
208.10        -37.8997
208.55        -42.3421
209.01       -35.59344
209.47       -10.51746
209.93        14.44578
210.39        31.93717
210.85        41.55502
211.31         43.5938
211.77        39.30362
212.23        27.73253
212.69        3.958352
213.14       -37.24173
213.60        -104.382
214.06       -278.3727
214.52       -625.3944
214.98       -256.9243
215.44       -64.95138
215.90       -3.930883
216.36        14.23666
216.81        11.68717
217.27       -11.69713
217.73       -122.4523
218.19        1191.193
218.65        482.2206
219.11       -1058.857
219.57       -50.93819
220.02         13.7708
220.48        28.04803
220.94        28.36039
221.40        17.61671
221.86       -12.11043
222.32       -32.69799
222.77       -6.605361
223.23        15.84856
223.69        26.75737
224.15        29.62288
224.61        28.09518
225.06        24.75039
225.52        19.97597
225.98         13.9329
226.44        7.291735
226.90        -1.03473
227.36       -6.569868
227.81       -1.460706
228.27        10.13881
228.73        22.15372
229.19         29.8698
229.65        30.88701
230.10        26.22215
230.56        17.49908
231.02        6.139303
231.48       -1.758021
231.93       -1.590259
232.39        4.414995
232.85        11.55801
233.31        15.77663
233.77        17.21494
234.22        17.67276
234.68        17.45035
235.14        16.93381
235.60        16.68304
236.05         15.6302
236.51        14.04596
236.97        18.98843
237.43        30.79748
237.88         38.3943
238.34        37.66253
238.80        60.27908
239.26        49.98118
239.71        47.87851
240.17        39.13101
240.63        29.58694
241.08        23.25286
241.54        23.61942
242.00        31.44328
242.46        36.10603
242.91        34.83055
243.37        28.88093
243.83        20.82369
244.28         19.5591
244.74        28.87432
245.20        42.43597
245.66        53.38054
246.11        55.68745
246.57        49.12069
247.03        35.81798
247.48        18.25153
247.94       0.5814984
248.40        -18.7208
248.85       -55.75285
249.31       -154.9285
249.77       -217.5223
250.22       -62.52486
250.68       -1.717317
251.14        17.07314
251.59        21.90259
252.05        21.09805
252.51         16.9317
252.96        9.324599
253.42        3.047065
253.88        3.098689
254.33        8.287622
254.79        18.80391
255.25        32.20335
255.70        44.20456
256.16        53.44387
256.62         59.3631
257.07        61.88367
257.53        62.54139
257.99        62.09235
258.44        60.98261
258.90        60.26503
259.35        59.48853
259.81        58.86466
260.27        58.09399
260.72        56.98689
261.18        55.93821
261.63        54.77845
262.09        53.71733
262.55        52.51621
263.00        51.09322
263.46        49.68233
263.91        48.24949
264.37        47.17562
264.83         46.3952
265.28        45.77101
265.74        45.23018
266.19        44.47236
266.65         43.5189
267.11        42.39947
267.56        41.20412
268.02        40.16632
268.47        39.27748
268.93        38.49048
269.38        37.67488
269.84        36.69123
270.30        35.51352
270.75        34.23615
271.21        32.97003
271.66        31.81519
272.12        30.84421
272.57        29.99456
273.03        29.32785
273.48        28.89228
273.94        28.67956
274.39        28.63766
274.85        28.60768
275.31        28.28732
275.76        27.63527
276.22        26.77721
276.67        25.93837
277.13        25.52053
277.58        25.52399
278.04        25.81102
278.49        26.09237
278.95        26.03653
279.40        25.55259
279.86        24.82078
280.31         23.9833
280.77        23.32147
281.22         22.8776
281.68        22.61602
282.13        22.43762
282.59        22.27638
283.04        22.08017
283.50        21.89448
283.95        21.75707
284.41        21.74036
284.86        21.83835
285.32        22.03293
285.77        22.21226
286.22        22.23698
286.68        22.11235
287.13        21.85012
287.59        21.64081
288.04        21.66528
288.50        21.92425
288.95        22.46932
289.41        23.15522
289.86        23.27799
290.32         22.7234
290.77        23.52077
291.22        22.54836
291.68        22.68934
292.13        23.04506
292.59        23.64886
293.04        24.41848
293.50        25.29722
293.95        26.27082
294.40        27.32931
294.86        28.49246
295.31        29.77653
295.77        31.16612
296.22        32.61764
296.68        34.07293
297.13        35.44574
297.58        36.74141
298.04        37.99807
298.49         39.2879
298.95        40.74566
299.40        42.37743
299.85        44.13984
300.31        45.95582
300.76        47.68177
301.21        49.28907
301.67        50.84224
302.12        52.36134
302.58         53.9806
303.03        55.69944
303.48        57.52244
303.94        59.42059
304.39        61.30098
304.84        63.13844
305.30        64.95672
305.75        66.73512
306.20        68.54704
306.66        70.39605
307.11        72.21066
307.57        73.94151
308.02        75.44679
308.47        76.73173
308.93         77.8718
309.38        78.92789
309.83         80.0447
310.29        81.32601
310.74        82.64796
311.19         83.9355
311.65        85.02105
312.10        85.85638
312.55        86.50954
313.00        87.08266
313.46        87.74004
313.91        88.50861
314.36        89.34108
314.82        90.17511
315.27        90.90893
315.72        91.51954
316.18        92.04271
316.63        92.50388
317.08        92.94444
317.53        93.37729
317.99        93.78325
318.44        94.15645
318.89        94.47736
319.35        94.74443
319.80        94.97961
320.25        95.19872
320.70        95.42941
321.16        95.66748
321.61        95.91118
322.06        96.15084
322.51        96.37889
322.97          96.577
323.42        96.78863
323.87        96.97046
324.32        97.06868
324.78        97.06679
325.23        97.01788
325.68        96.99783
326.13        97.15885
326.59        97.50612
327.04        98.04285
327.49        98.62868
327.94        99.05613
328.39        99.26588
328.85        99.28587
329.30        99.26953
329.75        99.35892
330.20         99.6062
330.66        99.92122
331.11         100.317
331.56         100.686
332.01             101
332.46        101.3026
332.92        101.5383
333.37        101.7426
333.82        101.8818
334.27        101.9552
334.72        102.0642
335.17         102.383
335.63        102.9162
336.08        103.6786
336.53        104.4849
336.98        105.0658
337.43        105.3478
337.88        105.3933
338.34        105.3507
338.79        105.5312
339.24        105.9885
339.69        106.6354
340.14        107.3077
340.59        107.7544
341.05        107.9194
341.50        107.8943
341.95        107.8264
342.40        107.9538
342.85        108.3386
343.30        108.9012
343.75        109.4984
344.20         109.913
344.66         110.092
345.11        110.0793
345.56        109.9993
346.01        110.0413
346.46        110.2538
346.91        110.5755
347.36        110.8687
347.81        110.9609
348.26        110.8304
348.72        110.4323
349.17        110.1459
349.62        110.0799
350.07         110.348
350.52        110.8399
350.97         111.353
351.42        111.5567
351.87        111.3585
352.32         110.864
352.77        110.2275
353.22        109.6828
353.67        109.3031
354.13        109.0404
354.58        108.7986
355.03        108.4808
355.48        108.0621
355.93        107.5867
356.38        107.1243
356.83        106.7672
357.28        106.5171
357.73        106.3205
358.18        106.0737
358.63        105.6245
359.08        104.9456
359.53        104.0987
359.98        103.1816
360.43        102.3379
360.88        101.6097
361.33        100.9589
361.78        100.3497
362.23         99.7248
362.68        99.06368
363.13        98.38681
363.58        97.69797
364.03        96.99557
364.48        96.27968
364.93         95.5472
365.38        94.79452
365.83        94.02474
366.28         93.2439
366.73        92.45124
367.18        91.67685
367.63        90.96774
368.08        90.32943
368.53        89.75224
368.98        89.17308
369.43        88.48122
369.88        87.65327
370.33        86.72078
370.78        85.76402
371.23        84.94103
371.68        84.30476
372.13        83.80596
372.58        83.39195
373.03        82.96404
373.48        82.47881
373.93        81.97025
374.38        81.41171
374.83          80.769
375.28         80.0623
375.72         79.2924
376.17        78.57823
376.62         78.0344
377.07         77.6647
377.52        77.41957
377.97        77.19901
378.42        76.84341
378.87        76.32327
379.32        75.70477
379.77        75.05747
380.22        74.46896
380.67        73.95274
381.11        73.47148
381.56        73.01228
382.01        72.57897
382.46        72.17598
382.91        71.82129
383.36        71.47196
383.81        71.05265
384.26        70.55181
384.71        69.98516
385.15        69.42027
385.60        69.02557
386.05        68.80192
386.50        68.70312
386.95        68.61692
387.40        68.37222
387.85        67.94639
388.29        67.36945
388.74        66.83649
389.19        66.43938
389.64        66.19521
390.09        66.05087
390.54        65.94379
390.98        65.76482
391.43        65.52217
391.88        65.24231
392.33        64.96424
392.78        64.72889
393.23        64.54558
393.67        64.39168
394.12         64.3035
394.57        64.12768
395.02        63.87562
395.47        63.68656
395.91        63.58007
396.36        63.44075
396.81        63.28108
397.26        63.19355
397.71        63.11069
398.15        62.86595
398.60        62.52275
399.05        62.06381
399.50        61.62727
399.95        61.42761
400.39        61.45746
400.84         61.5974
401.29        61.71617
401.74        61.42835
402.18        60.82898
402.63        60.55627
403.08        60.60442
403.53        60.41627
403.97        59.99524
404.42        59.71536
404.87        59.61203
405.32        59.59495
405.76        59.64686
406.21        59.76505
406.66        59.88955
407.11        59.96074
407.55        59.93769
408.00        59.77128
408.45        59.49315
408.90        59.05997
409.34        58.60868
409.79        58.52499
410.24        58.74063
410.68        58.81509
411.13        58.71631
411.58        58.70061
412.03        58.76715
412.47        58.79589
412.92        58.75631
413.37        58.68858
413.81        58.60202
414.26        58.56221
414.71        58.56099
415.15         58.5887
415.60          58.599
416.05         58.5657
416.49        58.48335
416.94        58.36177
417.39         58.2141
417.83        58.05046
418.28        57.88136
418.73        57.69912
419.17        57.53213
419.62        57.43901
420.07        57.42965
420.51        57.48429
420.96        57.56509
421.41        57.59048
421.85        57.52589
422.30        57.37032
422.74        57.17342
423.19        57.24284
423.64          57.514
424.08        57.62943
424.53        57.52167
424.98        57.51451
425.42        57.62476
425.87        57.61099
426.31        57.52373
426.76        57.59129
427.21        57.80098
427.65        57.99542
428.10        58.08606
428.54        58.09408
428.99        58.04342
429.44        57.91299
429.88        57.71766
430.33        57.58043
430.77        57.48732
431.22        57.45953
431.66        57.47526
432.11        57.65405
432.56        57.97183
433.00        57.95065
433.45        57.45061
433.89        57.48881
434.34        58.15557
434.78        57.23808
435.23        56.83633
435.67        57.88692
436.12        58.00008
436.57        58.22844
437.01        57.84958
437.46         57.5596
437.90        57.94027
438.35        58.43697
438.79         58.2791
439.24        58.32754
439.68        58.32481
440.13        58.23525
440.57        58.08543
441.02        58.11887
441.46        58.30431
441.91        58.25958
442.35        58.03627
442.80        58.37003
443.24        59.06484
443.69        59.17995
444.13        58.71174
444.58        58.39592
445.02        58.31116
445.47        58.35867
445.91        58.48385
446.36          58.554
446.80        58.54399
447.24         58.5358
447.69        58.55698
448.13        58.73888
448.58        58.86422
449.02        58.80179
449.47        58.54496
449.91        58.40196
450.36        58.41368
450.80        58.33453
451.25        58.21922
451.69        58.30006
452.13          58.529
452.58        58.59319
453.02        58.46378
453.47        58.35803
453.91        58.27612
454.36        58.10106
454.80        57.84868
455.24        57.68571
455.69        57.66117
456.13        57.54213
456.58        57.38356
457.02         57.6876
457.46        57.98562
457.91        57.86906
458.35        57.42034
458.79        57.18628
459.24        57.21843
459.68        57.21702
460.13        57.21611
460.57         57.0785
461.01        56.77302
461.46        57.21289
461.90        56.91599
462.34        56.80524
462.79        56.88199
463.23        56.90567
463.68        56.97668
464.12        56.81462
464.56        56.52577
465.01        56.79814
465.45        57.36203
465.89        57.23985
466.34        56.56747
466.78        56.23468
467.22        56.35096
467.67         56.3423
468.11        56.47973
468.55         56.4022
468.99        56.21612
469.44        56.11612
469.88        56.10629
470.32        55.99499
470.77        55.80251
471.21         55.6868
471.65        55.66402
472.10        55.68827
472.54        55.71891
472.98        55.73274
473.42        55.73833
473.87        55.68224
474.31        55.55106
474.75        55.63813
475.20         55.9366
475.64        55.54931
476.08        55.71082
476.52        55.58894
476.97        55.50647
477.41        55.58298
477.85        55.82069
478.29        55.27248
478.74        55.16796
479.18        55.25259
479.62         55.1957
480.06        55.30379
480.50        55.39137
480.95        55.53178
481.39        55.59244
481.83        55.83916
482.27        55.98361
482.72        55.45153
483.16        55.42928
483.60        55.57839
484.04        55.53992
484.48        55.43962
484.93        55.71358
485.37        55.21926
485.81        55.73289
486.25        54.86415
486.69        55.73095
487.14        55.26214
487.58         55.3145
488.02        55.91749
488.46        55.27452
488.90        55.35268
489.34        55.31882
489.79        54.78211
490.23        55.19078
490.67        55.24538
491.11        55.35933
491.55        55.30887
491.99        55.15979
492.43        55.12067
492.88        55.18159
493.32        55.36284
493.76        55.28789
494.20         55.2863
494.64        55.30477
495.08        54.84016
495.52        54.61367
495.96        54.75432
496.41         55.2826
496.85         55.1449
497.29        54.43987
497.73        54.44253
498.17        54.81978
498.61         55.0063
499.05        54.82747
499.49        54.61832
499.93        54.49131
500.37        54.48602
500.82          54.591
501.26        54.88002
501.70        55.21005
502.14         54.8588
502.58        54.40063
503.02        54.17563
503.46        54.31794
503.90        54.47116
504.34        54.54911
504.78        54.61674
505.22         54.6551
505.66        54.60905
506.10        54.51947
506.54        54.49904
506.98        54.56849
507.42        54.26501
507.86        54.85872
508.30        54.17257
508.74        54.60139
509.18         54.4768
509.62        54.41983
510.06        54.40826
510.50        54.42851
510.94        54.39796
511.38        54.30321
511.82         54.2422
512.26        54.21609
512.70        54.18448
513.14        54.13953
513.58        54.08504
514.02        54.02215
514.46        53.95128
514.90         53.8791
515.34         53.8653
515.78        53.92177
516.22        53.97656
516.66        53.86587
517.10        54.22238
517.54        54.00623
517.98        54.03413
518.42        54.01698
518.86        54.00824
519.30        54.01277
519.74         53.9935
520.18        53.97319
520.62        54.04692
521.06        54.17445
521.50        54.15744
521.93        54.01362
522.37        53.94264
522.81        53.95812
523.25        53.94852
523.69        53.90068
524.13        53.84504
524.57         53.7822
525.01        53.70722
525.45        53.64157
525.89        53.61792
526.32        53.63895
526.76        53.69896
527.20        53.76962
527.64        53.80696
528.08         53.8003
528.52        53.76633
528.96        53.72491
529.40        53.70074
529.83        53.70029
530.27        53.73862
530.71        53.79473
531.15        53.83487
531.59        53.85004
532.03         53.8512
532.46        53.84067
532.90        53.83339
533.34        53.82854
533.78        53.82499
534.22        53.80983
534.66        53.76356
535.09        53.68035
535.53        53.58873
535.97        53.50659
536.41        53.47584
536.85        53.50346
537.28        53.57302
537.72        53.65979
538.16        53.72392
538.60        53.75031
539.04        53.75145
539.47        53.71919
539.91        53.68707
540.35        53.64914
540.79        53.60334
541.22        53.55952
541.66        53.54686
542.10        53.56533
542.54        53.60717
542.97        53.65007
543.41        53.68583
543.85        53.70328
544.29        53.71291
544.72         53.7049
545.16        53.70912
545.60        53.71587
546.04        53.67116
546.47        53.60765
546.91        53.65623
547.35          53.773
547.79        53.80936
548.22        53.73172
548.66        53.56279
549.10        53.37916
549.53        53.37894
549.97        53.54243
550.41        53.60367
550.84        53.55175
551.28        53.52555
551.72        53.52102
552.15        53.54634
552.59        53.63175
553.03        53.39601
553.46        53.50923
553.90        53.42863
554.34        53.34801
554.77        53.25676
555.21        53.20089
555.65        53.20784
556.08        53.26859
556.52         53.4533
556.96        53.56646
557.39        53.69381
557.83        53.76078
558.27        53.65456
558.70        53.45573
559.14        53.38926
559.57        53.46956
560.01        53.69248
560.45        53.91746
560.88        53.82336
561.32         53.5088
561.75        53.26265
562.19        53.19499
562.63        53.31983
563.06        53.53964
563.50        53.53844
563.93        53.32256
564.37        53.21033
564.80        53.23117
565.24        53.36168
565.68         53.5482
566.11        53.64027
566.55        53.63389
566.98         53.6436
567.42        53.69371
567.85        53.61811
568.29        53.53976
568.72        53.54025
569.16         53.6651
569.60        53.62642
570.03        53.68346
570.47        53.68718
570.90         53.6803
571.34        53.72305
571.77        53.97836
572.21        53.68533
572.64        53.72124
573.08        53.48423
573.51        53.97863
573.95        54.07658
574.38        53.56268
574.82        54.26608
