SpectraSmart Spectrum 2.9.0.0
--------- Device Information -----------
Spectrum Name :  反射率_0
Saving Time :  2024/04/20 23:58:46
Spectro-Module Model Name : SE2030-DUVN
Spectro-Module Serial Number : OS361AC55029948
Wavelength Start : 200
Wavelength End : 1025
Wavelength Unit : Wavelength(nm)
Spectrum Unit : Reflectance(%)
-----------Spectrum Setting ------------
Integration Time : 20ms
Average : 10
Boxcar : 0
Background removal :  enabled
linearity correction :  enabled
SC :  disabled
Intensity correction :  disabled
DWT denoise :  enabled
savitzky-golay :  disabled
FFT :  disabled
Running average :  disabled
Kalman :  disabled
High pass :  disabled
---------------BEGIN--------------------
Wavelength(nm)             Reflectance(%)
200.29               0
200.75       -55.29543
201.21       -11.55993
201.67         12.2373
202.13         21.8403
202.58        23.48467
203.04        21.21609
203.50        15.29435
203.96        6.982193
204.42       -1.818698
204.88       -12.08873
205.34       -20.67899
205.80       -24.07913
206.26       -21.27409
206.72       -8.096909
207.18         8.37286
207.64        7.836801
208.10       -16.46441
208.55       -58.40965
209.01       -85.98901
209.47       -61.01111
209.93       -16.89324
210.39        19.57299
210.85        42.86847
211.31        52.54481
211.77        52.15547
212.23        43.36029
212.69        21.65638
213.14       -18.78331
213.60       -89.49947
214.06       -287.1185
214.52        -712.858
214.98       -297.6196
215.44       -65.64982
215.90        10.00176
216.36        34.19528
216.81        35.23361
217.27        16.37254
217.73       -79.43489
218.19        1070.035
218.65        453.0061
219.11       -927.6968
219.57       -24.16667
220.02        32.79589
220.48        43.09795
220.94        38.02723
221.40         16.7815
221.86       -37.45228
222.32        -83.1329
222.77        -45.7929
223.23       -7.665857
223.69        12.86024
224.15        20.48659
224.61        21.38579
225.06        19.88131
225.52        16.31138
225.98        10.28508
226.44        2.457026
226.90       -8.246341
227.36       -16.21353
227.81       -11.06472
228.27        2.661045
228.73         17.2292
229.19        27.04051
229.65        29.54117
230.10        26.11018
230.56        18.77517
231.02        8.864207
231.48        1.730747
231.93        1.539578
232.39        6.385008
232.85         12.3187
233.31        15.87522
233.77        17.15241
234.22         17.7806
234.68        17.80889
235.14        17.14721
235.60        16.20122
236.05        14.02688
236.51        11.12963
236.97        15.32093
237.43        27.26321
237.88        35.18547
238.34        34.57462
238.80        58.32364
239.26        47.26789
239.71        44.62501
240.17        34.91127
240.63        24.80016
241.08        19.04186
241.54        21.34599
242.00        32.07955
242.46        39.94012
242.91        42.18118
243.37        40.16494
243.83        35.57487
244.28        34.44715
244.74        39.56965
245.20        46.89132
245.66        51.31363
246.11        47.98191
246.57        36.51593
247.03        18.40078
247.48       -3.401865
247.94       -23.89686
248.40       -44.17781
248.85       -78.00153
249.31       -160.0667
249.77       -206.4119
250.22       -77.78152
250.68         -29.397
251.14       -13.29774
251.59       -5.495036
252.05       0.9143919
252.51        9.287967
252.96        18.15023
253.42        21.27923
253.88        15.60517
254.33        5.998689
254.79        3.408104
255.25          13.156
255.70         27.7917
256.16        40.90801
256.62        49.55465
257.07        52.36818
257.53        51.65943
257.99        49.49536
258.44        47.13764
258.90        46.18479
259.35        46.11975
259.81        46.55259
260.27        46.94757
260.72         46.8812
261.18        46.59045
261.63        46.03756
262.09        45.39992
262.55        44.48209
263.00        43.26793
263.46        42.00631
263.91        40.70271
264.37        39.73577
264.83         39.0651
265.28        38.55002
265.74        38.17113
266.19        37.74023
266.65         37.2556
267.11        36.71388
267.56        36.06385
268.02        35.31012
268.47        34.42012
268.93        33.42945
269.38        32.37271
269.84        31.36837
270.30        30.44326
270.75        29.58858
271.21        28.80621
271.66         28.0269
272.12        27.27227
272.57         26.5638
273.03        25.94964
273.48        25.46424
273.94        25.12024
274.39        24.85503
274.85        24.65506
275.31        24.44852
275.76        24.19771
276.22        23.93618
276.67        23.63962
277.13           23.34
277.58        23.01736
278.04        22.69525
278.49        22.35058
278.95        22.01574
279.40        21.66543
279.86        21.32767
280.31        20.98878
280.77         20.6956
281.22        20.42829
281.68        20.23003
282.13        20.04289
282.59        19.84863
283.04         19.6231
283.50        19.38362
283.95        19.19766
284.41        19.18771
284.86        19.35232
285.32        19.65829
285.77        19.95217
286.22        20.02193
286.68          19.861
287.13        19.50945
287.59        19.19017
288.04          19.137
288.50        19.36307
288.95        19.90939
289.41        20.61818
289.86        20.75736
290.32        20.19793
290.77        21.03365
291.22        20.02703
291.68         20.1356
292.13        20.42396
292.59        20.92256
293.04        21.54647
293.50        22.23952
293.95        22.99195
294.40        23.79752
294.86        24.68311
295.31        25.67514
295.77        26.76911
296.22        27.93312
296.68        29.11638
297.13        30.24173
297.58        31.31317
298.04        32.36116
298.49        33.46112
298.95        34.75094
299.40        36.23172
299.85        37.85327
300.31        39.50695
300.76         41.0091
301.21        42.32615
301.67        43.53658
302.12          44.703
302.58        46.01243
303.03         47.4782
303.48        49.08026
303.94        50.76362
304.39        52.40128
304.84        53.96141
305.30        55.49003
305.75        56.97626
306.20        58.49431
306.66        60.05037
307.11        61.57254
307.57        63.04243
308.02        64.38152
308.47        65.59003
308.93        66.73034
309.38        67.78683
309.83        68.75201
310.29        69.74682
310.74        70.66781
311.19         71.5602
311.65        72.43286
312.10        73.27368
312.55        74.08353
313.00        74.85964
313.46        75.59911
313.91        76.28081
314.36        76.90844
314.82        77.46994
315.27        77.94604
315.72        78.34426
316.18        78.67973
316.63        78.97453
317.08        79.26942
317.53        79.57638
317.99        79.88316
318.44         80.1876
318.89        80.47007
319.35         80.7224
319.80        80.95736
320.25        81.16618
320.70        81.33791
321.16        81.46661
321.61        81.56956
322.06        81.66597
322.51        81.79456
322.97        81.95474
323.42         82.1653
323.87        82.39058
324.32        82.58643
324.78        82.72134
325.23        82.82796
325.68        82.92248
326.13        83.05654
326.59        83.22112
327.04        83.44913
327.49        83.66533
327.94        83.77274
328.39        83.75865
328.85         83.6344
329.30        83.55191
329.75        83.65997
330.20        83.99809
330.66        84.48443
331.11        85.05923
331.56        85.51089
332.01        85.77769
332.46        85.90974
332.92        85.92741
333.37        85.98946
333.82        86.10551
334.27          86.245
334.72        86.42171
335.17         86.6605
335.63        86.93777
336.08        87.31039
336.53        87.71474
336.98        88.07027
337.43        88.35612
337.88        88.58501
338.34        88.78796
338.79        89.06815
339.24        89.42597
339.69         89.8271
340.14        90.22313
340.59        90.54568
341.05        90.78114
341.50          90.962
341.95        91.11574
342.40        91.28902
342.85        91.50419
343.30        91.75397
343.75        92.03339
344.20        92.33643
344.66        92.66488
345.11        93.00217
345.56        93.35147
346.01        93.71089
346.46        94.06728
346.91        94.41559
347.36         94.7216
347.81          94.924
348.26        95.01717
348.72        95.09109
349.17         95.0584
349.62        95.09054
350.07        95.17429
350.52        95.29128
350.97        95.39866
351.42        95.42661
351.87         95.3562
352.32        95.20798
352.77        95.01339
353.22        94.81901
353.67        94.63581
354.13        94.45974
354.58        94.24715
355.03         93.9802
355.48        93.65803
355.93        93.29893
356.38        92.92131
356.83        92.54877
357.28        92.17989
357.73        91.79372
358.18        91.38719
358.63        90.95995
359.08        90.51407
359.53        90.06652
359.98        89.58289
360.43        89.00333
360.88        88.32649
361.33        87.56879
361.78        86.82766
362.23        86.26157
362.68        85.89342
363.13        85.66918
363.58        85.45256
364.03        85.02296
364.48        84.33504
364.93        83.46792
365.38         82.5416
365.83        81.75466
366.28        81.16389
366.73        80.69292
367.18        80.29772
367.63        79.91055
368.08        79.49052
368.53        79.06313
368.98        78.56336
369.43        77.87596
369.88        76.98946
370.33        75.93417
370.78        74.83846
371.23        73.94591
371.68        73.34204
372.13        72.97751
372.58        72.75244
373.03        72.48594
373.48        72.11148
373.93        71.66882
374.38        71.19463
374.83        70.75739
375.28        70.37829
375.72        70.01274
376.17        69.64189
376.62        69.19784
377.07        68.66339
377.52        68.05561
377.97         67.4311
378.42        66.89462
378.87        66.48429
379.32        66.17892
379.77         65.9093
380.22        65.56152
380.67         65.1012
381.11        64.55553
381.56        63.98377
382.01        63.50294
382.46        63.15421
382.91        62.91245
383.36        62.69587
383.81        62.37841
384.26        61.93294
384.71        61.39398
385.15        60.85452
385.60        60.51213
386.05         60.3751
386.50        60.38551
386.95        60.39737
387.40        60.18888
387.85        59.73142
388.29        59.08124
388.74        58.47087
389.19        58.06399
389.64        57.88729
390.09        57.86678
390.54        57.89347
390.98        57.78268
391.43        57.52309
391.88        57.17186
392.33         56.8123
392.78        56.55273
393.23        56.41296
393.67        56.33513
394.12        56.32146
394.57        56.21362
395.02        56.00304
395.47        55.79382
395.91        55.61998
396.36        55.43587
396.81         55.2732
397.26        55.19711
397.71        55.14957
398.15        55.01147
398.60        54.83335
399.05        54.53177
399.50        54.24448
399.95        54.28894
400.39        54.60106
400.84        54.84565
401.29        54.89783
401.74        54.55156
402.18        53.95217
402.63        53.75016
403.08        53.91901
403.53        53.78381
403.97        53.34075
404.42        53.06418
404.87        52.96822
405.32        52.89319
405.76        52.82992
406.21        52.75336
406.66        52.68566
407.11        52.80244
407.55        53.02618
408.00        53.02748
408.45        52.80081
408.90         52.4276
409.34        52.06672
409.79        52.12698
410.24        52.50488
410.68        52.63271
411.13        52.47485
411.58        52.37664
412.03        52.37806
412.47        52.38265
412.92         52.3809
413.37        52.40966
413.81        52.44612
414.26        52.49759
414.71        52.54753
415.15        52.60479
415.60        52.64463
416.05        52.67038
416.49        52.68459
416.94        52.67992
417.39        52.66522
417.83        52.65003
418.28        52.63986
418.73         52.6278
419.17        52.62183
419.62        52.64559
420.07        52.70219
420.51        52.78529
420.96        52.88248
421.41        52.95142
421.85        52.96909
422.30        52.93084
422.74        52.87329
423.19        53.05456
423.64        53.42191
424.08        53.68619
424.53        53.76228
424.98        53.88242
425.42        54.05162
425.87        54.06433
426.31         53.9907
426.76        54.09161
427.21        54.36383
427.65        54.62022
428.10        54.77274
428.54        54.86379
428.99        54.91212
429.44        54.90572
429.88        54.86455
430.33        54.83163
430.77        54.81297
431.22        55.03089
431.66        55.41613
432.11        55.68928
432.56        55.87251
433.00        56.00447
433.45        55.87253
433.89        55.93782
434.34        56.45405
434.78        55.03874
435.23        55.44043
435.67        56.66883
436.12        57.12958
436.57        57.32181
437.01        56.71373
437.46        56.38045
437.90        56.90901
438.35        57.49502
438.79        57.36081
439.24        57.49789
439.68        57.64852
440.13        57.70319
440.57        57.68928
441.02        57.87125
441.46        58.17022
441.91        58.20224
442.35        58.01702
442.80        58.18773
443.24        58.65805
443.69        59.07704
444.13        59.29239
444.58        59.29388
445.02        59.12227
445.47        59.06237
445.91        59.14639
446.36        59.20963
446.80        59.25968
447.24        59.38877
447.69        59.57271
448.13        59.86687
448.58        60.03341
449.02         59.9568
449.47        59.68832
449.91        59.63523
450.36        59.84859
450.80        60.03765
451.25        60.17359
451.69        60.36554
452.13        60.54797
452.58        60.45949
453.02         60.1469
453.47        59.94956
453.91        59.88857
454.36        59.79301
454.80        59.68462
455.24          59.662
455.69        59.71705
456.13        59.88504
456.58        60.10863
457.02        60.09565
457.46         59.5153
457.91        59.86355
458.35         59.6134
458.79        59.64408
459.24        59.54084
459.68        59.54219
460.13        59.67945
460.57         59.5716
461.01        59.19012
461.46        59.44891
461.90        59.32365
462.34        58.67741
462.79        58.81909
463.23        58.87523
463.68         59.7219
464.12        59.63589
464.56        58.95183
465.01        58.80368
465.45        59.07644
465.89        59.27056
466.34        59.34053
466.78        59.02709
467.22        58.40659
467.67        58.93708
468.11        58.84108
468.55        58.88273
468.99        58.56116
469.44        58.44739
469.88         58.5481
470.32        58.58663
470.77        58.56149
471.21        58.54804
471.65        58.54282
472.10        58.53298
472.54        58.49324
472.98        58.40754
473.42         58.2791
473.87        58.11726
474.31        57.94648
474.75        57.91125
475.20        57.99094
475.64        58.08564
476.08        58.15912
476.52        58.15121
476.97        58.01654
477.41        58.10727
477.85        57.99316
478.29        57.77002
478.74        58.20808
479.18        58.32434
479.62        58.41236
480.06        58.48203
480.50        58.58481
480.95        58.45729
481.39        58.06865
481.83        58.43172
482.27        58.45388
482.72        58.06236
483.16         58.5931
483.60        58.49162
484.04        58.74968
484.48        58.34497
484.93        58.21955
485.37        58.06516
485.81        58.55999
486.25        58.25601
486.69        58.95926
487.14        58.84367
487.58        58.19646
488.02         57.9389
488.46        58.53622
488.90          58.444
489.34        57.97486
489.79        57.80667
490.23        58.25043
490.67         58.5197
491.11        58.59639
491.55        58.45131
491.99        58.17141
492.43        58.06823
492.88        58.17309
493.32        58.29388
493.76        58.33627
494.20        58.38309
494.64        58.44548
495.08         58.1061
495.52        58.01054
495.96        58.07825
496.41        58.37266
496.85        58.31742
497.29        57.93214
497.73        57.90008
498.17        57.91422
498.61        58.05008
499.05        58.13194
499.49        57.93371
499.93        57.59945
500.37        57.68918
500.82        58.12553
501.26        58.42795
501.70        58.49324
502.14        58.10834
502.58        57.85383
503.02        57.65749
503.46        57.65459
503.90        57.70188
504.34        57.73362
504.78         57.7784
505.22        57.83652
505.66         57.7893
506.10        57.65142
506.54        57.79471
506.98        58.20783
507.42        57.71358
507.86        57.81433
508.30        57.72226
508.74        57.76738
509.18        57.82977
509.62        57.84563
510.06        57.85696
510.50        57.82436
510.94        57.69111
511.38        57.51534
511.82         57.4491
512.26        57.51195
512.70        57.63805
513.14        57.77369
513.58        57.84996
514.02        57.84266
514.46        57.77015
514.90        57.65936
515.34        57.59826
515.78        57.61037
516.22        57.62926
516.66        57.47974
517.10        57.74727
517.54         57.4698
517.98         57.4153
518.42         57.3314
518.86        57.28889
519.30        57.29692
519.74        57.30513
520.18        57.32827
520.62        57.45678
521.06        57.64122
521.50          57.674
521.93        57.56059
522.37        57.49328
522.81        57.48532
523.25        57.42764
523.69        57.34634
524.13        57.29493
524.57        57.27527
525.01        57.34809
525.45        57.51946
525.89        57.39014
526.32        57.59306
526.76        57.61781
527.20        57.65471
527.64        57.68768
528.08        57.72007
528.52        57.74702
528.96        57.75518
529.40        57.73622
529.83        57.68834
530.27        57.64331
530.71        57.60869
531.15        57.59393
531.59        57.60053
532.03        57.62635
532.46        57.64803
532.90        57.64037
533.34         57.5942
533.78        57.52554
534.22        57.44275
534.66        57.35765
535.09        57.27212
535.53        57.20363
535.97        57.16035
536.41        57.17108
536.85        57.23595
537.28        57.34199
537.72        57.45939
538.16        57.53939
538.60        57.56594
539.04        57.55326
539.47        57.49975
539.91        57.45364
540.35        57.40934
540.79        57.36068
541.22        57.31456
541.66        57.28603
542.10         57.2718
542.54        57.29844
542.97        57.33851
543.41        57.31105
543.85        57.23913
544.29          57.283
544.72        57.40742
545.16        57.48161
545.60        57.49226
546.04        57.45732
546.47         57.4111
546.91        57.53372
547.35         57.7527
547.79        57.70115
548.22        57.41499
548.66        57.31384
549.10        57.40902
549.53        57.43812
549.97        57.38968
550.41        57.35851
550.84        57.35032
551.28        57.30297
551.72        57.22475
552.15        57.23742
552.59        57.37959
553.03        57.23027
553.46        57.45659
553.90        57.48312
554.34        57.49438
554.77        57.47675
555.21        57.47139
555.65         57.4991
556.08        57.54625
556.52        57.65896
556.96        57.78065
557.39        57.75505
557.83        57.62561
558.27        57.58565
558.70        57.63277
559.14        57.62002
559.57        57.54353
560.01        57.52382
560.45        57.53216
560.88        57.53513
561.32        57.55676
561.75        57.41271
562.19        57.21906
562.63        57.36734
563.06        57.74751
563.50        57.77814
563.93        57.46708
564.37        57.28254
564.80        57.26737
565.24        57.36339
565.68        57.52426
566.11        57.61642
566.55        57.64124
566.98        57.69995
567.42        57.80496
567.85        57.82353
568.29        57.79412
568.72         57.7837
569.16        57.84454
569.60        57.77738
570.03        57.86798
570.47        57.90705
570.90        57.88639
571.34         57.9668
571.77        57.97319
572.21        57.71402
572.64         57.8307
573.08         57.8746
573.51        57.85111
573.95        58.22853
574.38        58.02547
574.82        58.28376
