SpectraSmart Spectrum 2.9.0.0
--------- Device Information -----------
Spectrum Name :  反射率_0
Saving Time :  2024/04/21 00:52:58
Spectro-Module Model Name : SE2030-DUVN
Spectro-Module Serial Number : OS361AC55029948
Wavelength Start : 200
Wavelength End : 1025
Wavelength Unit : Wavelength(nm)
Spectrum Unit : Reflectance(%)
-----------Spectrum Setting ------------
Integration Time : 20ms
Average : 10
Boxcar : 0
Background removal :  enabled
linearity correction :  enabled
SC :  disabled
Intensity correction :  disabled
DWT denoise :  enabled
savitzky-golay :  disabled
FFT :  disabled
Running average :  disabled
Kalman :  disabled
High pass :  disabled
---------------BEGIN--------------------
Wavelength(nm)             Reflectance(%)
200.29               0
200.75       -32.73257
201.21        10.16232
201.67        32.39791
202.13        40.66375
202.58        40.93914
203.04         36.1545
203.50        27.90383
203.96        20.96841
204.42        17.90889
204.88        16.80762
205.34        15.39963
205.80        9.417023
206.26       -2.770609
206.72       -18.20967
207.18       -36.75393
207.64       -56.96829
208.10       -72.99131
208.55       -85.30621
209.01       -75.74649
209.47       -33.26714
209.93        10.11227
210.39        41.65024
210.85        60.20863
211.31        66.89226
211.77        64.67519
212.23        52.81133
212.69        28.02306
213.14       -6.391246
213.60       -41.76286
214.06       -87.28493
214.52       -87.18633
214.98        13.93055
215.44        23.81509
215.90        24.29485
216.36        22.21892
216.81        15.99498
217.27       0.8612465
217.73       -64.26566
218.19         677.916
218.65        251.6419
219.11       -382.0485
219.57        22.01691
220.02        46.31678
220.48        50.75199
220.94        49.21648
221.40        41.13866
221.86        20.51853
222.32        5.575806
222.77        22.34318
223.23        37.63992
223.69        45.41125
224.15        47.78488
224.61        47.27794
225.06        45.66098
225.52        42.99528
225.98        38.86483
226.44        33.61189
226.90        26.57776
227.36        21.55563
227.81        25.27913
228.27        34.68148
228.73        44.55712
229.19        51.05226
229.65        52.34861
230.10        49.31225
230.56        43.24988
231.02        35.30198
231.48         30.1145
231.93        30.90381
232.39        35.90185
232.85        41.50969
233.31        44.76367
233.77        45.86943
234.22        46.21699
234.68         46.2186
235.14        46.52001
235.60        47.60739
236.05        48.68348
236.51        49.89235
236.97        55.20537
237.43        64.21178
237.88        71.05235
238.34           73.98
238.80        85.10278
239.26         82.1384
239.71        80.81594
240.17        75.87126
240.63        71.56277
241.08        71.53391
241.54        77.25697
242.00        86.94546
242.46        93.47123
242.91        95.11538
243.37        91.66428
243.83         84.6194
244.28        80.57382
244.74         83.2805
245.20        89.62926
245.66        95.18649
246.11        95.44501
246.57        89.94664
247.03        80.07721
247.48        67.59595
247.94        55.30415
248.40        42.27967
248.85        19.13938
249.31       -42.83234
249.77       -89.79828
250.22        3.732656
250.68        43.24637
251.14        57.68893
251.59        65.60189
252.05        73.35638
252.51         83.7162
252.96         96.4455
253.42        105.6646
253.88        105.6311
254.33        98.66418
254.79        92.81863
255.25         92.4035
255.70        94.89637
256.16        98.18038
256.62        100.2289
257.07        99.96484
257.53        98.75062
257.99        96.94889
258.44        94.79754
258.90        93.49351
259.35        92.24134
259.81        91.32887
260.27        90.25407
260.72        88.66455
261.18         87.1791
261.63        85.51978
262.09        84.09015
262.55        82.54517
263.00         80.7567
263.46        79.06626
263.91        77.39222
264.37        76.27771
264.83        75.58984
265.28        75.08434
265.74        74.68011
266.19        73.91321
266.65        72.83199
267.11        71.47836
267.56        69.94133
268.02        68.49313
268.47        67.13973
268.93        65.87127
269.38        64.59668
269.84        63.26879
270.30        61.86794
270.75        60.44028
271.21        59.09484
271.66        57.89381
272.12        56.88721
272.57        55.98838
273.03        55.16707
273.48        54.28945
273.94        53.36395
274.39        52.37724
274.85        51.38308
275.31        50.35815
275.76        49.31122
276.22        48.31539
276.67         47.3893
277.13        46.69655
277.58        46.16802
278.04        45.78507
278.49        45.40095
278.95        44.94949
279.40        44.33307
279.86        43.64895
280.31        42.83631
280.77        41.94522
281.22        40.96656
281.68        39.99878
282.13        39.08487
282.59        38.40269
283.04        37.93258
283.50        37.65643
283.95        37.50907
284.41        37.44579
284.86         37.4096
285.32        37.44112
285.77        37.44643
286.22        37.33815
286.68        37.13284
287.13        36.80144
287.59        36.52332
288.04        36.45416
288.50         36.6077
288.95        37.00699
289.41        37.52056
289.86        37.51854
290.32        36.92199
290.77        37.40857
291.22        36.46321
291.68         36.4957
292.13        36.77166
292.59        37.29636
293.04        38.01195
293.50        38.89789
293.95        39.92888
294.40        41.09773
294.86        42.32817
295.31         43.4819
295.77        44.53821
296.22        45.50963
296.68         46.5116
297.13        47.71521
297.58         49.1716
298.04        50.82457
298.49        52.57284
298.95        54.27909
299.40        55.87119
299.85        57.39443
300.31        58.87474
300.76        60.31749
301.21        61.74862
301.67        63.18501
302.12        64.62125
302.58        66.17773
303.03        67.83501
303.48        69.62384
303.94        71.50182
304.39        73.33324
304.84        75.09582
305.30         76.8283
305.75        78.53459
306.20        80.34695
306.66         82.2772
307.11         84.2147
307.57        86.09155
308.02        87.71808
308.47         89.0946
308.93        90.31737
309.38        91.42928
309.83        92.58028
310.29        93.84663
310.74         95.1377
311.19        96.43376
311.65        97.67382
312.10        98.81409
312.55        99.87676
313.00        100.8654
313.46        101.7876
313.91        102.6266
314.36        103.3864
314.82        104.0683
315.27        104.6663
315.72        105.2035
316.18        105.6994
316.63        106.1828
317.08        106.6987
317.53         107.253
317.99          107.82
318.44        108.3898
318.89        108.9286
319.35        109.4164
319.80        109.8713
320.25        110.2565
320.70        110.5211
321.16        110.6591
321.61        110.7074
322.06         110.747
322.51        110.9197
322.97        111.2417
323.42        111.7123
323.87        112.2288
324.32        112.6338
324.78         112.859
325.23        112.9861
325.68        113.0649
326.13        113.2133
326.59        113.4414
327.04        113.7725
327.49         114.133
327.94         114.441
328.39        114.6752
328.85        114.8325
329.30        115.0357
329.75        115.3404
330.20        115.7642
330.66        116.2336
331.11        116.7536
331.56         117.187
332.01        117.5016
332.46        117.7281
332.92        117.8598
333.37        118.0441
333.82        118.2706
334.27        118.5352
334.72        118.8471
335.17        119.2204
335.63        119.6202
336.08        120.1004
336.53        120.6337
336.98        121.2201
337.43        121.8428
337.88        122.4948
338.34        123.0742
338.79        123.4843
339.24        123.6902
339.69         123.743
340.14        123.7826
340.59        124.0392
341.05        124.5591
341.50        125.2645
341.95        126.0496
342.40        126.7384
342.85        127.2618
343.30        127.6779
343.75        127.9589
344.20        128.0679
344.66        128.0403
345.11          127.87
345.56        127.7143
346.01        127.8249
346.46        128.2508
346.91        128.8947
347.36        129.5522
347.81         129.994
348.26        130.1678
348.72        129.8031
349.17        129.6846
349.62        129.5816
350.07        129.7482
350.52        130.0737
350.97        130.4111
351.42         130.517
351.87        130.3172
352.32        129.8945
352.77        129.3732
353.22        128.9328
353.67        128.6217
354.13        128.4079
354.58        128.1621
355.03        127.7387
355.48        127.1173
355.93        126.3614
356.38        125.6163
356.83        125.0923
357.28        124.8133
357.73        124.6915
358.18         124.559
358.63        124.1524
359.08        123.4159
359.53        122.4531
359.98         121.393
360.43          120.43
360.88        119.6206
361.33        118.8947
361.78        118.2331
362.23        117.6077
362.68        116.9951
363.13        116.4184
363.58        115.8011
364.03        115.0131
364.48        114.0361
364.93        112.8967
365.38        111.7304
365.83        110.7682
366.28        110.0582
366.73        109.5306
367.18        109.0377
367.63        108.3387
368.08        107.3842
368.53        106.2705
368.98        105.1116
369.43        104.0677
369.88        103.1842
370.33        102.4025
370.78        101.6947
371.23        101.0349
371.68        100.4054
372.13        99.81336
372.58         99.2406
373.03        98.63886
373.48        97.98834
373.93        97.30042
374.38        96.55962
374.83        95.76157
375.28        94.93678
375.72        94.08618
376.17        93.32749
376.62        92.74385
377.07        92.32936
377.52        92.03645
377.97        91.77103
378.42        91.38609
378.87        90.85352
379.32        90.23327
379.77        89.57982
380.22        88.95995
380.67        88.38493
381.11        87.82643
381.56        87.28878
382.01        86.81126
382.46        86.40568
382.91        86.07564
383.36        85.75617
383.81        85.33871
384.26        84.80075
384.71        84.16698
385.15        83.51125
385.60        83.01872
386.05        82.69614
386.50        82.49842
386.95        82.31467
387.40        81.97848
387.85        81.47054
388.29        80.81013
388.74        80.21952
389.19        79.78989
389.64        79.53349
390.09        79.39348
390.54        79.27709
390.98        79.02329
391.43        78.64291
391.88        78.18433
392.33        77.73468
392.78        77.38313
393.23        77.14516
393.67        77.02661
394.12        77.03433
394.57        76.81264
395.02        76.41967
395.47        76.31371
395.91        76.45673
396.36        76.35481
396.81        76.00949
397.26        75.73003
397.71        75.50391
398.15        75.18686
398.60        74.87298
399.05        74.43181
399.50        74.01609
399.95        74.03403
400.39        74.38041
400.84        74.54589
401.29        74.40053
401.74         73.8567
402.18        73.09644
402.63         72.7532
403.08        72.81417
403.53         72.6147
403.97        72.14278
404.42        71.87418
404.87        71.82439
405.32         71.7901
405.76        71.74586
406.21        71.78551
406.66        71.82973
407.11        71.71171
407.55        71.45641
408.00         71.1544
408.45        70.89372
408.90        70.71378
409.34        70.62328
409.79        70.61752
410.24        70.63857
410.68        70.61919
411.13        70.53758
411.58        70.39679
412.03        70.22169
412.47        70.09286
412.92        70.00479
413.37        69.94379
413.81        69.88808
414.26        69.86175
414.71        69.84084
415.15        69.84533
415.60        69.82308
416.05        69.74613
416.49        69.61312
416.94        69.42262
417.39        69.22359
417.83        69.08579
418.28        69.02119
418.73        69.00045
419.17        68.97476
419.62        68.87607
420.07         68.7038
420.51        68.49046
420.96        68.29319
421.41        68.20513
421.85         68.2243
422.30        68.18456
422.74        68.09538
423.19        68.47827
423.64        69.12564
424.08        69.10846
424.53        68.43821
424.98        68.16017
425.42        68.36983
425.87        68.41611
426.31        68.29075
426.76        68.35365
427.21         68.5445
427.65          68.565
428.10        68.41201
428.54        68.32352
428.99        68.33825
429.44        68.39406
429.88         68.4197
430.33        68.25166
430.77        67.92405
431.22        67.94988
431.66        68.25007
432.11        68.31075
432.56        68.17999
433.00        68.20027
433.45        68.15395
433.89         68.2318
434.34        68.60206
434.78        67.53011
435.23        67.26009
435.67        68.85909
436.12        68.30032
436.57        68.41483
437.01        67.98799
437.46        67.70646
437.90        68.31927
438.35        68.25343
438.79        68.58221
439.24        68.55708
439.68        68.45852
440.13        68.13631
440.57        67.74793
441.02        67.89523
441.46        68.43726
441.91        68.57146
442.35         68.2849
442.80        68.44121
443.24        68.91428
443.69        69.03956
444.13        68.78225
444.58        68.48959
445.02        68.24053
445.47        68.25256
445.91        68.48042
446.36        68.51363
446.80        68.30407
447.24        68.22643
447.69        68.39847
448.13        68.03803
448.58        68.60741
449.02        68.55221
449.47          68.347
449.91        68.27671
450.36        68.37923
450.80        68.36162
451.25        68.23778
451.69        68.24946
452.13        68.34261
452.58        68.17297
453.02        67.78806
453.47         67.5633
453.91        67.51494
454.36        67.46913
454.80        67.38303
455.24        67.27567
455.69        67.15791
456.13        66.96559
456.58        66.79691
457.02        66.72577
457.46        66.91246
457.91         66.8261
458.35        66.64698
458.79        66.52877
459.24        66.53365
459.68        66.46945
460.13        66.37652
460.57        66.34272
461.01        66.13036
461.46        66.12487
461.90        66.22964
462.34        65.74969
462.79        65.95461
463.23        65.95847
463.68        66.05801
464.12        65.72835
464.56        65.13071
465.01        65.20242
465.45        65.69802
465.89        65.67165
466.34        65.20312
466.78        64.95445
467.22        64.95936
467.67         65.1123
468.11        64.80347
468.55        64.69353
468.99        64.60822
469.44        64.50739
469.88         64.3895
470.32         64.2588
470.77        64.12971
471.21        64.01937
471.65        63.92987
472.10        63.85589
472.54        63.79413
472.98        63.74484
473.42        63.70337
473.87        63.72898
474.31        63.75944
474.75        63.68667
475.20        63.54384
475.64        63.54515
476.08        63.65633
476.52        63.67291
476.97        63.58161
477.41        63.53126
477.85        63.46034
478.29         63.4603
478.74        63.33841
479.18        63.23991
479.62        63.45845
480.06        63.53519
480.50         63.5711
480.95        63.66784
481.39          63.771
481.83        63.73941
482.27        63.95287
482.72        63.49454
483.16        63.65529
483.60        63.43757
484.04        63.63334
484.48        63.39323
484.93        63.16219
485.37        63.10867
485.81         63.7604
486.25        62.85806
486.69        64.27374
487.14        64.54589
487.58        63.90556
488.02        63.12508
488.46        62.69291
488.90        63.16498
489.34        62.90866
489.79        62.52425
490.23          63.134
490.67        63.13012
491.11        63.01481
491.55        62.85233
491.99        62.73576
492.43        62.66413
492.88        62.64836
493.32        62.74107
493.76        62.84615
494.20         62.9092
494.64        62.93383
495.08        62.57983
495.52        62.45412
495.96        62.53617
496.41        62.86908
496.85        62.90335
497.29        62.61065
497.73        62.54045
498.17        62.39203
498.61        62.50697
499.05        62.69627
499.49        62.45626
499.93         61.9319
500.37        61.95321
500.82        62.44689
501.26        62.54126
501.70        62.49884
502.14        62.10638
502.58        62.04405
503.02        61.93933
503.46        61.91222
503.90        61.97737
504.34        62.05144
504.78        62.01682
505.22        61.89647
505.66        61.75664
506.10        61.62796
506.54        61.65805
506.98        61.89756
507.42         61.4214
507.86        62.14123
508.30        61.77156
508.74        61.99829
509.18        61.87012
509.62        61.76589
510.06        61.72135
510.50        61.72192
510.94         61.6872
511.38         61.5938
511.82        61.50911
512.26        61.43166
512.70        61.32345
513.14        61.21553
513.58        61.17483
514.02        61.20938
514.46        61.30015
514.90        61.38619
515.34        61.40664
515.78        61.34909
516.22        61.20583
516.66        60.88516
517.10        61.07784
517.54        60.92304
517.98        61.07982
518.42        61.23012
518.86        61.30501
519.30        61.27868
519.74        61.14445
520.18        60.98742
520.62         61.0126
521.06        61.19646
521.50        61.28221
521.93          61.235
522.37        61.19703
522.81        61.16414
523.25        61.04082
523.69        60.86469
524.13        60.74824
524.57         60.7102
525.01        60.71851
525.45         60.7542
525.89        60.78663
526.32        60.80101
526.76        60.81257
527.20        60.82145
527.64        60.82884
528.08        60.83379
528.52          60.833
528.96        60.82524
529.40        60.80373
529.83        60.76796
530.27        60.75354
530.71         60.7462
531.15        60.72002
531.59        60.67547
532.03        60.62394
532.46        60.58428
532.90        60.59951
533.34        60.66753
533.78        60.77243
534.22        60.87249
534.66        60.90444
535.09        60.84827
535.53        60.74589
535.97        60.62394
536.41        60.54162
536.85        60.51679
537.28          60.533
537.72         60.5736
538.16        60.61248
538.60         60.6365
539.04        60.65233
539.47        60.64756
539.91        60.65332
540.35        60.65493
540.79        60.64914
541.22        60.62445
541.66        60.57894
542.10        60.51035
542.54        60.42435
542.97        60.33429
543.41        60.28832
543.85        60.29095
544.29        60.34694
544.72        60.41648
545.16        60.47536
545.60        60.49911
546.04        60.46122
546.47         60.4254
546.91        60.52776
547.35        60.73807
547.79        60.98223
548.22        61.13811
548.66        60.98302
549.10        60.61145
549.53        60.44488
549.97        60.51078
550.41        60.47952
550.84        60.36331
551.28        60.35429
551.72        60.43197
552.15        60.53336
552.59        60.66505
553.03        60.46695
553.46        60.71184
553.90        60.53194
554.34        60.28002
554.77        60.30188
555.21        59.96344
555.65        59.89599
556.08        60.09159
556.52        60.43334
556.96        60.81218
557.39        60.84065
557.83        60.56281
558.27        60.33873
558.70        60.25883
559.14        60.18581
559.57        60.13399
560.01        60.33694
560.45        60.64912
560.88        60.60387
561.32        60.30358
561.75        60.13089
562.19        60.17229
562.63        60.31744
563.06          60.481
563.50        60.46436
563.93        60.27719
564.37        60.17414
564.80        60.17908
565.24         60.2949
565.68         60.4573
566.11         60.5138
566.55        60.46806
566.98        60.39552
567.42        60.35744
567.85        60.34426
568.29        60.39189
568.72         60.4763
569.16        60.66081
569.60        60.66272
570.03        60.72623
570.47        60.88789
570.90        61.25676
571.34        60.68361
571.77        61.30212
572.21         61.2565
572.64        61.12594
573.08        60.93483
573.51        60.85051
573.95        61.32181
574.38        61.30902
574.82        61.83143
