SpectraSmart Spectrum 2.9.0.0
--------- Device Information -----------
Spectrum Name :  反射率_0
Saving Time :  2024/04/21 00:56:56
Spectro-Module Model Name : SE2030-DUVN
Spectro-Module Serial Number : OS361AC55029948
Wavelength Start : 200
Wavelength End : 1025
Wavelength Unit : Wavelength(nm)
Spectrum Unit : Reflectance(%)
-----------Spectrum Setting ------------
Integration Time : 20ms
Average : 10
Boxcar : 0
Background removal :  enabled
linearity correction :  enabled
SC :  disabled
Intensity correction :  disabled
DWT denoise :  enabled
savitzky-golay :  disabled
FFT :  disabled
Running average :  disabled
Kalman :  disabled
High pass :  disabled
---------------BEGIN--------------------
Wavelength(nm)             Reflectance(%)
200.29               0
200.75       -47.60249
201.21        21.09001
201.67        55.69537
202.13        61.19345
202.58        47.57778
203.04        19.60549
203.50       -15.96326
203.96        -36.1882
204.42       -29.60312
204.88       -5.623578
205.34        22.84608
205.80        39.04533
206.26        38.29777
206.72        24.69248
207.18       -1.673966
207.64        -35.6502
208.10       -67.71809
208.55       -97.80541
209.01       -103.7092
209.47       -66.90693
209.93       -22.39035
210.39        12.10547
210.85        33.58033
211.31        42.37336
211.77         42.0588
212.23        33.60091
212.69        13.02255
213.14       -22.89089
213.60       -80.23083
214.06       -231.9059
214.52       -534.8381
214.98       -206.5349
215.44       -37.30165
215.90        16.58483
216.36        32.48182
216.81        29.58818
217.27        7.192969
217.73       -99.04558
218.19        1163.079
218.65        484.1114
219.11       -1021.366
219.57       -35.74052
220.02        26.27645
220.48        36.86952
220.94        30.16853
221.40        4.541498
221.86       -58.13023
222.32       -103.2043
222.77       -51.52366
223.23       -4.037577
223.69        20.84955
224.15        30.47959
224.61        32.45184
225.06        31.35471
225.52        27.91888
225.98        22.34656
226.44        15.28408
226.90         5.45791
227.36       -2.524949
227.81       0.3068701
228.27        10.66802
228.73        22.35317
229.19        30.08204
229.65        30.97022
230.10        25.97253
230.56         16.7568
231.02        5.063512
231.48       -2.202858
231.93      -0.3912202
232.39        7.541111
232.85        16.17695
233.31        21.12994
233.77        22.67753
234.22         22.7452
234.68        21.90435
235.14        21.05585
235.60        20.95526
236.05        20.51437
236.51        19.77997
236.97        24.87257
237.43        35.91996
237.88        42.84175
238.34        42.07502
238.80        63.49295
239.26        55.38518
239.71        55.62344
240.17        50.77691
240.63         45.1501
241.08        41.14665
241.54        40.98624
242.00        45.21141
242.46        45.97866
242.91        41.07153
243.37        30.66652
243.83        18.20342
244.28        15.74504
244.74        28.36647
245.20        48.34657
245.66        65.36387
246.11        69.70651
246.57        60.92311
247.03        41.81831
247.48        16.45351
247.94       -8.309513
248.40       -33.45923
248.85       -77.58465
249.31        -189.213
249.77       -250.6806
250.22       -73.34737
250.68       -5.382572
251.14        16.97569
251.59        26.69354
252.05         33.5701
252.51        40.68308
252.96        47.97039
253.42          52.981
253.88        53.01658
254.33         49.6911
254.79         48.3807
255.25        51.32505
255.70        55.99001
256.16        60.40331
256.62        63.40832
257.07        64.45974
257.53        64.53367
257.99         64.0079
258.44        62.91423
258.90        61.97888
259.35        60.73218
259.81        59.48236
260.27        58.15181
260.72        56.78244
261.18        55.73499
261.63        54.75173
262.09        53.80233
262.55        52.41003
263.00         50.5602
263.46         48.6147
263.91        46.82595
264.37        45.94341
264.83        45.86611
265.28        46.23291
265.74        46.65851
266.19        46.45103
266.65        45.58499
267.11        44.23294
267.56         42.6707
268.02        41.41059
268.47        40.52299
268.93        39.88343
269.38        39.25534
269.84        38.34313
270.30        37.08312
270.75        35.62328
271.21        34.18965
271.66         33.0436
272.12        32.27685
272.57        31.76101
273.03        31.39294
273.48        30.98385
273.94        30.50038
274.39        29.97905
274.85        29.45594
275.31        28.91581
275.76         28.3632
276.22        27.81429
276.67         27.3186
277.13        27.03159
277.58        26.91208
278.04        26.92632
278.49        26.89948
278.95        26.66156
279.40        26.15107
279.86        25.47795
280.31        24.73423
280.77        24.13557
281.22        23.70359
281.68        23.44004
282.13        23.23648
282.59        23.00867
283.04        22.71414
283.50        22.40352
283.95        22.17027
284.41        22.17668
284.86        22.41818
285.32        22.83464
285.77        23.23787
286.22        23.37738
286.68        23.23868
287.13        22.87709
287.59        22.52565
288.04        22.43026
288.50        22.61879
288.95         23.1205
289.41        23.80305
289.86        23.98442
290.32        23.54592
290.77         24.4884
291.22        23.68363
291.68        23.90982
292.13        24.26671
292.59        24.80401
293.04        25.48806
293.50        26.34133
293.95        27.37084
294.40        28.55135
294.86        29.85842
295.31        31.23494
295.77        32.65492
296.22        34.10308
296.68        35.58131
297.13        37.09389
297.58        38.65956
298.04        40.27686
298.49        41.95504
298.95        43.72994
299.40         45.5812
299.85        47.50495
300.31         49.4562
300.76        51.33635
301.21        53.14178
301.67        54.92527
302.12        56.72474
302.58        58.71276
303.03        60.87791
303.48        63.20105
303.94        65.60623
304.39        67.91957
304.84        70.09278
305.30        72.17464
305.75        74.14675
306.20        76.10062
306.66        78.06371
307.11        79.96439
307.57        81.80698
308.02         83.5146
308.47        85.10993
308.93         86.6541
309.38        88.14991
309.83        89.67096
310.29         91.2654
310.74        92.84044
311.19        94.35782
311.65        95.72843
312.10        96.90739
312.55        97.92473
313.00        98.80595
313.46        99.60054
313.91        100.3149
314.36        100.9534
314.82        101.5382
315.27        102.0882
315.72        102.6268
316.18        103.1685
316.63        103.7067
317.08        104.2253
317.53        104.7151
317.99         105.166
318.44        105.5967
318.89        106.0242
319.35        106.4417
319.80        106.8469
320.25        107.1885
320.70        107.3938
321.16        107.4463
321.61          107.39
322.06        107.2995
322.51        107.3029
322.97        107.4191
323.42        107.6537
323.87        107.9242
324.32        108.1081
324.78        108.1516
325.23         108.128
325.68        108.0835
326.13        108.1241
326.59        108.2515
327.04        108.4865
327.49        108.7432
327.94        108.9175
328.39        108.9851
328.85        108.9539
329.30        108.9561
329.75        109.0737
330.20        109.3368
330.66        109.6692
331.11        110.0837
331.56        110.4619
332.01        110.7677
332.46        111.0215
332.92        111.1831
333.37        111.3351
333.82        111.4501
334.27         111.535
334.72        111.6246
335.17        111.7788
335.63         111.987
336.08        112.2992
336.53        112.6826
336.98        113.1232
337.43        113.5986
337.88        114.0972
338.34        114.5469
338.79        114.8945
339.24        115.0997
339.69        115.1868
340.14        115.2101
340.59        115.2636
341.05        115.3839
341.50        115.5627
341.95        115.7954
342.40        116.0722
342.85        116.3836
343.30        116.7334
343.75        117.0933
344.20        117.4186
344.66        117.7008
345.11        117.9186
345.56        118.0914
346.01        118.2575
346.46        118.4273
346.91        118.5721
347.36         118.653
347.81        118.6706
348.26        118.6337
348.72        118.3514
349.17        118.2485
349.62        118.1047
350.07        118.0545
350.52        118.0569
350.97        118.0626
351.42        117.9859
351.87        117.7928
352.32        117.5062
352.77        117.1493
353.22        116.7524
353.67        116.3334
354.13        115.9131
354.58        115.4517
355.03        114.9459
355.48        114.4025
355.93        113.8196
356.38        113.2717
356.83        112.8655
357.28        112.5931
357.73        112.4073
358.18        112.1439
358.63         111.546
359.08        110.5785
359.53        109.3436
359.98        108.0413
360.43        106.9726
360.88        106.2136
361.33        105.6782
361.78        105.2458
362.23        104.7214
362.68        104.0428
363.13        103.2681
363.58         102.451
364.03        101.6695
364.48         100.946
364.93        100.2496
365.38        99.53922
365.83        98.76283
366.28        97.91409
366.73        97.01212
367.18        96.12858
367.63        95.37373
368.08        94.76094
368.53        94.25069
368.98        93.72831
369.43         93.0051
369.88        92.03751
370.33        90.88227
370.78        89.65427
371.23        88.57371
371.68        87.72645
372.13        87.05929
372.58         86.5172
373.03        85.99133
373.48        85.43226
373.93        84.87597
374.38        84.30305
374.83        83.68692
375.28        83.03837
375.72        82.34228
376.17        81.68015
376.62         81.1127
377.07        80.63563
377.52        80.21423
377.97        79.79248
378.42        79.29044
378.87        78.70269
379.32        78.07394
379.77        77.43818
380.22        76.82636
380.67        76.23841
381.11        75.65872
381.56         75.0932
382.01        74.57735
382.46        74.12877
382.91        73.75398
383.36        73.40626
383.81        73.00607
384.26        72.53643
384.71        72.01243
385.15        71.49194
385.60        71.12981
386.05        70.92034
386.50        70.81562
386.95        70.70826
387.40        70.43676
387.85        69.98473
388.29        69.38549
388.74        68.82866
389.19        68.39275
389.64        68.09379
390.09        67.87803
390.54        67.71426
390.98        67.54226
391.43        67.37764
391.88        67.23032
392.33        67.07291
392.78        66.86732
393.23        66.61271
393.67        66.26799
394.12        65.96079
394.57        65.75041
395.02        65.62531
395.47        65.49537
395.91        65.32034
396.36        65.06616
396.81        64.74534
397.26        64.39196
397.71        64.03386
398.15        63.70915
398.60        63.49846
399.05        63.23639
399.50        62.99525
399.95        63.04157
400.39        63.26413
400.84        63.26703
401.29        62.99827
401.74        62.41799
402.18        61.74194
402.63        61.64631
403.08        62.01989
403.53        61.96453
403.97        61.43118
404.42        60.99673
404.87        60.74986
405.32        60.60784
405.76        60.58274
406.21        60.64465
406.66        60.72546
407.11         60.8308
407.55        60.88389
408.00        60.65305
408.45        60.22094
408.90        59.82831
409.34        59.60323
409.79        59.70498
410.24        60.00813
410.68           60.11
411.13        59.96579
411.58        59.79907
412.03        59.66493
412.47        59.57353
412.92        59.52922
413.37        59.53468
413.81        59.55473
414.26        59.58598
414.71        59.60311
415.15        59.62683
415.60         59.6226
416.05        59.58185
416.49        59.50827
416.94        59.39759
417.39        59.28156
417.83        59.20131
418.28        59.16977
418.73        59.17668
419.17         59.1951
419.62        59.19007
420.07        59.14833
420.51        59.07321
420.96        59.01234
421.41        58.98374
421.85        58.96857
422.30        59.02436
422.74         59.0905
423.19        59.10971
423.64        59.08815
424.08        59.20164
424.53         59.3826
424.98        59.49359
425.42        59.53148
425.87        59.52012
426.31          59.516
426.76        59.64022
427.21        59.87083
427.65        60.05124
428.10        60.09124
428.54        60.04261
428.99        59.93654
429.44         59.7373
429.88        59.49681
430.33        59.37621
430.77        59.36076
431.22        59.52791
431.66        59.79624
432.11        60.01527
432.56        60.14627
433.00        60.09579
433.45        59.76834
433.89        59.63593
434.34        59.81255
434.78        59.27857
435.23        59.19453
435.67        59.88332
436.12         60.4319
436.57        60.67347
437.01        60.37065
437.46        60.13755
437.90        60.62124
438.35         60.7826
438.79        60.69311
439.24        60.64729
439.68        60.63845
440.13        60.59049
440.57        60.51092
441.02        60.58735
441.46        60.77373
441.91        60.73062
442.35        60.50127
442.80        60.82054
443.24        61.48286
443.69        61.51035
444.13        60.95382
444.58        60.65015
445.02        60.68743
445.47        60.93961
445.91        61.26388
446.36        61.38968
446.80        61.26905
447.24        61.03424
447.69        60.80563
448.13        60.86344
448.58         61.0155
449.02        61.07549
449.47        60.97403
449.91        60.93332
450.36         60.9626
450.80        60.84019
451.25         60.6394
451.69        60.62108
452.13         60.7558
452.58        60.72476
453.02        60.51337
453.47        60.37205
453.91        60.29864
454.36        60.15416
454.80        59.97314
455.24        59.91557
455.69        60.01289
456.13        60.12267
456.58        60.19426
457.02        60.36654
457.46        60.25407
457.91        60.00445
458.35        59.71722
458.79        59.54168
459.24        59.54917
459.68        59.64536
460.13        59.78219
460.57        59.74921
461.01          59.531
461.46        59.48622
461.90        59.04193
462.34        59.04415
462.79        58.87017
463.23        58.94953
463.68        59.67645
464.12        59.53051
464.56        58.84967
465.01        58.79084
465.45        59.20669
465.89        59.14416
466.34        58.67524
466.78        58.43589
467.22         58.4925
467.67        58.51214
468.11        58.55659
468.55        58.50489
468.99        58.38292
469.44        58.29378
469.88        58.24093
470.32        58.11641
470.77        57.95121
471.21        57.86071
471.65        57.85722
472.10        57.91186
472.54        57.97033
472.98        57.96732
473.42         57.8923
473.87        57.77781
474.31        57.64251
474.75        57.61643
475.20        57.68636
475.64        57.74179
476.08        57.77192
476.52        57.77514
476.97        57.71164
477.41        57.75928
477.85         57.9197
478.29        57.45965
478.74        57.27991
479.18        57.38865
479.62         57.5904
480.06        57.67379
480.50         57.7629
480.95        57.77994
481.39         57.7108
481.83        58.01466
482.27        58.38055
482.72        57.75853
483.16        58.12618
483.60        58.33333
484.04        58.24724
484.48        57.91553
484.93        57.82447
485.37        57.51643
485.81        58.45753
486.25        57.71675
486.69        58.87656
487.14        59.47017
487.58        58.72765
488.02        58.00839
488.46         57.7412
488.90        57.86201
489.34         58.1666
489.79        57.64294
490.23        57.81533
490.67        57.76478
491.11         57.9535
491.55         57.9763
491.99        57.85376
492.43        57.81048
492.88        57.83968
493.32        57.85561
493.76        57.83018
494.20        57.86235
494.64        57.97614
495.08        57.82296
495.52        57.95649
495.96        57.99061
496.41        58.04641
496.85        57.91379
497.29        57.63238
497.73         57.7556
498.17        57.92366
498.61        57.96432
499.05        57.78566
499.49        57.71097
499.93        57.78277
500.37        57.91603
500.82        58.03395
501.26        58.05405
501.70        57.97403
502.14         57.6189
502.58        57.52459
503.02         57.4003
503.46        57.36149
503.90        57.42905
504.34        57.55043
504.78         57.6622
505.22        57.75829
505.66        57.78401
506.10        57.72106
506.54        57.80246
506.98        58.08256
507.42        57.51368
507.86        57.86187
508.30        57.79622
508.74        57.71812
509.18        57.66933
509.62        57.62255
510.06        57.59225
510.50        57.54475
510.94        57.43691
511.38        57.28365
511.82        57.16792
512.26        57.09989
512.70        57.03419
513.14        56.97952
513.58        56.96919
514.02        57.00082
514.46        57.05994
514.90          57.108
515.34         57.1266
515.78        57.11259
516.22         57.0341
516.66        56.76646
517.10        56.98312
517.54        56.72828
517.98        56.75237
518.42        56.77444
518.86        56.82964
519.30        56.90893
519.74        56.97208
520.18        57.02641
520.62        57.14902
521.06        57.29136
521.50        57.24875
521.93        57.04312
522.37        56.89611
522.81        56.83167
523.25        56.73343
523.69        56.61155
524.13        56.53182
524.57        56.49985
525.01         56.5041
525.45        56.53215
525.89        56.56015
526.32        56.57674
526.76        56.58812
527.20        56.60143
527.64         56.6321
528.08        56.67912
528.52        56.73588
528.96        56.77935
529.40        56.76955
529.83        56.69994
530.27        56.61123
530.71        56.51994
531.15        56.45042
531.59        56.41244
532.03        56.40259
532.46        56.40163
532.90        56.39049
533.34        56.35831
533.78        56.31525
534.22        56.26489
534.66        56.21109
535.09        56.15104
535.53        56.10429
535.97          56.067
536.41        56.04958
536.85        56.05429
537.28        56.07701
537.72        56.11824
538.16        56.17881
538.60        56.25114
539.04        56.32995
539.47        56.38501
539.91        56.41969
540.35         56.4176
540.79        56.38731
541.22        56.33976
541.66        56.30664
542.10        56.29276
542.54           56.29
542.97        56.29207
543.41        56.31597
543.85        56.35592
544.29        56.42248
544.72        56.48453
545.16        56.53147
545.60        56.54694
546.04        56.49967
546.47        56.44747
546.91        56.53519
547.35        56.72872
547.79         56.9132
548.22        57.00235
548.66        56.88009
549.10        56.62772
549.53         56.5621
549.97        56.67984
550.41        56.67489
550.84        56.54969
551.28        56.46657
551.72        56.44489
552.15        56.51572
552.59        56.67823
553.03        56.57238
553.46        56.72549
553.90        56.62012
554.34        56.62899
554.77        56.62388
555.21        56.49263
555.65        56.54953
556.08        56.70823
556.52        56.90131
556.96        57.04735
557.39        57.10302
557.83        57.05771
558.27        56.87171
558.70        56.63542
559.14        56.52147
559.57        56.54635
560.01        56.74859
560.45        57.00492
560.88        56.97358
561.32        56.74981
561.75        56.68009
562.19         56.8103
562.63        56.94029
563.06        57.00443
563.50        56.93313
563.93        56.74866
564.37        56.64151
564.80        56.62708
565.24        56.70483
565.68        56.83913
566.11        56.91887
566.55        56.94103
566.98        57.01228
567.42        57.13018
567.85        57.05351
568.29        56.88675
568.72         56.9556
569.16        57.26363
569.60        57.31444
570.03        57.37084
570.47        57.36475
570.90        57.36874
571.34        57.43457
571.77        57.81721
572.21        57.58881
572.64        57.78606
573.08        57.62017
573.51        57.40123
573.95        57.64867
574.38        57.95593
574.82        58.35789
