SpectraSmart Spectrum 2.9.0.0
--------- Device Information -----------
Spectrum Name :  反射率_0
Saving Time :  2024/04/21 00:57:43
Spectro-Module Model Name : SE2030-DUVN
Spectro-Module Serial Number : OS361AC55029948
Wavelength Start : 200
Wavelength End : 1025
Wavelength Unit : Wavelength(nm)
Spectrum Unit : Reflectance(%)
-----------Spectrum Setting ------------
Integration Time : 20ms
Average : 10
Boxcar : 0
Background removal :  enabled
linearity correction :  enabled
SC :  disabled
Intensity correction :  disabled
DWT denoise :  enabled
savitzky-golay :  disabled
FFT :  disabled
Running average :  disabled
Kalman :  disabled
High pass :  disabled
---------------BEGIN--------------------
Wavelength(nm)             Reflectance(%)
200.29               0
200.75       -145.3395
201.21        -75.5734
201.67       -35.11972
202.13       -16.18966
202.58       -8.715807
203.04       -6.605177
203.50       -7.244612
203.96       -7.095057
204.42       -5.317035
204.88        -4.07537
205.34       -5.908569
205.80       -14.97113
206.26       -33.29659
206.72       -59.40719
207.18       -90.90264
207.64       -119.7979
208.10       -135.5728
208.55        -138.503
209.01       -116.7064
209.47       -70.14555
209.93       -29.56625
210.39       -3.026021
210.85        12.16006
211.31         19.0432
211.77        20.69284
212.23        18.33983
212.69        7.865491
213.14       -22.55605
213.60       -99.51273
214.06       -360.0467
214.52       -1026.057
214.98        -512.456
215.44       -166.3916
215.90       -46.78855
216.36       -6.527524
216.81       -2.024979
217.27       -26.52409
217.73       -155.3126
218.19         1396.34
218.65        565.1782
219.11       -1309.078
219.57       -81.61456
220.02       -3.317672
220.48        12.21256
220.94        8.812301
221.40       -11.94848
221.86       -64.03292
222.32       -97.81289
222.77       -50.14118
223.23       -9.505339
223.69        11.12321
224.15        18.87826
224.61        20.25885
225.06        19.26072
225.52        16.17577
225.98        10.57472
226.44        3.013036
226.90        -7.51269
227.36       -15.48909
227.81       -10.74911
228.27        2.386771
228.73        16.46902
229.19        25.82465
229.65        27.69398
230.10        23.33897
230.56        14.67439
231.02        3.295708
231.48       -4.372213
231.93       -3.688399
232.39        2.810474
232.85        10.22959
233.31        14.41036
233.77        15.51517
234.22        15.40706
234.68        14.39285
235.14        12.90329
235.60        11.57889
236.05        9.293948
236.51        6.361401
236.97        10.56448
237.43        22.54407
237.88        30.02027
238.34        28.10991
238.80        53.53161
239.26        40.84144
239.71        37.97095
240.17        27.55599
240.63        16.58159
241.08        9.798659
241.54         11.3976
242.00        21.76998
242.46        28.08617
242.91        26.89917
243.37        19.38286
243.83        8.075332
244.28        3.459704
244.74        10.83055
245.20        23.29639
245.66         33.0301
246.11         32.6554
246.57        21.55672
247.03        2.603822
247.48       -22.10423
247.94       -49.83036
248.40       -85.89687
248.85       -164.3506
249.31       -391.2394
249.77       -553.1758
250.22       -200.9823
250.68       -59.14301
251.14       -14.78225
251.59       -3.260738
252.05       -5.390057
252.51       -16.17243
252.96       -35.14771
253.42       -51.23825
253.88       -52.77328
254.33        -42.7386
254.79       -24.03475
255.25       -2.135746
255.70        16.68368
256.16        30.75147
256.62         39.8068
257.07        43.98726
257.53        45.31984
257.99        45.20497
258.44        44.39637
258.90        44.06529
259.35        43.89122
259.81        43.86077
260.27        43.82183
260.72        43.70111
261.18         43.6722
261.63        43.53177
262.09        43.22715
262.55        42.37691
263.00        41.00233
263.46        39.44639
263.91        37.89222
264.37        36.92698
264.83        36.50567
265.28        36.37814
265.74        36.35095
266.19        36.02401
266.65        35.38268
267.11        34.53008
267.56        33.54849
268.02        32.63625
268.47        31.81389
268.93        31.04544
269.38        30.30806
269.84        29.63059
270.30        28.99517
270.75        28.40732
271.21         27.8445
271.66        27.20242
272.12         26.4948
272.57        25.74276
273.03        25.01911
273.48        24.40643
273.94        23.93436
274.39        23.54215
274.85        23.21748
275.31        22.88402
275.76        22.51575
276.22        22.16684
276.67        21.82187
277.13        21.51457
277.58        21.22572
278.04        20.96086
278.49        20.70932
278.95        20.51972
279.40        20.35343
279.86        20.21416
280.31        20.03328
280.77        19.77816
281.22        19.42284
281.68        19.04342
282.13        18.64338
282.59        18.28807
283.04        17.98169
283.50        17.72668
283.95        17.56395
284.41        17.57004
284.86        17.73419
285.32        18.03178
285.77        18.34416
286.22        18.50515
286.68        18.50633
287.13        18.36506
287.59        18.23654
288.04        18.25775
288.50        18.42596
288.95         18.8178
289.41        19.35661
289.86         19.4242
290.32        18.91291
290.77        19.91338
291.22        19.06442
291.68        19.25062
292.13        19.50388
292.59         19.8967
293.04        20.41656
293.50        21.11796
293.95        22.01719
294.40        23.06973
294.86         24.2373
295.31        25.44445
295.77        26.65952
296.22         27.8818
296.68        29.11121
297.13        30.35059
297.58        31.62147
298.04        32.92332
298.49         34.2927
298.95        35.80634
299.40        37.45375
299.85        39.21994
300.31        41.02187
300.76        42.70876
301.21         44.2652
301.67        45.76087
302.12          47.277
302.58        49.03365
303.03        51.03921
303.48        53.25989
303.94        55.58979
304.39        57.81682
304.84        59.88535
305.30        61.85673
305.75        63.75228
306.20        65.71064
306.66        67.75124
307.11        69.77129
307.57        71.72704
308.02        73.49094
308.47        75.06525
308.93        76.53885
309.38        77.91528
309.83        79.24119
310.29        80.61337
310.74        81.92806
311.19          83.225
311.65        84.52023
312.10        85.79026
312.55        87.03725
313.00        88.20216
313.46        89.19286
313.91        89.97925
314.36          90.598
314.82        91.13785
315.27        91.73366
315.72        92.42802
316.18        93.18762
316.63        93.93946
317.08        94.56615
317.53        95.03105
317.99        95.36276
318.44         95.6237
318.89        95.89789
319.35        96.20883
319.80        96.54183
320.25        96.84026
320.70        97.02134
321.16        97.06356
321.61        97.01312
322.06        96.95331
322.51        97.02048
322.97        97.23144
323.42        97.58321
323.87         97.9586
324.32        98.17787
324.78        98.18268
325.23        98.06586
325.68        97.93381
326.13        97.98981
326.59         98.2613
327.04        98.72968
327.49        99.26447
327.94         99.6823
328.39        99.91955
328.85        99.99509
329.30        100.0292
329.75        100.1002
330.20        100.2464
330.66        100.4048
331.11        100.6018
331.56        100.7566
332.01        100.8585
332.46        100.9359
332.92        100.9942
333.37        101.1662
333.82        101.4334
334.27         101.783
334.72        102.1735
335.17        102.5376
335.63        102.8245
336.08        103.0983
336.53        103.3799
336.98        103.7536
337.43         104.229
337.88        104.7685
338.34        105.2646
338.79        105.5985
339.24        105.7199
339.69        105.6829
340.14        105.5875
340.59        105.5912
341.05        105.7465
341.50        106.0239
341.95        106.3755
342.40        106.7228
342.85        107.0363
343.30         107.338
343.75        107.6403
344.20        107.9643
344.66        108.3165
345.11        108.6572
345.56        108.9642
346.01         109.208
346.46        109.3876
346.91        109.5146
347.36        109.5988
347.81        109.6857
348.26        109.7925
348.72        109.8013
349.17        109.9207
349.62        110.0351
350.07        110.2002
350.52        110.3846
350.97        110.5157
351.42        110.4731
351.87        110.2297
352.32        109.8313
352.77        109.3428
353.22        108.8618
353.67        108.4248
354.13        108.0272
354.58        107.6446
355.03        107.2866
355.48        106.9512
355.93        106.6455
356.38        106.3527
356.83        106.0389
357.28        105.6854
357.73        105.2821
358.18        104.8301
358.63         104.346
359.08        103.8337
359.53         103.289
359.98        102.6976
360.43        102.0324
360.88        101.2944
361.33        100.5065
361.78        99.70186
362.23        98.93128
362.68         98.2168
363.13        97.55003
363.58        96.92416
364.03        96.32392
364.48        95.73413
364.93        95.14996
365.38        94.55766
365.83        93.93797
366.28        93.28514
366.73        92.60172
367.18        91.88908
367.63        91.15507
368.08        90.41154
368.53        89.66741
368.98        88.93661
369.43        88.22789
369.88        87.53931
370.33        86.86736
370.78        86.20945
371.23        85.57352
371.68        84.96701
372.13        84.38641
372.58        83.83591
373.03        83.31096
373.48        82.79881
373.93        82.29844
374.38        81.77903
374.83        81.20054
375.28        80.57199
375.72        79.90315
376.17        79.27539
376.62        78.74242
377.07        78.30165
377.52        77.91534
377.97        77.54424
378.42        77.13628
378.87         76.6823
379.32         76.2115
379.77        75.71965
380.22        75.18428
380.67         74.6026
381.11        73.98293
381.56        73.36797
382.01        72.85552
382.46        72.47771
382.91        72.21038
383.36         71.9945
383.81        71.73303
384.26        71.39291
384.71        70.99411
385.15        70.55054
385.60        70.14825
386.05        69.77993
386.50        69.42347
386.95        69.05342
387.40        68.64299
387.85        68.20218
388.29         67.7179
388.74        67.30325
389.19        66.93273
389.64        66.60142
390.09        66.29459
390.54        66.01468
390.98        65.75889
391.43         65.5665
391.88        65.42262
392.33        65.30243
392.78        65.19603
393.23        65.09873
393.67        64.90121
394.12        64.70233
394.57         64.6718
395.02        64.72189
395.47        64.42696
395.91        63.87515
396.36        63.56079
396.81        63.54368
397.26        63.58888
397.71        63.58137
398.15        63.44007
398.60        63.21299
399.05        62.79925
399.50         62.3719
399.95        62.32441
400.39        62.59833
400.84        62.76496
401.29        62.69477
401.74        62.30996
402.18        61.70804
402.63        61.28591
403.08        61.07988
403.53        60.76205
403.97        60.36248
404.42        60.16871
404.87        60.16038
405.32          60.186
405.76        60.20737
406.21        60.22329
406.66        60.22802
407.11        60.27683
407.55        60.32186
408.00        60.22985
408.45         59.9986
408.90        59.51075
409.34        58.95323
409.79        58.92812
410.24        59.30701
410.68        59.43611
411.13        59.28558
411.58        59.11581
412.03        58.93576
412.47        59.32927
412.92        59.09907
413.37        59.22904
413.81        59.31463
414.26        59.35942
414.71        59.33361
415.15        59.26756
415.60        59.18119
416.05        59.13271
416.49        59.14232
416.94        59.18101
417.39        59.21823
417.83        59.20024
418.28        59.11876
418.73        58.99195
419.17        58.84511
419.62        58.72988
420.07        58.66127
420.51         58.6195
420.96        58.61514
421.41        58.61588
421.85        58.58944
422.30        58.59387
422.74        58.60412
423.19        58.64479
423.64        58.71752
424.08        58.90584
424.53        59.10705
424.98        59.22238
425.42        59.24597
425.87        59.10865
426.31        58.92116
426.76        59.05478
427.21        59.43927
427.65        59.53863
428.10          59.313
428.54        59.21679
428.99        59.29013
429.44        59.24995
429.88        59.10179
430.33        59.07814
430.77        59.11077
431.22         59.1704
431.66        59.23105
432.11        59.28582
432.56         59.3828
433.00        59.46608
433.45        59.34756
433.89          59.335
434.34        59.60628
434.78        58.51875
435.23        58.98213
435.67         59.5382
436.12        60.39274
436.57        60.46012
437.01        59.77991
437.46        59.39709
437.90        59.97573
438.35        60.02774
438.79        59.99722
439.24        59.94088
439.68        59.95484
440.13        59.98351
440.57        60.00265
441.02        60.00112
441.46        59.97784
441.91        59.94966
442.35        59.91908
442.80        60.23469
443.24        60.75288
443.69        60.94199
444.13        60.76565
444.58        60.60297
445.02        60.51955
445.47        60.59843
445.91        60.76648
446.36        60.78611
446.80        60.63691
447.24        60.43578
447.69        60.27095
448.13        60.37233
448.58         60.5354
449.02        60.59418
449.47        60.48591
449.91        60.43901
450.36        60.46873
450.80        60.34756
451.25        60.16202
451.69        60.19687
452.13        60.42225
452.58        60.50837
453.02        60.41185
453.47        60.33852
453.91        60.27558
454.36         60.0982
454.80        59.85599
455.24        59.73299
455.69        59.77356
456.13        59.83937
456.58        59.88609
457.02        60.04272
457.46        59.93314
457.91        59.73866
458.35        59.53477
458.79        59.40819
459.24        59.42179
459.68        59.50325
460.13        59.60909
460.57        59.59771
461.01        59.39331
461.46        59.43292
461.90        58.83825
462.34        59.16975
462.79        58.89721
463.23         59.0356
463.68        59.30172
464.12        59.24901
464.56        58.99552
465.01         59.1385
465.45         59.4944
465.89        59.51696
466.34         59.2882
466.78         59.0117
467.22        58.68459
467.67        59.27726
468.11        58.66776
468.55        58.65319
468.99        58.58973
469.44        58.50497
469.88        58.38232
470.32        58.22086
470.77        58.08001
471.21        58.00974
471.65        58.02786
472.10        58.12194
472.54        58.21397
472.98         58.2364
473.42        58.18202
473.87        57.99042
474.31        57.74154
474.75        57.86496
475.20         58.2415
475.64        58.29976
476.08        58.08878
476.52        57.98254
476.97        57.93551
477.41        58.42587
477.85        58.26826
478.29        58.05651
478.74        58.08952
479.18         58.0521
479.62        58.15798
480.06        58.20285
480.50         58.2422
480.95        58.23786
481.39        58.11038
481.83        58.48582
482.27        58.63363
482.72        58.28262
483.16        58.51589
483.60        58.82387
484.04        58.80421
484.48        58.64369
484.93        58.84468
485.37        58.40256
485.81        58.83115
486.25        58.62821
486.69         59.4869
487.14        59.61423
487.58         58.8552
488.02        58.77579
488.46        58.67559
488.90        58.92135
489.34        58.50653
489.79        57.96035
490.23        58.64787
490.67         58.8762
491.11         59.0237
491.55          58.854
491.99        58.49161
492.43        58.37382
492.88        58.52436
493.32        58.68367
493.76        58.76743
494.20        58.87673
494.64        59.00864
495.08        58.83966
495.52        58.94052
495.96         58.8885
496.41        58.84471
496.85        58.84988
497.29        58.84021
497.73        58.90685
498.17        58.73018
498.61        58.64589
499.05        58.57561
499.49        58.50734
499.93        58.49341
500.37        58.55923
500.82        58.67571
501.26        58.95009
501.70          59.281
502.14        59.01491
502.58        58.72261
503.02        58.55708
503.46        58.65069
503.90        58.75108
504.34        58.79782
504.78        58.85057
505.22        58.90777
505.66        58.89452
506.10        58.82297
506.54        58.83185
506.98           58.95
507.42        58.36594
507.86        59.09714
508.30         58.2253
508.74        58.75935
509.18        58.68083
509.62        58.69789
510.06        58.71665
510.50        58.70601
510.94        58.60322
511.38        58.42797
511.82        58.34808
512.26        58.37862
512.70        58.44339
513.14         58.4912
513.58        58.53496
514.02        58.57404
514.46        58.47626
514.90        58.20738
515.34         58.5152
515.78        58.21078
516.22        58.20736
516.66        58.01383
517.10        58.30854
517.54        58.14206
517.98        58.25937
518.42        58.35831
518.86        58.38995
519.30        58.34293
519.74        58.20289
520.18        58.04956
520.62        58.07732
521.06        58.26122
521.50        58.35629
521.93        58.32817
522.37        58.30769
522.81        58.28888
523.25        58.18335
523.69        58.01731
524.13        57.88416
524.57        57.80337
525.01           57.75
525.45        57.73286
525.89        57.76592
526.32         57.8427
526.76        57.96239
527.20        58.09045
527.64        58.17996
528.08        58.21687
528.52        58.18903
528.96        58.12061
529.40        58.10206
529.83        58.11524
530.27        58.05384
530.71        57.92564
531.15        57.84975
531.59        57.83365
532.03        57.81538
532.46        57.78275
532.90        57.75949
533.34        57.73845
533.78        57.71389
534.22        57.68672
534.66        57.65841
535.09        57.62226
535.53        57.59978
535.97        57.57893
536.41        57.55628
536.85        57.53358
537.28        57.51269
537.72        57.50665
538.16        57.53724
538.60        57.60243
539.04        57.68973
539.47         57.7618
539.91        57.81202
540.35        57.81852
540.79        57.79242
541.22        57.74017
541.66        57.68663
542.10        57.63767
542.54         57.5885
542.97        57.54283
543.41        57.53581
543.85        57.56609
544.29        57.63711
544.72        57.71321
545.16         57.7846
545.60         57.8336
546.04        57.80793
546.47        57.75792
546.91        57.88078
547.35         58.1207
547.79        58.21408
548.22        58.12618
548.66        58.00819
549.10        57.91009
549.53        57.86415
549.97        57.88441
550.41        57.89683
550.84        57.90771
551.28        57.95607
551.72        58.03176
552.15        58.14667
552.59        58.31813
553.03        58.19256
553.46        58.45071
553.90        58.26661
554.34        58.19371
554.77         57.9609
555.21        57.78381
555.65        57.69894
556.08        57.84839
556.52        58.14261
556.96         58.4849
557.39        58.58086
557.83        58.45151
558.27        58.36172
558.70        58.34947
559.14        58.28936
559.57        58.19546
560.01        58.22479
560.45        58.31223
560.88        58.29252
561.32        58.22432
561.75        58.08615
562.19        57.98973
562.63        58.24677
563.06        58.71065
563.50        58.71406
563.93        58.30199
564.37          58.132
564.80        58.23344
565.24         58.3765
565.68         58.5149
566.11        58.59622
566.55        58.61782
566.98         58.7098
567.42        58.84279
567.85        58.71904
568.29        58.48465
568.72        58.49771
569.16        58.73591
569.60         59.1074
570.03        58.99297
570.47        59.08549
570.90        59.16825
571.34        59.34242
571.77        59.48851
572.21        59.32318
572.64        59.38205
573.08          59.046
573.51        59.20583
573.95        59.64207
574.38        59.66723
574.82        59.64962
