SpectraSmart Spectrum 2.9.0.0
--------- Device Information -----------
Spectrum Name :  反射率_0
Saving Time :  2024/04/20 23:59:16
Spectro-Module Model Name : SE2030-DUVN
Spectro-Module Serial Number : OS361AC55029948
Wavelength Start : 200
Wavelength End : 1025
Wavelength Unit : Wavelength(nm)
Spectrum Unit : Reflectance(%)
-----------Spectrum Setting ------------
Integration Time : 20ms
Average : 10
Boxcar : 0
Background removal :  enabled
linearity correction :  enabled
SC :  disabled
Intensity correction :  disabled
DWT denoise :  enabled
savitzky-golay :  disabled
FFT :  disabled
Running average :  disabled
Kalman :  disabled
High pass :  disabled
---------------BEGIN--------------------
Wavelength(nm)             Reflectance(%)
200.29               0
200.75       -105.9891
201.21       -40.79888
201.67       -5.629964
202.13         8.03631
202.58        9.687276
203.04        4.755242
203.50       -4.147162
203.96       -10.54696
204.42       -11.23189
204.88       -9.718204
205.34        -7.37721
205.80       -6.182412
206.26        -6.78035
206.72       -5.593685
207.18       -7.487551
207.64       -24.25225
208.10       -55.97393
208.55       -97.16399
209.01       -116.8709
209.47       -82.67091
209.93       -33.10558
210.39        5.905892
210.85        30.56228
211.31        41.51196
211.77         42.8109
212.23        36.92316
212.69        17.98248
213.14       -28.44043
213.60       -133.4509
214.06       -471.8443
214.52       -1296.512
214.98       -608.0261
215.44       -171.8217
215.90       -24.94577
216.36        24.89749
216.81        34.07759
217.27        14.21287
217.73       -101.8806
218.19        1324.394
218.65        573.5009
219.11        -1269.82
219.57       -57.56314
220.02        19.26045
220.48        32.33078
220.94        23.70691
221.40       -8.341567
221.86       -85.67385
222.32       -138.9992
222.77        -72.8692
223.23       -13.58408
223.69        17.01464
224.15        28.41099
224.61        30.09689
225.06        27.79406
225.52        22.55174
225.98        15.06736
226.44        6.386176
226.90        -5.11774
227.36       -13.66632
227.81       -8.497568
228.27        5.627422
228.73        20.81773
229.19        30.81544
229.65        32.50572
230.10         27.1809
230.56         16.6341
231.02        2.755656
231.48       -6.355908
231.93       -5.155182
232.39        2.949971
232.85        12.02272
233.31        17.12487
233.77        18.44624
234.22        18.20686
234.68        16.69749
235.14         14.3094
235.60        11.75219
236.05        7.759305
236.51        3.112475
236.97         6.90597
237.43        20.03727
237.88         29.4962
238.34        29.92703
238.80        55.23377
239.26        41.32751
239.71        34.28936
240.17        17.01932
240.63        -1.05125
241.08         -12.256
241.54       -10.37652
242.00        4.176365
242.46        12.00122
242.91        7.182409
243.37       -8.348306
243.83        -30.4992
244.28       -41.04591
244.74       -29.74283
245.20       -8.598671
245.66        11.07146
246.11        19.71752
246.57         16.4256
247.03        5.410264
247.48       -12.10414
247.94       -35.39273
248.40       -70.53259
248.85       -153.9371
249.31       -406.2527
249.77       -598.1411
250.22       -208.2522
250.68       -49.00154
251.14        2.626454
251.59        19.57479
252.05        23.66966
252.51        21.27225
252.96        10.56916
253.42       -7.618478
253.88       -25.86685
254.33        -39.0545
254.79       -38.58789
255.25       -23.04298
255.70       -2.561419
256.16        15.81095
256.62        28.78098
257.07        34.79817
257.53        36.41085
257.99        36.06298
258.44        35.24645
258.90        35.69633
259.35        36.93675
259.81        38.40345
260.27         39.5781
260.72         40.0185
261.18        39.96912
261.63        39.56362
262.09        38.93039
262.55        37.86439
263.00        36.43123
263.46        34.90952
263.91        33.49249
264.37        32.75638
264.83        32.63711
265.28        32.85911
265.74        33.20432
266.19         33.2647
266.65        32.99812
267.11        32.49616
267.56        31.78219
268.02        30.96445
268.47         30.0616
268.93        29.08237
269.38        28.08115
269.84        27.20695
270.30        26.48166
270.75        25.87891
271.21        25.36605
271.66        24.81921
272.12        24.22686
272.57        23.61457
273.03        23.00606
273.48        22.40921
273.94        21.85545
274.39        21.32841
274.85        20.86876
275.31        20.48937
275.76          20.182
276.22         19.9468
276.67        19.77499
277.13        19.70553
277.58        19.69114
278.04        19.72082
278.49        19.68089
278.95        19.46813
279.40        19.05122
279.86          18.509
280.31         17.9207
280.77        17.46463
281.22        17.15729
281.68         16.9946
282.13        16.88636
282.59        16.75735
283.04        16.56681
283.50        16.34819
283.95        16.16592
284.41        16.12774
284.86        16.23777
285.32         16.4632
285.77        16.67391
286.22        16.68741
286.68        16.50642
287.13        16.17221
287.59        15.89251
288.04         15.8803
288.50        16.13639
288.95        16.70799
289.41        17.45466
289.86        17.65786
290.32        17.17944
290.77        18.17276
291.22        17.22046
291.68         17.3018
292.13         17.4346
292.59        17.67205
293.04        17.99542
293.50        18.45519
293.95        19.06712
294.40        19.79405
294.86        20.59303
295.31        21.37857
295.77        22.12551
296.22        22.84784
296.68        23.56688
297.13        24.31633
297.58        25.12111
298.04        25.96924
298.49        26.88363
298.95        27.91952
299.40        29.05824
299.85        30.28205
300.31        31.50646
300.76        32.58924
301.21        33.51297
301.67        34.34497
302.12        35.16156
302.58         36.1527
303.03        37.33955
303.48        38.70423
303.94        40.17642
304.39         41.6133
304.84        42.97578
305.30        44.30352
305.75        45.61711
306.20        47.02491
306.66        48.52758
307.11        50.04759
307.57        51.50715
308.02        52.75758
308.47        53.78852
308.93         54.6982
309.38        55.54321
309.83        56.39536
310.29        57.43396
310.74         58.4893
311.19        59.56943
311.65        60.60723
312.10        61.56598
312.55        62.46905
313.00        63.31225
313.46        64.09054
313.91        64.79356
314.36        65.42271
314.82        66.00098
315.27        66.57249
315.72        67.15319
316.18        67.74236
316.63         68.3167
317.08        68.83943
317.53        69.29942
317.99        69.70235
318.44        70.07597
318.89        70.45369
319.35        70.84095
319.80        71.22803
320.25        71.58174
320.70        71.85444
321.16        72.02951
321.61        72.13658
322.06        72.21244
322.51        72.32073
322.97        72.47271
323.42        72.68145
323.87         72.9055
324.32        73.08666
324.78        73.19772
325.23        73.28301
325.68        73.37592
326.13        73.55181
326.59        73.80521
327.04        74.14211
327.49        74.48515
327.94        74.73298
328.39        74.85786
328.85        74.87231
329.30        74.86701
329.75        74.90256
330.20        75.01167
330.66        75.15137
331.11        75.36254
331.56        75.61459
332.01        75.89906
332.46        76.22395
332.92        76.53564
333.37          76.841
333.82        77.09753
334.27        77.31058
334.72        77.51378
335.17        77.77029
335.63        78.07587
336.08        78.45893
336.53        78.86836
336.98        79.25121
337.43        79.59058
337.88        79.89919
338.34        80.18762
338.79        80.51051
339.24        80.86016
339.69        81.21654
340.14        81.55151
340.59        81.83035
341.05        82.04931
341.50        82.22685
341.95        82.38377
342.40        82.55603
342.85         82.7602
343.30        82.99432
343.75        83.24361
344.20        83.48594
344.66        83.72222
345.11        83.94112
345.56        84.17023
346.01        84.44477
346.46        84.75845
346.91        85.10885
347.36        85.43648
347.81        85.61044
348.26        85.61134
348.72        85.65714
349.17        85.49298
349.62        85.50709
350.07        85.63631
350.52        85.85236
350.97        86.06402
351.42        86.12862
351.87        86.01243
352.32        85.75397
352.77        85.44723
353.22        85.23347
353.67         85.1433
354.13        85.14836
354.58        85.13162
355.03        84.95581
355.48        84.59708
355.93        84.11139
356.38        83.61053
356.83        83.26044
357.28        83.08578
357.73        83.01804
358.18         82.9499
358.63        82.71332
359.08        82.26718
359.53        81.67753
359.98        81.00842
360.43        80.35385
360.88        79.74746
361.33        79.15628
361.78        78.59374
362.23        78.08465
362.68        77.62646
363.13        77.22385
363.58        76.81889
364.03        76.30815
364.48        75.67942
364.93        74.96976
365.38        74.25929
365.83        73.68501
366.28        73.27324
366.73        72.95989
367.18        72.69389
367.63         72.3947
368.08        72.02513
368.53         71.6172
368.98        71.11899
369.43        70.44159
369.88        69.58546
370.33        68.57458
370.78        67.55846
371.23         66.8106
371.68        66.40972
372.13         66.2899
372.58        66.28919
373.03        66.13101
373.48        65.73457
373.93        65.17429
374.38        64.54691
374.83        64.02448
375.28        63.65879
375.72        63.37004
376.17         63.1168
376.62        62.80646
377.07        62.40546
377.52         61.9445
377.97        61.43784
378.42         60.9154
378.87        60.41063
379.32        59.93005
379.77        59.48645
380.22        59.08721
380.67         58.7212
381.11        58.38091
381.56        58.06015
382.01        57.75896
382.46        57.47851
382.91        57.22189
383.36        56.95596
383.81        56.62974
384.26        56.23731
384.71        55.79366
385.15        55.34698
385.60        55.02644
386.05        54.83156
386.50        54.72765
386.95        54.64148
387.40        54.46123
387.85        54.16907
388.29        53.77674
388.74        53.40917
389.19        53.10258
389.64        52.86264
390.09        52.65306
390.54        52.45698
390.98        52.24408
391.43         52.0428
391.88        51.86354
392.33        51.68982
392.78        51.52549
393.23        51.37597
393.67        51.11954
394.12        50.86638
394.57        50.87072
395.02        51.03003
395.47        50.82582
395.91        50.31952
396.36        50.04159
396.81         50.0453
397.26        50.06179
397.71        50.01193
398.15        49.90561
398.60        49.78405
399.05        49.50361
399.50        49.21156
399.95        49.30965
400.39        49.70625
400.84        49.90375
401.29        49.80107
401.74        49.41761
402.18        48.89154
402.63        48.66648
403.08        48.72174
403.53        48.54893
403.97        48.15017
404.42         47.9035
404.87        47.83104
405.32        47.81607
405.76        47.84785
406.21        47.89566
406.66         47.9304
407.11        48.05443
407.55        48.18862
408.00        47.98858
408.45        47.52964
408.90        47.18021
409.34        47.04562
409.79        47.12281
410.24        47.31874
410.68        47.40063
411.13        47.33476
411.58        47.25807
412.03        47.21995
412.47         47.2467
412.92        47.33689
413.37        47.48458
413.81        47.63211
414.26        47.73708
414.71        47.77583
415.15         47.7732
415.60        47.74666
416.05         47.7634
416.49        47.84436
416.94        47.96493
417.39        48.08819
417.83        48.15596
418.28        48.15612
418.73        48.09594
419.17        48.02965
419.62        48.05729
420.07        48.19792
420.51        48.42099
420.96         48.6448
421.41        48.74269
421.85        48.68427
422.30        48.45303
422.74        48.17747
423.19        48.34233
423.64        48.87322
424.08        49.20213
424.53        49.22613
424.98        49.37997
425.42        49.66915
425.87         49.7266
426.31        49.62127
426.76        49.77645
427.21        50.14875
427.65        50.30082
428.10        50.23428
428.54        50.29788
428.99        50.52829
429.44        50.83472
429.88        51.08866
430.33        51.05381
430.77        50.80513
431.22        50.78366
431.66        51.02485
432.11        51.49429
432.56        52.09071
433.00        52.27798
433.45        51.84654
433.89        51.73594
434.34        52.15279
434.78        51.19269
435.23        50.80028
435.67        52.21415
436.12        52.61665
436.57        53.05439
437.01        52.67416
437.46        52.47749
437.90        52.99517
438.35        53.45746
438.79         53.2314
439.24        53.29401
439.68         53.4379
440.13        53.54334
440.57        53.61242
441.02        53.84807
441.46        54.17701
441.91        54.25251
442.35         54.1118
442.80        54.34835
443.24        54.86387
443.69        55.10527
444.13        55.02256
444.58         54.9406
445.02        54.91548
445.47        55.06528
445.91        55.33447
446.36        55.46489
446.80        55.42684
447.24        55.46975
447.69        55.40522
448.13        55.59529
448.58        55.77512
449.02        55.80935
449.47         55.6764
449.91        55.64879
450.36        55.75654
450.80        55.76937
451.25        55.73048
451.69        55.84436
452.13        56.07162
452.58         56.1277
453.02        56.00406
453.47        55.93925
453.91        55.93189
454.36        55.84849
454.80        55.71481
455.24        55.66022
455.69        55.71229
456.13        55.78505
456.58        55.84015
457.02        55.93295
457.46        55.75063
457.91        55.61897
458.35        55.57122
458.79        55.48453
459.24        55.39676
459.68        55.40387
460.13        55.53923
460.57        55.42719
461.01        55.02813
461.46          55.391
461.90        55.15744
462.34        54.67491
462.79        55.23495
463.23        55.09522
463.68        55.60753
464.12        55.38296
464.56        54.86111
465.01        54.96746
465.45        55.45929
465.89        55.35938
466.34        54.81651
466.78        54.58265
467.22        54.61491
467.67        55.30983
468.11        54.68001
468.55        54.76284
468.99        54.94204
469.44        55.00572
469.88        54.93046
470.32        54.81444
470.77        54.71123
471.21        54.63828
471.65        54.61093
472.10        54.61474
472.54        54.62095
472.98        54.60118
473.42        54.55123
473.87        54.50752
474.31        54.44355
474.75        54.38857
475.20        54.33385
475.64        54.25637
476.08        54.19855
476.52        54.18369
476.97        54.17131
477.41        54.37595
477.85        54.72624
478.29        54.39895
478.74        53.82967
479.18        54.24508
479.62        54.08613
480.06        54.26136
480.50        54.32199
480.95        54.33606
481.39        54.16711
481.83        54.83075
482.27        54.89755
482.72        54.34078
483.16        54.58633
483.60         54.8184
484.04         54.8599
484.48        54.62807
484.93        54.53743
485.37        54.73121
485.81        54.25689
486.25        54.31184
486.69        54.76077
487.14        54.55517
487.58        54.86027
488.02        54.45403
488.46        54.30896
488.90        54.29787
489.34        54.46356
489.79        53.97152
490.23        54.27249
490.67        54.31425
491.11        54.50118
491.55        54.55314
491.99        54.48407
492.43         54.4727
492.88        54.50776
493.32        54.48617
493.76        54.38189
494.20        54.35137
494.64        54.43542
495.08        54.17685
495.52        54.20676
495.96        54.30585
496.41        54.53701
496.85        54.31076
497.29        53.73959
497.73        53.72408
498.17        53.95197
498.61        54.16223
499.05        54.15324
499.49         53.9766
499.93        53.74306
500.37        53.68867
500.82        53.81136
501.26        54.06417
501.70        54.32876
502.14          54.017
502.58        53.68132
503.02        53.54742
503.46        53.73862
503.90         53.9565
504.34        54.10545
504.78        54.21854
505.22        54.28487
505.66        54.21841
506.10        54.04185
506.54        54.05892
506.98        54.33938
507.42        53.82255
507.86        54.24356
508.30        54.18719
508.74        54.06508
509.18          53.934
509.62        53.80569
510.06        53.74392
510.50        53.73085
510.94        53.70219
511.38        53.66311
511.82        53.68093
512.26        53.75127
512.70        53.83209
513.14        53.89429
513.58        53.90918
514.02        53.86866
514.46        53.77938
514.90        53.66054
515.34        53.59611
515.78        53.61026
516.22        53.62873
516.66        53.49214
517.10        53.84164
517.54        53.62975
517.98        53.67949
518.42        53.69721
518.86        53.73059
519.30        53.77897
519.74        53.80318
520.18        53.81655
520.62        53.90134
521.06        54.01692
521.50        53.97105
521.93         53.7947
522.37        53.70814
522.81        53.73273
523.25        53.75387
523.69        53.75338
524.13        53.75256
524.57        53.74699
525.01        53.73073
525.45         53.7238
525.89        53.75732
526.32        53.82978
526.76        53.93064
527.20        54.02227
527.64        54.04881
528.08        53.99878
528.52        53.89497
528.96        53.76987
529.40        53.66702
529.83         53.6003
530.27        53.58455
530.71         53.5967
531.15         53.5964
531.59        53.57634
532.03        53.55559
532.46        53.54074
532.90        53.55219
533.34        53.58762
533.78         53.6351
534.22         53.6828
534.66        53.71574
535.09        53.72108
535.53        53.72097
535.97        53.70484
536.41        53.67178
536.85        53.62435
537.28        53.56292
537.72         53.5028
538.16        53.46951
538.60        53.46763
539.04        53.49379
539.47        53.51331
539.91        53.51655
540.35        53.48474
540.79        53.42744
541.22        53.36715
541.66         53.3534
542.10        53.38937
542.54        53.45618
542.97        53.51969
543.41        53.55449
543.85        53.55083
544.29        53.53498
544.72        53.50568
545.16        53.50943
545.60        53.54418
546.04        53.52596
546.47         53.4945
546.91        53.66361
547.35        53.95705
547.79        54.05682
548.22        53.90553
548.66        53.79587
549.10        53.45681
549.53        53.40778
549.97        53.53082
550.41        53.53662
550.84        53.40165
551.28        53.37167
551.72        53.47175
552.15        53.50054
552.59        53.43748
553.03        53.78349
553.46        53.66808
553.90        53.73032
554.34         53.7096
554.77        53.63492
555.21        53.54703
555.65        53.51196
556.08        53.53717
556.52        53.62793
556.96          53.758
557.39        53.83622
557.83        53.81267
558.27        54.00636
558.70        53.71727
559.14         53.7232
559.57        53.80146
560.01        53.97181
560.45        54.13335
560.88         54.0395
561.32         53.7971
561.75        53.68287
562.19         53.7479
562.63        53.84494
563.06        53.90828
563.50        53.83983
563.93        53.66508
564.37        53.58333
564.80        53.60995
565.24        53.74916
565.68        53.94759
566.11         54.0442
566.55        54.03011
566.98        54.05999
567.42        54.13544
567.85        53.97543
568.29        53.71314
568.72        53.76306
569.16        54.10148
569.60        54.18399
570.03        54.19798
570.47        54.15412
570.90        54.08244
571.34        54.24081
571.77        54.55818
572.21         54.1167
572.64         54.3382
573.08        54.12469
573.51        54.38789
573.95        54.60708
574.38        54.16116
574.82        54.78852
