SpectraSmart Spectrum 2.9.0.0
--------- Device Information -----------
Spectrum Name :  反射率_0
Saving Time :  2024/04/21 00:00:08
Spectro-Module Model Name : SE2030-DUVN
Spectro-Module Serial Number : OS361AC55029948
Wavelength Start : 200
Wavelength End : 1025
Wavelength Unit : Wavelength(nm)
Spectrum Unit : Reflectance(%)
-----------Spectrum Setting ------------
Integration Time : 20ms
Average : 10
Boxcar : 0
Background removal :  enabled
linearity correction :  enabled
SC :  disabled
Intensity correction :  disabled
DWT denoise :  enabled
savitzky-golay :  disabled
FFT :  disabled
Running average :  disabled
Kalman :  disabled
High pass :  disabled
---------------BEGIN--------------------
Wavelength(nm)             Reflectance(%)
200.29               0
200.75       -48.97254
201.21       -1.603899
201.67        27.39755
202.13        40.35867
202.58        44.09528
203.04        44.23729
203.50        41.55575
203.96         37.0391
204.42        31.91364
204.88        24.84112
205.34        18.26596
205.80        15.39874
206.26         17.0925
206.72        26.28076
207.18        37.81913
207.64        36.78595
208.10        18.41571
208.55       -12.27437
209.01       -32.07779
209.47       -13.38908
209.93        19.25081
210.39        46.24347
210.85        63.74699
211.31        71.84779
211.77        73.32281
212.23        69.61264
212.69        58.48585
213.14         37.1782
213.60       -1.990193
214.06       -112.2374
214.52       -368.5068
214.98       -156.6129
215.44       -23.43016
215.90        22.38549
216.36        37.65325
216.81        38.72627
217.27        27.43326
217.73       -31.87262
218.19        697.5925
218.65         323.759
219.11       -717.2305
219.57        -27.0453
220.02        17.23596
220.48        23.62177
220.94        16.36382
221.40       -7.250543
221.86       -60.34522
222.32       -85.76649
222.77         -28.399
223.23        16.65991
223.69        38.00695
224.15        44.16299
224.61        42.28703
225.06        36.02696
225.52          27.283
225.98        18.89737
226.44        12.42433
226.90        6.168828
227.36        2.914446
227.81        7.243224
228.27        15.70734
228.73         24.5656
229.19        30.25517
229.65        30.70543
230.10        26.70229
230.56        19.70955
231.02        10.97048
231.48         5.32657
231.93        6.266197
232.39        11.88042
232.85        18.26776
233.31        22.17133
233.77        23.79111
234.22        24.63742
234.68        24.80806
235.14        24.34471
235.60        23.67019
236.05        21.95703
236.51        19.68471
236.97        23.89522
237.43        35.13582
237.88        42.93054
238.34        43.52994
238.80        65.11928
239.26        57.63754
239.71        57.52243
240.17         52.4388
240.63         48.2385
241.08        48.80811
241.54         56.1898
242.00        68.21199
242.46        75.39808
242.91        75.53714
243.37        68.29368
243.83        56.64441
244.28        52.58716
244.74         61.8407
245.20        77.90688
245.66        91.93394
246.11        95.05905
246.57        86.84631
247.03        70.39153
247.48         48.7994
247.94        26.79369
248.40         2.68504
248.85       -42.93322
249.31       -161.8958
249.77       -212.5532
250.22       -17.36012
250.68        52.26707
251.14        72.92906
251.59        79.46169
252.05        81.47273
252.51        80.75016
252.96        75.92034
253.42        66.79948
253.88        56.30215
254.33        46.81001
254.79         44.7172
255.25        51.11421
255.70        60.23463
256.16        68.89439
256.62        74.20844
257.07        74.58363
257.53        72.26517
257.99        68.81026
258.44        65.50018
258.90        64.22192
259.35        64.13441
259.81        64.70765
260.27        65.12478
260.72        64.68898
261.18        63.81707
261.63         62.5674
262.09        61.27116
262.55        59.69751
263.00         57.8315
263.46        55.97361
263.91        54.19152
264.37        53.06255
264.83        52.50597
265.28        52.26987
265.74        52.21201
266.19        51.91268
266.65        51.36294
267.11        50.60963
267.56        49.68367
268.02        48.73969
268.47        47.76414
268.93         46.7427
269.38        45.64371
269.84        44.50216
270.30         43.3238
270.75         42.1436
271.21        41.00375
271.66        39.87804
272.12         38.8166
272.57        37.81578
273.03         36.9454
273.48        36.24701
273.94         35.7354
274.39        35.33545
274.85        34.99887
275.31         34.5816
275.76        34.03985
276.22        33.44807
276.67        32.82851
277.13        32.31005
277.58        31.86688
278.04        31.49121
278.49         31.1069
278.95        30.70071
279.40        30.22072
279.86        29.73335
280.31        29.20697
280.77        28.68651
281.22        28.15601
281.68        27.67365
282.13        27.23155
282.59         26.9057
283.04        26.66824
283.50        26.51031
283.95        26.41687
284.41        26.39847
284.86        26.43164
285.32        26.54126
285.77        26.62982
286.22        26.58001
286.68        26.40988
287.13        26.11763
287.59        25.91348
288.04        26.00717
288.50        26.39791
288.95         27.1049
289.41        27.94239
289.86        28.16627
290.32          27.664
290.77        28.36885
291.22        27.39275
291.68        27.48895
292.13        27.83362
292.59        28.44156
293.04        29.26068
293.50        30.27959
293.95         31.4799
294.40        32.84394
294.86        34.31078
295.31        35.76384
295.77        37.16917
296.22        38.52335
296.68        39.87584
297.13        41.30793
297.58        42.85794
298.04        44.50186
298.49         46.2196
298.95        47.99856
299.40        49.80457
299.85        51.65607
300.31        53.51709
300.76        55.29814
301.21        57.00213
301.67         58.6729
302.12          60.364
302.58        62.27932
303.03        64.40635
303.48        66.72519
303.94        69.12125
304.39        71.35275
304.84        73.37463
305.30        75.27333
305.75        77.09023
306.20        79.01282
306.66        81.07723
307.11         83.1515
307.57        85.20298
308.02        87.09798
308.47        88.83155
308.93        90.48347
309.38        92.00269
309.83        93.38934
310.29        94.69149
310.74        95.86647
311.19        97.00452
311.65        98.22256
312.10          99.521
312.55        100.8714
313.00        102.1861
313.46        103.3245
313.91        104.2311
314.36         104.957
314.82        105.5744
315.27        106.1867
315.72        106.8386
316.18        107.5009
316.63         108.143
317.08        108.7188
317.53        109.2114
317.99        109.6378
318.44        110.0177
318.89        110.3625
319.35        110.6739
319.80        110.9511
320.25        111.1903
320.70        111.3926
321.16        111.5553
321.61         111.711
322.06        111.8551
322.51        111.9857
322.97        112.0937
323.42        112.2171
323.87        112.3785
324.32        112.6346
324.78        112.9685
325.23        113.3962
325.68        113.8304
326.13        114.1634
326.59        114.3379
327.04        114.4366
327.49        114.4876
327.94        114.5844
328.39        114.7617
328.85        114.9657
329.30        115.2404
329.75        115.5122
330.20         115.765
330.66        115.9766
331.11        116.2343
331.56        116.5282
332.01        116.8661
332.46        117.2448
332.92        117.5869
333.37        117.9203
333.82        118.1956
334.27        118.4364
334.72        118.7158
335.17        119.1555
335.63        119.7448
336.08        120.4978
336.53        121.3064
336.98        122.0434
337.43        122.6575
337.88         123.175
338.34        123.5722
338.79        123.8964
339.24        124.1282
339.69        124.2892
340.14         124.446
340.59        124.7189
341.05        125.1338
341.50        125.6684
341.95        126.2601
342.40        126.7996
342.85        127.2435
343.30        127.6141
343.75        127.9112
344.20        128.1434
344.66        128.3331
345.11        128.4604
345.56        128.5603
346.01        128.6916
346.46        128.8786
346.91        129.0869
347.36        129.2819
347.81        129.4984
348.26        129.7383
348.72        129.6525
349.17        129.8732
349.62        129.9357
350.07        130.0339
350.52        130.1349
350.97        130.1936
351.42        130.1307
351.87        129.9223
352.32        129.5916
352.77        129.2032
353.22        128.8527
353.67        128.5595
354.13         128.319
354.58        128.0267
355.03        127.5702
355.48        126.9406
355.93        126.1927
356.38        125.4451
356.83        124.8725
357.28        124.4951
357.73        124.2347
358.18        123.9749
358.63        123.5359
359.08        122.8681
359.53        122.0376
359.98        121.0944
360.43        120.1085
360.88        119.1181
361.33        118.1124
361.78        117.1328
362.23        116.2488
362.68        115.4749
363.13        114.7983
363.58        114.1663
364.03        113.4853
364.48        112.7199
364.93        111.8814
365.38        110.9916
365.83        110.0957
366.28        109.2096
366.73         108.321
367.18        107.4172
367.63        106.4819
368.08         105.524
368.53        104.5709
368.98        103.6446
369.43        102.7602
369.88        101.9152
370.33        101.0947
370.78        100.3028
371.23        99.56292
371.68        98.88413
372.13        98.26345
372.58        97.67072
373.03        97.04643
373.48         96.3682
373.93        95.64478
374.38        94.90509
374.83        94.21057
375.28        93.58574
375.72        92.99905
376.17         92.4538
376.62        91.87007
377.07        91.21896
377.52        90.50294
377.97        89.76289
378.42        89.08649
378.87        88.51041
379.32        88.02602
379.77         87.5621
380.22        86.99691
380.67        86.29913
381.11        85.50169
381.56        84.69621
382.01        84.06573
382.46        83.66315
382.91         83.4389
383.36        83.25816
383.81        82.91119
384.26        82.35019
384.71        81.63741
385.15        80.89198
385.60        80.36457
386.05        80.07745
386.50         79.9551
386.95        79.85832
387.40        79.57905
387.85         79.0858
388.29        78.41788
388.74        77.79874
389.19        77.32989
389.64        77.02419
390.09        76.80854
390.54        76.61897
390.98        76.34716
391.43        76.02088
391.88        75.68097
392.33        75.33589
392.78        75.03469
393.23         74.7943
393.67        74.42823
394.12        74.08603
394.57         74.0994
395.02        74.32542
395.47         74.0715
395.91        73.39556
396.36        72.97401
396.81        72.86887
397.26        72.71687
397.71        72.47157
398.15         72.2207
398.60        72.03831
399.05        71.74536
399.50        71.43827
399.95        71.46387
400.39        71.72799
400.84        71.67503
401.29        71.27519
401.74         70.8475
402.18        70.47636
402.63         70.1445
403.08        69.87324
403.53        69.60999
403.97        69.36749
404.42        69.25995
404.87        69.24845
405.32        69.22957
405.76        69.16786
406.21        69.06622
406.66        68.92358
407.11        68.80947
407.55        68.70454
408.00        68.44464
408.45        68.07014
408.90        67.66406
409.34        67.32227
409.79        67.25525
410.24        67.39664
410.68        67.44259
411.13         67.3624
411.58        67.32553
412.03         67.3299
412.47        67.30385
412.92        67.22009
413.37        67.11173
413.81        66.99129
414.26        66.93101
414.71        66.92397
415.15        66.97158
415.60        67.01545
416.05        67.01506
416.49        66.95753
416.94        66.84316
417.39        66.71227
417.83        66.61824
418.28        66.57405
418.73        66.56138
419.17        66.53127
419.62        66.41723
420.07        66.21483
420.51        65.94954
420.96        65.71244
421.41        65.60474
421.85        65.61641
422.30        65.70747
422.74        65.80013
423.19        65.97262
423.64        66.15205
424.08        66.17879
424.53        66.00743
424.98        65.92371
425.42        65.97913
425.87        65.85025
426.31        65.62714
426.76        65.88163
427.21        66.45818
427.65        66.43681
428.10        65.86723
428.54        65.66444
428.99        65.88517
429.44        66.04242
429.88        66.05786
430.33        65.99417
430.77        65.82887
431.22        65.89125
431.66        66.10526
432.11        66.04243
432.56        65.77054
433.00        65.68517
433.45        65.64333
433.89        65.69497
434.34        65.89915
434.78        65.20038
435.23        64.82455
435.67        65.84228
436.12        65.63572
436.57        65.82912
437.01         65.5761
437.46        65.69917
437.90        66.23209
438.35        65.90526
438.79        66.34211
439.24        66.27899
439.68        66.19067
440.13        65.90729
440.57        65.57029
441.02        65.57963
441.46        65.88803
441.91        66.18395
442.35        66.31691
442.80        66.56076
443.24        66.81732
443.69          66.866
444.13        66.70545
444.58        66.44311
445.02        66.16242
445.47        66.17945
445.91        66.39718
446.36        66.38954
446.80        66.12185
447.24        65.79706
447.69        65.52541
448.13         65.5367
448.58        65.63043
449.02        65.68814
449.47        65.62462
449.91        65.59557
450.36        65.60488
450.80        65.45969
451.25        65.23226
451.69         65.1767
452.13        65.26157
452.58        65.14959
453.02        64.85188
453.47         64.6767
453.91        64.62521
454.36        64.53896
454.80        64.41105
455.24        64.32889
455.69        64.31209
456.13        64.27354
456.58         64.2171
457.02        64.27923
457.46        64.11122
457.91         64.0519
458.35        64.08846
458.79        64.03133
459.24        63.91373
459.68        63.81295
460.13        63.81741
460.57        63.67535
461.01        63.35532
461.46        63.71033
461.90        63.69453
462.34        63.07476
462.79        62.98704
463.23        62.89208
463.68        63.12128
464.12        62.84603
464.56         62.2445
465.01        62.45903
465.45         63.1927
465.89        63.32256
466.34        62.90432
466.78        62.62483
467.22        62.49489
467.67        62.74112
468.11        61.98771
468.55        61.99322
468.99        62.24687
469.44        62.24754
469.88        61.95505
470.32        61.64071
470.77        61.39435
471.21        61.22715
471.65        61.17055
472.10        61.18734
472.54        61.20558
472.98        61.29861
473.42         61.2331
473.87        61.15274
474.31        60.98269
474.75        61.02262
475.20        61.23184
475.64        60.86673
476.08        60.77513
476.52        60.62974
476.97        60.62836
477.41         60.8781
477.85        61.29562
478.29        60.73428
478.74         60.4112
479.18        60.43938
479.62        60.51128
480.06        60.60795
480.50        60.55327
480.95         60.6073
481.39        60.66108
481.83        60.90097
482.27        60.98336
482.72        60.64792
483.16        60.64716
483.60        60.80965
484.04        60.63957
484.48        60.41211
484.93        60.56768
485.37        60.48743
485.81        60.72176
486.25        60.42067
486.69        62.63105
487.14        62.47463
487.58        61.11519
488.02        60.49648
488.46        60.18553
488.90         60.1719
489.34        59.55225
489.79        59.38421
490.23         60.1565
490.67        60.41114
491.11         60.3103
491.55        60.00957
491.99        59.65233
492.43        59.43603
492.88        59.40935
493.32        59.48865
493.76        59.55293
494.20        59.57887
494.64        59.56789
495.08        59.14199
495.52        58.95506
495.96        59.02458
496.41        59.33206
496.85        59.31142
497.29        58.93982
497.73        58.94359
498.17        58.98447
498.61        59.04822
499.05         58.9822
499.49        58.68039
499.93        58.30181
500.37        58.36667
500.82        58.78802
501.26        59.04937
501.70        59.06774
502.14        58.73324
502.58        58.60889
503.02        58.48741
503.46        58.49006
503.90         58.5393
504.34        58.57629
504.78        58.58919
505.22         58.5664
505.66        58.48834
506.10        58.38263
506.54        58.37665
506.98        58.49117
507.42         58.3586
507.86        58.59365
508.30        58.53532
508.74        58.53533
509.18        58.43976
509.62        58.32018
510.06        58.22532
510.50         58.1477
510.94        58.01659
511.38        57.85011
511.82        57.74705
512.26        57.71669
512.70        57.69855
513.14        57.67953
513.58        57.69186
514.02        57.73516
514.46        57.65805
514.90        57.69448
515.34        57.64222
515.78        57.58502
516.22        57.47696
516.66        57.20424
517.10        57.44826
517.54        57.25662
517.98        57.36955
518.42        57.47297
518.86         57.5417
519.30        57.55842
519.74        57.50457
520.18         57.4319
520.62         57.4889
521.06        57.64346
521.50         57.6648
521.93        57.55118
522.37        57.48604
522.81        57.47633
523.25        57.41727
523.69        57.30867
524.13        57.20107
524.57        57.10275
525.01        57.00461
525.45        56.92814
525.89         56.9058
526.32        56.93867
526.76         57.0208
527.20        57.12069
527.64        57.18893
528.08        57.21018
528.52        57.19806
528.96        57.16911
529.40        57.14386
529.83        57.12931
530.27        57.14673
530.71        57.17474
531.15         57.1786
531.59        57.15236
532.03        57.10975
532.46         57.0678
532.90        57.05861
533.34        57.08115
533.78        57.14218
534.22        57.20317
534.66        57.16676
535.09        57.03624
535.53        56.93784
535.97         56.8843
536.41        56.83438
536.85        56.79795
537.28        56.81543
537.72          56.867
538.16        56.89753
538.60         56.8956
539.04        56.87511
539.47        56.84494
539.91        56.86627
540.35        56.92876
540.79        57.01723
541.22         57.0916
541.66        57.10355
542.10        57.03913
542.54        56.91666
542.97        56.77367
543.41        56.69643
543.85         56.6992
544.29        56.77191
544.72        56.85905
545.16        56.91312
545.60        56.90476
546.04        56.81181
546.47        56.70513
546.91        56.75081
547.35        56.92317
547.79        57.08993
548.22        57.14502
548.66        56.97701
549.10         56.6958
549.53        56.45267
549.97        56.68292
550.41        56.66806
550.84        56.53932
551.28        56.50024
551.72        56.54515
552.15        56.60909
552.59        56.69932
553.03        56.46427
553.46          56.731
553.90        56.48697
554.34        56.46236
554.77        56.51861
555.21        56.46461
555.65        56.28574
556.08        56.44225
556.52        56.47024
556.96        56.50822
557.39        56.57358
557.83        56.64732
558.27        56.58723
558.70        56.43433
559.14        56.36498
559.57        56.38268
560.01        56.50876
560.45        56.64753
560.88        56.54192
561.32        56.30593
561.75        56.20578
562.19        56.30696
562.63        56.55324
563.06         56.8167
563.50        56.77516
563.93        56.46006
564.37        56.25465
564.80        56.20514
565.24        56.27513
565.68        56.41085
566.11        56.45926
566.55        56.42327
566.98        56.43523
567.42        56.50922
567.85        56.49809
568.29        56.48009
568.72        56.57586
569.16        56.80465
569.60        57.08742
570.03         57.0482
570.47        57.24394
570.90         57.5447
571.34        57.23687
571.77        57.57364
572.21        57.43137
572.64        57.44669
573.08        57.38803
573.51        57.32731
573.95        57.72642
574.38         57.6145
574.82         57.9731
