SpectraSmart Spectrum 2.9.0.0
--------- Device Information -----------
Spectrum Name :  反射率_0
Saving Time :  2024/04/21 00:42:46
Spectro-Module Model Name : SE2030-DUVN
Spectro-Module Serial Number : OS361AC55029948
Wavelength Start : 200
Wavelength End : 1025
Wavelength Unit : Wavelength(nm)
Spectrum Unit : Reflectance(%)
-----------Spectrum Setting ------------
Integration Time : 20ms
Average : 10
Boxcar : 0
Background removal :  enabled
linearity correction :  enabled
SC :  disabled
Intensity correction :  disabled
DWT denoise :  enabled
savitzky-golay :  disabled
FFT :  disabled
Running average :  disabled
Kalman :  disabled
High pass :  disabled
---------------BEGIN--------------------
Wavelength(nm)             Reflectance(%)
200.29               0
200.75       -40.91229
201.21        2.232679
201.67         25.3954
202.13         34.5298
202.58        35.74825
203.04        32.84106
203.50        27.13905
203.96        21.93392
204.42        19.24277
204.88        17.35535
205.34        16.03874
205.80        14.61939
206.26         12.7368
206.72         12.7932
207.18        11.92839
207.64        2.703711
208.10       -15.06351
208.55       -38.10847
209.01       -47.87948
209.47       -25.15306
209.93        6.171402
210.39        30.60574
210.85        46.06483
211.31        53.23665
211.77        54.73989
212.23        52.04739
212.69        42.43352
213.14        19.83779
213.60       -30.39154
214.06       -190.2012
214.52       -585.0999
214.98       -269.8059
215.44       -63.75246
215.90        7.011183
216.36        30.88898
216.81        33.92158
217.27         20.2746
217.73       -53.91337
218.19        851.9773
218.65         377.112
219.11       -812.9433
219.57       -28.02796
220.02        21.86811
220.48        29.62395
220.94          22.534
221.40       -2.331672
221.86       -59.32827
222.32       -88.52806
222.77       -29.17788
223.23        18.64438
223.69         40.7808
224.15        45.22468
224.61        39.81734
225.06        28.90551
225.52        15.70974
225.98        5.711435
226.44        1.458031
226.90       0.3158266
227.36        4.152879
227.81        14.00248
228.27        24.57744
228.73        33.51424
229.19        38.53887
229.65        38.40113
230.10        33.89706
230.56          26.035
231.02        16.05649
231.48        9.432037
231.93        10.09833
232.39          16.072
232.85        22.96408
233.31        27.02433
233.77        28.41937
234.22        28.74996
234.68          28.317
235.14        27.58488
235.60        27.06866
236.05        25.77069
236.51        23.84535
236.97        27.45444
237.43        37.06318
237.88        42.86018
238.34        40.71463
238.80        61.13184
239.26        49.72436
239.71        46.47219
240.17        36.86406
240.63        27.58363
241.08         23.3709
241.54        27.75176
242.00        40.11826
242.46        48.57532
242.91        50.08545
243.37        45.66137
243.83        35.85146
244.28        26.28375
244.74        22.36033
245.20        21.51522
245.66        21.79206
246.11        21.51728
246.57        19.84438
247.03        17.85999
247.48        15.03954
247.94        10.31131
248.40        1.350728
248.85       -21.65119
249.31       -93.09212
249.77        -155.131
250.22       -47.06374
250.68        -2.38684
251.14        13.91188
251.59        23.36577
252.05        32.58941
252.51        45.59272
252.96        59.86357
253.42        63.09142
253.88        49.49017
254.33        28.40677
254.79        16.14323
255.25        21.28222
255.70        35.08748
256.16        48.89546
256.62        58.80502
257.07        62.98624
257.53        63.52626
257.99        62.34193
258.44        60.36278
258.90        58.98816
259.35        57.82557
259.81        56.90722
260.27        55.94505
260.72        54.80085
261.18        53.82231
261.63        52.81866
262.09        51.93546
262.55        50.88758
263.00        49.59339
263.46        48.29568
263.91        46.97327
264.37        46.01177
264.83         45.3467
265.28         44.8343
265.74        44.39512
266.19        43.73164
266.65        42.86066
267.11        41.80768
267.56        40.67376
268.02        39.70055
268.47        38.89215
268.93        38.22715
269.38           37.54
269.84        36.63767
270.30        35.48907
270.75         34.1792
271.21        32.94098
271.66        32.06242
272.12        31.61308
272.57        31.45067
273.03        31.37877
273.48        31.07188
273.94        30.48262
274.39        29.69393
274.85        28.85855
275.31        28.13729
275.76        27.57574
276.22        27.14465
276.67         26.7968
277.13        26.54383
277.58        26.32709
278.04        26.16772
278.49        25.99113
278.95         25.7609
279.40        25.42953
279.86        25.04628
280.31        24.59527
280.77        24.14252
281.22        23.67801
281.68         23.2443
282.13        22.83113
282.59        22.49489
283.04        22.21719
283.50        22.00833
283.95        21.85443
284.41        21.75698
284.86        21.70246
285.32         21.7054
285.77        21.72354
286.22        21.71099
286.68        21.68115
287.13        21.60823
287.59        21.59332
288.04         21.6842
288.50        21.85725
288.95        22.20915
289.41        22.68398
289.86        22.70708
290.32        22.18821
290.77        23.12325
291.22        22.29534
291.68        22.48999
292.13        22.77689
292.59        23.22255
293.04         23.8064
293.50         24.5664
293.95        25.51305
294.40        26.61228
294.86        27.82266
295.31        29.06298
295.77        30.30857
296.22        31.56344
296.68        32.85569
297.13        34.22816
297.58        35.70945
298.04        37.28497
298.49        38.95529
298.95        40.74194
299.40        42.61139
299.85        44.55376
300.31        46.51025
300.76        48.36462
301.21        50.11339
301.67        51.82528
302.12        53.54692
302.58        55.45683
303.03          57.563
303.48        59.85667
303.94        62.30005
304.39        64.77602
304.84        67.23579
305.30        69.69502
305.75        72.08266
306.20        74.41102
306.66        76.67422
307.11        78.80529
307.57        80.81802
308.02        82.65968
308.47        84.36195
308.93        85.98531
309.38        87.52465
309.83        89.03874
310.29        90.59108
310.74        92.11407
311.19        93.61629
311.65        95.07299
312.10        96.45382
312.55        97.76675
313.00        99.00487
313.46        100.1616
313.91        101.2165
314.36        102.1795
314.82         103.059
315.27        103.8621
315.72        104.6082
316.18        105.2992
316.63        105.9535
317.08        106.6023
317.53         107.243
317.99        107.8598
318.44        108.4244
318.89        108.8713
319.35        109.1948
319.80        109.4445
320.25        109.6492
320.70        109.8616
321.16        110.0977
321.61        110.3519
322.06        110.6684
322.51         111.126
322.97        111.7039
323.42        112.4134
323.87         113.094
324.32        113.4983
324.78        113.5521
325.23        113.3622
325.68        113.0942
326.13        113.0629
326.59        113.3272
327.04        113.8599
327.49        114.4859
327.94        114.9389
328.39        115.1408
328.85        115.1484
329.30         115.139
329.75        115.2604
330.20        115.5723
330.66         115.972
331.11        116.4773
331.56        116.9763
332.01        117.4338
332.46        117.8797
332.92        118.2594
333.37        118.6311
333.82        118.9517
334.27         119.222
334.72        119.4884
335.17        119.8375
335.63        120.2585
336.08        120.7953
336.53        121.3766
336.98        121.9292
337.43        122.4247
337.88        122.8779
338.34        123.2747
338.79        123.6601
339.24        124.0199
339.69        124.3529
340.14        124.6706
340.59        124.9996
341.05        125.3486
341.50        125.7177
341.95        126.1158
342.40        126.5562
342.85        127.0315
343.30        127.5369
343.75        128.0087
344.20        128.3523
344.66        128.5598
345.11        128.6319
345.56        128.6643
346.01         128.813
346.46        129.1127
346.91        129.4888
347.36        129.8137
347.81        129.9833
348.26        129.9855
348.72        129.5365
349.17        129.3768
349.62        129.2093
350.07        129.2706
350.52        129.4727
350.97        129.7222
351.42        129.8562
351.87        129.8096
352.32        129.6295
352.77        129.3496
353.22        129.0172
353.67        128.6557
354.13        128.2712
354.58        127.8284
355.03        127.3365
355.48        126.8054
355.93          126.24
356.38        125.6952
356.83        125.2443
357.28         124.878
357.73        124.5587
358.18         124.171
358.63        123.5359
359.08        122.6319
359.53        121.5391
359.98        120.3851
360.43        119.3595
360.88        118.5148
361.33        117.7943
361.78        117.1565
362.23        116.5338
362.68        115.8924
363.13        115.2523
363.58         114.577
364.03        113.8048
364.48        112.9246
364.93        111.9431
365.38        110.9188
365.83        109.9593
366.28        109.0951
366.73        108.3027
367.18        107.5378
367.63        106.7256
368.08        105.8501
368.53        104.9445
368.98        104.0358
369.43        103.1491
369.88        102.2888
370.33        101.4417
370.78        100.6023
371.23        99.78378
371.68        98.99982
372.13        98.25105
372.58        97.55811
373.03        96.93571
373.48        96.36861
373.93        95.84596
374.38        95.30388
374.83        94.65056
375.28        93.88438
375.72        93.02728
376.17        92.19997
376.62        91.49621
377.07        90.92183
377.52        90.42393
377.97        89.94948
378.42        89.42656
378.87        88.84393
379.32        88.24466
379.77        87.62797
380.22        86.97149
380.67        86.26982
381.11        85.52531
381.56         84.7879
382.01        84.17513
382.46        83.72533
382.91        83.41611
383.36        83.16042
383.81        82.81693
384.26        82.34727
384.71        81.78318
385.15        81.19232
385.60        80.74774
386.05         80.4549
386.50          80.269
386.95         80.0838
387.40        79.74436
387.85        79.23682
388.29        78.57856
388.74        77.99286
389.19        77.58076
389.64        77.34417
390.09        77.21969
390.54        77.13203
390.98        76.84093
391.43        76.34693
391.88        75.92003
392.33        75.65696
392.78        74.75649
393.23        74.79601
393.67        74.40206
394.12        74.13361
394.57        74.09602
395.02        74.20271
395.47         74.0538
395.91        73.65427
396.36        73.36155
396.81        73.21268
397.26         73.0287
397.71        72.77577
398.15        72.48444
398.60        72.23569
399.05        71.87075
399.50        71.51741
399.95         71.5229
400.39        71.79585
400.84         71.8978
401.29        71.72892
401.74        71.22551
402.18        70.55321
402.63        70.27043
403.08        70.35381
403.53        70.18494
403.97        69.75146
404.42        69.49476
404.87        69.41303
405.32        69.33797
405.76        69.25557
406.21        69.13959
406.66        68.98304
407.11        68.98841
407.55        69.07729
408.00        68.73067
408.45        68.06009
408.90        67.68775
409.34        67.67616
409.79        67.73148
410.24        67.77014
410.68        67.78468
411.13        67.74384
411.58        67.65524
412.03        67.54214
412.47         67.4575
412.92        67.39423
413.37        67.35489
413.81        67.31886
414.26        67.30882
414.71        67.30434
415.15        67.31872
415.60        67.32417
416.05         67.3294
416.49          67.331
416.94        67.31519
417.39        67.26984
417.83        67.16698
418.28        67.01292
418.73        66.82529
419.17        66.62772
419.62        66.46833
420.07         66.3629
420.51        66.29234
420.96        66.29292
421.41        66.34743
421.85        66.41485
422.30        66.58236
422.74        66.76088
423.19        66.81713
423.64         66.7675
424.08        66.89982
424.53        67.13123
424.98         67.1961
425.42        67.08862
425.87        66.96097
426.31        66.87805
426.76        66.82341
427.21        66.82583
427.65        66.99332
428.10        67.22192
428.54         67.3116
428.99        67.27116
429.44        67.18517
429.88        67.07575
430.33        66.97684
430.77         66.8592
431.22        66.93769
431.66        67.12819
432.11        67.07999
432.56        66.88145
433.00        66.89547
433.45        66.91161
433.89        66.97817
434.34        67.22134
434.78        66.10316
435.23        65.96856
435.67        67.11342
436.12        67.00378
436.57        67.39342
437.01        67.37856
437.46        67.32434
437.90        67.92921
438.35        67.78322
438.79        67.91729
439.24        67.81751
439.68        67.74888
440.13         67.6796
440.57        67.62766
441.02        67.63519
441.46        67.70853
441.91        67.86398
442.35        68.00224
442.80        68.39289
443.24        68.85783
443.69        68.82699
444.13        68.37415
444.58        68.07718
445.02        68.03995
445.47        68.31034
445.91        68.73237
446.36        68.91956
446.80        68.81438
447.24        68.58823
447.69        68.36419
448.13         68.4411
448.58        68.60067
449.02         68.6343
449.47        68.48749
449.91        68.45042
450.36        68.54293
450.80        68.50916
451.25        68.39578
451.69        68.44652
452.13        68.61158
452.58        68.52866
453.02        68.23314
453.47        68.09127
453.91         68.1119
454.36        68.11957
454.80        68.05046
455.24        67.91835
455.69        67.74425
456.13        67.42131
456.58        67.07928
457.02        67.05927
457.46        67.23618
457.91        67.13932
458.35        66.90257
458.79        66.82783
459.24        66.96221
459.68        67.06834
460.13        67.11858
460.57         67.0199
461.01         66.7669
461.46        66.66756
461.90        66.12973
462.34        66.11431
462.79        65.86647
463.23        65.98262
463.68        66.15923
464.12        66.00598
464.56        65.61443
465.01        65.62062
465.45         65.8752
465.89        66.03814
466.34        66.09406
466.78        65.82288
467.22        65.23545
467.67        65.76832
468.11         65.1053
468.55        65.09409
468.99        65.00633
469.44        64.87892
469.88        64.69473
470.32        64.49481
470.77        64.34273
471.21        64.25557
471.65         64.2458
472.10          64.312
472.54        64.39327
472.98         64.4173
473.42        64.37107
473.87        64.27713
474.31        64.15678
474.75        64.17009
475.20         64.2935
475.64        64.37994
476.08        64.39628
476.52        64.36964
476.97        64.27526
477.41        64.27187
477.85        64.10416
478.29         63.8791
478.74        63.58933
479.18        63.42535
479.62        63.88284
480.06         64.0302
480.50        64.04199
480.95        64.00903
481.39        63.86278
481.83        64.30058
482.27        64.43136
482.72        63.95561
483.16        64.25544
483.60        64.38712
484.04        64.14095
484.48        63.91815
484.93         64.1514
485.37        63.99134
485.81        64.41577
486.25        63.33424
486.69        65.29532
487.14        65.34209
487.58        64.53654
488.02        64.12589
488.46        63.69725
488.90        63.53815
489.34         63.6118
489.79        63.36994
490.23        63.60682
490.67         63.5424
491.11        63.45256
491.55        63.42414
491.99        63.47943
492.43        63.51463
492.88        63.52088
493.32        63.60472
493.76        63.68973
494.20        63.70583
494.64        63.66003
495.08        63.27325
495.52        63.13766
495.96        63.09628
496.41        63.25374
496.85        63.38957
497.29        63.39124
497.73        63.43075
498.17         63.1958
498.61        63.17933
499.05        63.25932
499.49        63.14332
499.93        62.91975
500.37        62.93141
500.82        63.14819
501.26        63.42907
501.70        63.65872
502.14        63.33741
502.58        63.09449
503.02        62.78778
503.46        62.93267
503.90        63.01904
504.34        63.07426
504.78        63.03978
505.22        62.95499
505.66        62.89983
506.10        62.84576
506.54        62.91182
506.98        63.15559
507.42        62.45779
507.86        62.88436
508.30        62.83977
508.74          62.798
509.18         62.8117
509.62        62.83094
510.06        62.83594
510.50        62.78305
510.94        62.63285
511.38        62.43309
511.82        62.32859
512.26        62.33812
512.70        62.39017
513.14        62.45876
513.58        62.52182
514.02        62.56238
514.46        62.59074
514.90         62.5841
515.34        62.54097
515.78        62.46989
516.22        62.34901
516.66           62.07
517.10        62.28849
517.54        62.15946
517.98        62.32702
518.42        62.48522
518.86        62.56902
519.30         62.5521
519.74        62.42262
520.18        62.25311
520.62        62.23382
521.06        62.34084
521.50        62.32397
521.93        62.17487
522.37         62.0793
522.81        62.04457
523.25        61.96338
523.69        61.85395
524.13        61.79837
524.57        61.80385
525.01        61.84224
525.45        61.90207
525.89        61.96606
526.32        62.02045
526.76        62.07359
527.20        62.11164
527.64        62.11499
528.08        62.08359
528.52        62.02862
528.96        61.96943
529.40        61.92994
529.83        61.91534
530.27        61.94574
530.71        62.00058
531.15        62.04352
531.59        62.06482
532.03        62.07863
532.46        62.07503
532.90         62.0531
533.34        62.00987
533.78        61.94683
534.22        61.87712
534.66        61.82173
535.09        61.77818
535.53         61.7655
535.97        61.76009
536.41        61.74017
536.85        61.70225
537.28        61.65242
537.72        61.61264
538.16        61.61993
538.60        61.67579
539.04        61.76344
539.47        61.83475
539.91        61.86996
540.35        61.84539
540.79        61.78015
541.22          61.693
541.66        61.62933
542.10        61.59769
542.54        61.58191
542.97        61.57837
543.41        61.61215
543.85        61.67732
544.29         61.7841
544.72        61.88067
545.16        61.93988
545.60        61.94168
546.04        61.81883
546.47        61.66464
546.91        61.77244
547.35        62.07026
547.79        62.23265
548.22        62.18664
548.66        61.97911
549.10        61.71772
549.53        61.70122
549.97        61.90904
550.41        61.94325
550.84        61.76735
551.28        61.70371
551.72        61.78382
552.15        61.72454
552.59        61.50112
553.03        61.93721
553.46        61.66832
553.90        61.73706
554.34        61.71904
554.77        61.72416
555.21         61.8116
555.65        61.63934
556.08        61.88337
556.52        62.04367
556.96        62.23048
557.39        62.15262
557.83        61.87207
558.27        61.75032
558.70        61.79474
559.14        61.68133
559.57        61.44928
560.01        61.53841
560.45        61.85479
560.88        61.88918
561.32        61.71316
561.75        61.67244
562.19        61.80136
562.63        61.90561
563.06        61.91826
563.50        61.78082
563.93        61.53218
564.37        61.33733
564.80        61.24622
565.24        61.39657
565.68        61.69856
566.11        61.82621
566.55        61.78071
566.98        61.78415
567.42        61.85749
567.85        61.85725
568.29         61.8617
568.72        61.89055
569.16        61.94115
569.60         62.2767
570.03        62.20552
570.47        62.29556
570.90        62.29168
571.34         62.4743
571.77        62.70443
572.21        62.50406
572.64        62.37398
573.08        62.44657
573.51        62.45926
573.95         62.8595
574.38         62.6907
574.82        63.21917
