SpectraSmart Spectrum 2.9.0.0
--------- Device Information -----------
Spectrum Name :  反射率_0
Saving Time :  2024/04/21 00:39:08
Spectro-Module Model Name : SE2030-DUVN
Spectro-Module Serial Number : OS361AC55029948
Wavelength Start : 200
Wavelength End : 1025
Wavelength Unit : Wavelength(nm)
Spectrum Unit : Reflectance(%)
-----------Spectrum Setting ------------
Integration Time : 20ms
Average : 10
Boxcar : 0
Background removal :  enabled
linearity correction :  enabled
SC :  disabled
Intensity correction :  disabled
DWT denoise :  enabled
savitzky-golay :  disabled
FFT :  disabled
Running average :  disabled
Kalman :  disabled
High pass :  disabled
---------------BEGIN--------------------
Wavelength(nm)             Reflectance(%)
200.29               0
200.75         35.1862
201.21        83.65604
201.67          107.28
202.13        111.4018
202.58        102.8602
203.04        85.43283
203.50        60.91265
203.96        39.34019
204.42        28.12738
204.88        23.48108
205.34        23.54592
205.80        24.87364
206.26        26.05405
206.72        32.14019
207.18         36.5779
207.64        22.39506
208.10       -13.37019
208.55       -64.96367
209.01       -95.33964
209.47       -62.44085
209.93       -8.027067
210.39        36.95321
210.85        65.89022
211.31        78.42641
211.77        79.09974
212.23        69.78107
212.69        46.41145
213.14        6.592683
213.60       -54.56059
214.06       -206.7955
214.52       -501.5367
214.98       -179.5114
215.44       -15.77723
215.90        36.01921
216.36         52.1761
216.81        52.28761
217.27        38.09622
217.73       -33.71278
218.19        839.8198
218.65        385.0427
219.11       -795.6874
219.57       -15.98735
220.02        34.01593
220.48        42.82986
220.94        37.80505
221.40         17.7746
221.86       -30.29088
222.32       -60.57721
222.77       -16.46357
223.23         21.5311
223.69        40.05315
224.15        45.04924
224.61        42.68836
225.06        36.61928
225.52         28.6355
225.98        21.37053
226.44        16.27817
226.90         11.5589
227.36         9.94555
227.81        15.58923
228.27        24.65109
228.73        33.44983
229.19        38.71144
229.65        38.51074
230.10        33.51138
230.56        24.88451
231.02         13.7958
231.48        5.891172
231.93        5.537656
232.39        10.74862
232.85        17.25621
233.31        21.30612
233.77        22.96757
234.22         23.9407
234.68        24.13634
235.14        23.22225
235.60        21.57117
236.05        18.32413
236.51        14.42681
236.97        18.39851
237.43        31.04902
237.88        40.77242
238.34        43.49628
238.80        65.99018
239.26        58.43154
239.71        56.67294
240.17        48.25525
240.63         39.1753
241.08        33.99848
241.54        35.47384
242.00        44.30779
242.46        51.72983
242.91        55.91636
243.37        58.74615
243.83        61.59187
244.28        66.52185
244.74         72.8926
245.20        77.99043
245.66         79.3345
246.11        74.81049
246.57        64.66157
247.03        49.88828
247.48        32.57523
247.94        16.15812
248.40      -0.2918387
248.85       -27.23394
249.31       -84.50825
249.77       -72.99709
250.22        33.02943
250.68        60.37119
251.14         66.8015
251.59        70.22916
252.05        74.19843
252.51        79.14732
252.96        83.07235
253.42        80.20939
253.88        69.08099
254.33        55.43123
254.79        48.47651
255.25        51.51203
255.70        59.11169
256.16        66.92522
256.62         72.4022
257.07        74.31217
257.53        74.09166
257.99         72.6001
258.44        70.33499
258.90        68.47282
259.35        66.54534
259.81        64.84048
260.27        63.03216
260.72        60.94553
261.18        59.09047
261.63        57.32347
262.09        55.90764
262.55        54.62704
263.00        53.33801
263.46        52.19209
263.91        51.09354
264.37        50.36629
264.83        49.89352
265.28        49.53049
265.74        49.16276
266.19         48.4165
266.65        47.33496
267.11         45.9892
267.56        44.54433
268.02        43.35319
268.47        42.44353
268.93        41.74257
269.38        41.09582
269.84        40.32927
270.30        39.37814
270.75        38.31166
271.21        37.22119
271.66         36.1706
272.12        35.22759
272.57        34.35759
273.03        33.57209
273.48        32.84379
273.94        32.18893
274.39        31.58086
274.85        31.06609
275.31        30.63856
275.76         30.2726
276.22        29.98189
276.67        29.69144
277.13        29.38153
277.58         29.0042
278.04        28.59833
278.49        28.15311
278.95        27.74112
279.40        27.32835
279.86        26.93289
280.31        26.50158
280.77        26.04227
281.22        25.53377
281.68        25.05947
282.13         24.6001
282.59        24.20209
283.04        23.85217
283.50        23.55221
283.95        23.35734
284.41        23.37845
284.86        23.59818
285.32        23.98976
285.77        24.37097
286.22        24.49543
286.68        24.35573
287.13        23.99849
287.59        23.68018
288.04        23.68552
288.50        24.03764
288.95        24.73656
289.41        25.59912
289.86        25.87816
290.32        25.44615
290.77         26.2844
291.22        25.37766
291.68        25.49405
292.13        25.77574
292.59        26.26058
293.04        26.91929
293.50        27.77999
293.95        28.84442
294.40        30.08487
294.86        31.45922
295.31        32.87879
295.77        34.30733
296.22          35.734
296.68        37.16293
297.13        38.60474
297.58        40.08268
298.04        41.59196
298.49        43.15467
298.95        44.82799
299.40        46.59584
299.85        48.45143
300.31        50.32688
300.76        52.08865
301.21        53.72288
301.67        55.28401
302.12         56.8419
302.58        58.61588
303.03         60.6039
303.48        62.78625
303.94         65.0321
304.39        67.08167
304.84        68.89021
305.30        70.54674
305.75          72.143
306.20        73.93417
306.66        75.95594
307.11        78.05476
307.57         80.1127
308.02        81.87465
308.47         83.3205
308.93        84.58288
309.38        85.70593
309.83        86.82236
310.29        88.03386
310.74        89.23022
311.19        90.45071
311.65        91.72306
312.10        93.01306
312.55        94.31694
313.00        95.54063
313.46         96.5327
313.91        97.24887
314.36        97.74578
314.82         98.1362
315.27        98.59166
315.72        99.17607
316.18         99.8532
316.63        100.5645
317.08        101.2135
317.53        101.7633
317.99        102.2318
318.44        102.6612
318.89        103.1008
319.35        103.5551
319.80        104.0102
320.25        104.3982
320.70         104.623
321.16        104.6679
321.61        104.5931
322.06        104.5023
322.51         104.568
322.97        104.8172
323.42        105.2341
323.87        105.7133
324.32        106.0915
324.78        106.2986
325.23        106.4234
325.68         106.499
326.13        106.6134
326.59        106.7737
327.04        106.9997
327.49        107.2645
327.94        107.5652
328.39        107.8928
328.85        108.2224
329.30        108.5924
329.75        108.9237
330.20        109.2035
330.66        109.4067
331.11        109.6256
331.56        109.8796
332.01        110.1884
332.46        110.5441
332.92        110.8895
333.37        111.2725
333.82        111.6406
334.27        112.0021
334.72        112.3782
335.17        112.8042
335.63        113.2517
336.08        113.7623
336.53        114.2713
336.98         114.724
337.43        115.1052
337.88        115.4337
338.34        115.7076
338.79        115.9892
339.24        116.2704
339.69        116.5396
340.14        116.8212
340.59        117.1551
341.05        117.5489
341.50        118.0123
341.95         118.485
342.40        118.8694
342.85        119.1464
343.30        119.3362
343.75        119.5254
344.20        119.8612
344.66        120.3704
345.11        120.9757
345.56        121.5596
346.01        121.9374
346.46        122.0774
346.91        122.0334
347.36        121.8856
347.81         121.829
348.26        121.9181
348.72        121.8429
349.17        122.0507
349.62        122.1832
350.07        122.3645
350.52        122.5906
350.97        122.7645
351.42        122.7161
351.87        122.4124
352.32        121.8973
352.77        121.3299
353.22        120.9578
353.67        120.8281
354.13        120.8879
354.58        120.9306
355.03        120.6791
355.48         120.076
355.93        119.2153
356.38        118.3023
356.83        117.6448
357.28        117.2966
357.73        117.1492
358.18        116.9992
358.63        116.5245
359.08        115.6636
359.53        114.5523
359.98        113.3758
360.43        112.4065
360.88        111.7136
361.33        111.1954
361.78        110.7723
362.23        110.3227
362.68        109.7939
363.13        109.2293
363.58        108.5925
364.03        107.8195
364.48        106.9106
364.93         105.874
365.38        104.8102
365.83        103.8953
366.28        103.1687
366.73        102.5841
367.18        102.0413
367.63        101.3718
368.08        100.5375
368.53        99.60369
368.98         98.6334
369.43        97.71182
369.88        96.86249
370.33        96.04877
370.78        95.26996
371.23        94.54552
371.68        93.88304
372.13        93.28917
372.58        92.73861
373.03         92.1716
373.48        91.56503
373.93        90.92683
374.38        90.27283
374.83        89.64362
375.28        89.06086
375.72        88.50081
376.17        87.98611
376.62        87.47375
377.07        86.94194
377.52        86.38205
377.97        85.81097
378.42        85.27276
378.87        84.78739
379.32        84.35508
379.77        83.92246
380.22        83.39679
380.67        82.75513
381.11        82.02185
381.56         81.2758
382.01        80.67719
382.46         80.2745
382.91        80.02905
383.36        79.82424
383.81        79.47623
384.26        78.94301
384.71        78.27797
385.15         77.5863
385.60         77.0955
386.05        76.82274
386.50        76.70055
386.95        76.59903
387.40        76.32388
387.85        75.84801
388.29        75.20975
388.74        74.62629
389.19        74.19656
389.64        73.93774
390.09        73.78756
390.54        73.67712
390.98        73.48793
391.43        73.23174
391.88        72.93661
392.33        72.63698
392.78        72.38516
393.23        72.19242
393.67        71.97744
394.12        71.80334
394.57        71.65022
395.02        71.47608
395.47        71.15715
395.91        70.75456
396.36         70.4537
396.81        70.30095
397.26        70.23531
397.71        70.16064
398.15        69.96013
398.60        69.70197
399.05         69.2537
399.50        68.78935
399.95        68.80864
400.39        69.21581
400.84        69.31639
401.29        69.03418
401.74        68.70818
402.18         68.3987
402.63        68.05505
403.08        67.72062
403.53        67.40311
403.97         67.1359
404.42         67.0229
404.87        67.00847
405.32         66.9709
405.76        66.87261
406.21        66.69958
406.66        66.49152
407.11        66.42683
407.55        66.46576
408.00        66.32262
408.45        65.99409
408.90        65.55704
409.34        65.13122
409.79        65.00913
410.24        65.15102
410.68        65.21606
411.13        65.18151
411.58        65.26412
412.03         65.4323
412.47        65.51846
412.92        65.47202
413.37        65.35509
413.81        65.20077
414.26        65.11125
414.71        65.08924
415.15        65.11993
415.60        65.14781
416.05        65.13708
416.49        65.07662
416.94        64.97717
417.39        64.85666
417.83        64.73174
418.28        64.61067
418.73        64.47817
419.17        64.34211
419.62        64.22902
420.07        64.14622
420.51         64.0914
420.96        64.05727
421.41        63.99379
421.85          63.875
422.30        63.72212
422.74        63.57328
423.19        63.66386
423.64        63.95474
424.08        64.24436
424.53        64.40322
424.98        64.53885
425.42        64.64399
425.87        64.51851
426.31        64.28426
426.76        64.37646
427.21        64.74065
427.65        64.87775
428.10        64.73219
428.54        64.64649
428.99        64.65466
429.44        64.62152
429.88        64.51047
430.33        64.30918
430.77        64.06977
431.22        64.10826
431.66         64.3703
432.11        64.70507
432.56        65.03754
433.00        64.97594
433.45        64.42335
433.89        64.37252
434.34        64.94677
434.78        64.06483
435.23         64.1612
435.67        64.61623
436.12          65.342
436.57        65.36337
437.01        64.62153
437.46        64.38898
437.90        65.47224
438.35        64.77328
438.79        65.57906
439.24        65.51485
439.68        65.50912
440.13        65.46951
440.57        65.42125
441.02        65.39043
441.46        65.36272
441.91         65.3385
442.35        65.28556
442.80        65.62814
443.24        66.21993
443.69        66.32558
444.13        65.89758
444.58        66.00838
445.02        65.77993
445.47        65.81577
445.91        66.14767
446.36        66.22646
446.80        66.13461
447.24         65.9995
447.69        65.88756
448.13        65.97363
448.58        66.02461
449.02        65.88232
449.47        65.55597
449.91        65.41739
450.36        65.50907
450.80        65.55457
451.25        65.55122
451.69        65.65934
452.13        65.81322
452.58          65.693
453.02        65.36246
453.47        65.21501
453.91        65.27265
454.36        65.35144
454.80        65.37179
455.24        65.33092
455.69        65.23563
456.13        64.97269
456.58        64.66148
457.02        64.73708
457.46        64.80333
457.91         64.8449
458.35        64.80688
458.79        64.69353
459.24        64.54066
459.68        64.29472
460.13        64.06786
460.57        63.83443
461.01        63.60449
461.46        63.84015
461.90        63.75647
462.34        63.64645
462.79        63.70757
463.23        63.79421
463.68          63.932
464.12        63.58703
464.56        62.94353
465.01         62.9511
465.45        63.42089
465.89        63.51775
466.34        63.26574
466.78        63.14849
467.22        63.13622
467.67        63.27847
468.11        62.58512
468.55        62.52014
468.99         62.7338
469.44         62.7496
469.88        62.54503
470.32        62.40469
470.77        62.36002
471.21        62.29934
471.65         62.2245
472.10        62.16571
472.54        62.11192
472.98        62.06735
473.42        62.03299
473.87        62.01385
474.31        61.97149
474.75        61.95363
475.20        61.92707
475.64        61.84238
476.08        61.75202
476.52        61.66504
476.97        61.55507
477.41        61.86458
477.85        61.96111
478.29         61.6344
478.74        61.76233
479.18        61.46607
479.62        61.64904
480.06        61.64376
480.50         61.6302
480.95        61.76274
481.39         61.9683
481.83        61.84765
482.27        62.17157
482.72        61.86562
483.16        61.74219
483.60         61.9686
484.04        61.89628
484.48        61.59541
484.93        61.62029
485.37        61.27766
485.81        61.88015
486.25        61.49796
486.69        61.73573
487.14        61.56462
487.58        61.50259
488.02        61.47015
488.46        61.42732
488.90        61.18776
489.34        61.21437
489.79        60.88002
490.23        61.26654
490.67        61.37035
491.11        61.42415
491.55        61.30599
491.99        61.08407
492.43        60.99296
492.88        61.04865
493.32        61.13475
493.76         61.1633
494.20        61.20292
494.64        61.26925
495.08        60.92122
495.52        60.78462
495.96        60.94254
496.41        61.38923
496.85        61.30051
497.29        60.72682
497.73        60.56161
498.17        60.53829
498.61        60.78127
499.05        61.03061
499.49         60.8756
499.93        60.43325
500.37        60.25843
500.82        60.38935
501.26        60.71662
501.70        61.08856
502.14         60.7875
502.58        60.39457
503.02        60.17387
503.46        60.25959
503.90        60.28759
504.34        60.22068
504.78        60.23379
505.22        60.33471
505.66        60.41408
506.10        60.44965
506.54        60.58743
506.98        60.84934
507.42        60.49267
507.86        60.85834
508.30        60.70022
508.74        60.67448
509.18        60.53966
509.62        60.40778
510.06        60.33931
510.50        60.32035
510.94        60.28012
511.38        60.21391
511.82        60.18541
512.26        60.19075
512.70        60.18715
513.14        60.17463
513.58        60.17344
514.02        60.18172
514.46        60.19064
514.90        60.17802
515.34        60.14995
515.78        60.11105
516.22        60.03282
516.66        59.78556
517.10        60.00645
517.54        59.79821
517.98        59.86076
518.42        59.91237
518.86        59.95322
519.30        59.97293
519.74        59.94167
520.18        59.90145
520.62        59.99055
521.06        60.16962
521.50        60.20487
521.93        60.09473
522.37        60.02981
522.81        60.02164
523.25        59.96361
523.69        59.86417
524.13        59.79158
524.57        59.75422
525.01        59.73025
525.45        59.73684
525.89        59.79947
526.32        59.91092
526.76        60.06698
527.20        60.20942
527.64        60.24828
528.08        60.16787
528.52        59.99778
528.96         59.8078
529.40        59.70076
529.83        59.69906
530.27        59.80025
530.71        59.93182
531.15        59.97482
531.59        59.90402
532.03        59.76333
532.46        59.60575
532.90        59.52639
533.34        59.54366
533.78        59.62663
534.22        59.72562
534.66        59.76762
535.09        59.72612
535.53        59.64309
535.97        59.54697
536.41        59.49789
536.85        59.50847
537.28        59.55708
537.72        59.60835
538.16        59.60735
538.60        59.54464
539.04        59.45003
539.47        59.34095
539.91        59.29071
540.35        59.29683
540.79        59.33829
541.22        59.40662
541.66        59.50273
542.10        59.60876
542.54        59.71985
542.97        59.79622
543.41          59.806
543.85        59.74258
544.29        59.63562
544.72        59.50745
545.16        59.43755
545.60        59.42996
546.04        59.42118
546.47        59.43849
546.91        59.58356
547.35         59.7934
547.79        59.95744
548.22        59.99984
548.66        59.80012
549.10        59.47616
549.53        59.43957
549.97        59.67177
550.41        59.72881
550.84        59.58995
551.28        59.53429
551.72        59.56933
552.15        59.56862
552.59        59.53954
553.03        59.50233
553.46        59.47835
553.90        59.38894
554.34        59.23185
554.77        59.14827
555.21        58.97515
555.65        58.95985
556.08        59.07726
556.52        59.29172
556.96        59.52327
557.39        59.63522
557.83        59.61652
558.27        59.50288
558.70        59.35588
559.14        59.25073
559.57        59.19916
560.01        59.28974
560.45        59.43065
560.88        59.32259
561.32        59.08212
561.75        59.02036
562.19        59.16995
562.63        59.37675
563.06        59.52187
563.50        59.36445
563.93        58.98154
564.37        58.78717
564.80        58.82466
565.24        59.02144
565.68        59.28138
566.11        59.40942
566.55        59.38666
566.98        59.34024
567.42        59.31793
567.85         59.2092
568.29        59.10886
568.72        59.17131
569.16        59.38706
569.60         59.4619
570.03        59.43565
570.47        59.41325
570.90        59.41689
571.34        59.42903
571.77        59.48335
572.21        59.61971
572.64        59.50064
573.08        59.27771
573.51        59.52862
573.95        59.90952
574.38        59.76018
574.82        59.62772
