SpectraSmart Spectrum 2.9.0.0
--------- Device Information -----------
Spectrum Name :  反射率_0
Saving Time :  2024/04/20 23:56:46
Spectro-Module Model Name : SE2030-DUVN
Spectro-Module Serial Number : OS361AC55029948
Wavelength Start : 200
Wavelength End : 1025
Wavelength Unit : Wavelength(nm)
Spectrum Unit : Reflectance(%)
-----------Spectrum Setting ------------
Integration Time : 20ms
Average : 10
Boxcar : 0
Background removal :  enabled
linearity correction :  enabled
SC :  disabled
Intensity correction :  disabled
DWT denoise :  enabled
savitzky-golay :  disabled
FFT :  disabled
Running average :  disabled
Kalman :  disabled
High pass :  disabled
---------------BEGIN--------------------
Wavelength(nm)             Reflectance(%)
200.29               0
200.75       -44.87836
201.21         6.10371
201.67         33.7614
202.13        47.00357
202.58         53.2882
203.04        57.04241
203.50        57.73632
203.96        53.26144
204.42        43.68106
204.88        29.26194
205.34        15.52577
205.80        9.180963
206.26        11.65465
206.72        25.73293
207.18        42.85842
207.64        39.20993
208.10        6.665271
208.55        -45.6909
209.01       -83.36726
209.47       -63.56725
209.93        -20.0029
210.39        17.35603
210.85        42.15567
211.31        54.12294
211.77        57.30445
212.23        54.68284
212.69        43.49911
213.14        18.02493
213.60       -35.90926
214.06       -207.2834
214.52       -626.7402
214.98       -282.5205
215.44       -62.16779
215.90        13.04331
216.36        38.32254
216.81        41.32644
217.27        26.50649
217.73       -52.89976
218.19        915.2551
218.65        407.3619
219.11       -863.7921
219.57       -26.50616
220.02        26.73273
220.48        35.58033
220.94        29.18702
221.40        5.848583
221.86       -49.89743
222.32       -86.49149
222.77       -36.91028
223.23        6.524523
223.69        28.41128
224.15        35.71379
224.61        35.44168
225.06        31.77074
225.52        25.94037
225.98        19.36275
226.44        13.13598
226.90        5.708483
227.36        1.104367
227.81        6.297443
228.27         17.2543
228.73        28.56561
229.19        35.75619
229.65        36.45729
230.10        31.60288
230.56        22.63605
231.02        11.08539
231.48         3.48142
231.93        4.417983
232.39        11.29657
232.85         19.0931
233.31        23.60773
233.77        25.02932
234.22        25.20154
234.68        24.49001
235.14        23.43527
235.60        22.65413
236.05         21.0656
236.51        18.96074
236.97        23.14622
237.43        34.02931
237.88        41.08207
238.34        40.13722
238.80        61.42017
239.26        50.41328
239.71         47.0064
240.17        36.50499
240.63        24.95935
241.08        16.82404
241.54        15.90643
242.00          24.134
242.46        31.46406
242.91        35.72099
243.37        39.52823
243.83        43.08228
244.28        45.67037
244.74         46.2806
245.20        43.17353
245.66        37.81046
246.11        32.40196
246.57        26.92626
247.03        21.66983
247.48        14.51215
247.94        0.661832
248.40       -27.91826
248.85       -102.8316
249.31        -342.382
249.77       -554.3821
250.22         -193.14
250.68       -37.54649
251.14        14.39901
251.59        31.99436
252.05        37.05881
252.51        36.43898
252.96        30.23712
253.42        21.37307
253.88        14.71153
254.33        11.06666
254.79        14.21719
255.25        24.00291
255.70        35.14008
256.16        44.71626
256.62        51.21579
257.07        53.93336
257.53        54.40192
257.99        53.67924
258.44        52.27784
258.90        51.23537
259.35        50.19036
259.81        49.26911
260.27        48.32463
260.72        47.32586
261.18        46.54567
261.63         45.7812
262.09         45.0321
262.55        43.93863
263.00        42.47435
263.46        40.92878
263.91         39.4295
264.37        38.50513
264.83        38.09061
265.28        37.95073
265.74        37.88272
266.19        37.46989
266.65        36.69883
267.11        35.66162
267.56        34.48491
268.02        33.43793
268.47        32.55382
268.93         31.7945
269.38         31.0547
269.84         30.2315
270.30         29.2995
270.75        28.31524
271.21        27.41003
271.66        26.71299
272.12        26.26641
272.57        25.99739
273.03         25.7955
273.48        25.47598
273.94        25.01807
274.39        24.45233
274.85        23.89734
275.31        23.47322
275.76        23.19519
276.22        23.03488
276.67        22.90264
277.13        22.73706
277.58        22.48826
278.04        22.20177
278.49        21.87979
278.95         21.5849
279.40        21.29354
279.86        21.01707
280.31        20.70067
280.77        20.33647
281.22        19.90729
281.68        19.48464
282.13        19.07952
282.59         18.7688
283.04        18.54238
283.50        18.38301
283.95         18.2967
284.41        18.30903
284.86        18.40377
285.32        18.58821
285.77        18.75581
286.22        18.75927
286.68        18.60797
287.13        18.31545
287.59        18.08993
288.04        18.14741
288.50        18.48329
288.95        19.13955
289.41        19.93941
289.86        20.11959
290.32        19.54831
290.77        20.34776
291.22        19.26415
291.68        19.30215
292.13         19.5258
292.59        19.95599
293.04        20.52485
293.50        21.20031
293.95        21.97548
294.40        22.84693
294.86        23.79381
295.31        24.76367
295.77         25.7461
296.22        26.73731
296.68         27.7735
297.13        28.91402
297.58        30.18359
298.04        31.56293
298.49        33.03205
298.95        34.57518
299.40         36.1563
299.85        37.78083
300.31        39.40755
300.76        40.95535
301.21        42.42672
301.67        43.87181
302.12        45.34049
302.58         47.0029
303.03        48.86234
303.48        50.90543
303.94        53.06649
304.39        55.19523
304.84        57.24382
305.30        59.24709
305.75        61.18721
306.20        63.13911
306.66        65.11339
307.11        67.04272
307.57        68.90541
308.02        70.61095
308.47        72.17194
308.93        73.65697
309.38        75.09229
309.83        76.55266
310.29        78.13693
310.74        79.72607
311.19        81.28313
311.65        82.70024
312.10        83.93476
312.55         85.0228
313.00        86.01354
313.46        86.99155
313.91        87.96284
314.36        88.90633
314.82        89.79844
315.27        90.59824
315.72        91.30685
316.18        91.94945
316.63        92.54031
317.08        93.10175
317.53        93.63767
317.99        94.13086
318.44        94.58795
318.89        95.00668
319.35        95.38451
319.80        95.73827
320.25        96.04396
320.70        96.26606
321.16        96.39867
321.61         96.4713
322.06        96.54675
322.51        96.73272
322.97        97.03848
323.42        97.47043
323.87        97.93204
324.32        98.27542
324.78        98.44572
325.23        98.52002
325.68        98.57323
326.13         98.7611
326.59        99.09808
327.04        99.57944
327.49        100.1015
327.94         100.526
328.39        100.8085
328.85        100.9648
329.30        101.1019
329.75         101.271
330.20        101.5055
330.66         101.751
331.11         102.064
331.56        102.4102
332.01        102.7845
332.46         103.195
332.92        103.5904
333.37        104.0143
333.82        104.4172
334.27         104.803
334.72        105.1831
335.17        105.5828
335.63        105.9823
336.08        106.4332
336.53        106.9073
336.98        107.4052
337.43        107.9186
337.88        108.4357
338.34        108.9246
338.79        109.3895
339.24        109.7985
339.69        110.1581
340.14        110.4578
340.59        110.6891
341.05        110.8652
341.50        111.0049
341.95        111.1623
342.40         111.425
342.85        111.8143
343.30         112.312
343.75        112.8437
344.20        113.2924
344.66        113.6284
345.11        113.8462
345.56        114.0218
346.01        114.2768
346.46        114.6358
346.91         115.055
347.36        115.4015
347.81        115.5238
348.26        115.4132
348.72        114.9651
349.17        114.6792
349.62        114.6246
350.07        114.9493
350.52        115.5299
350.97        116.1398
351.42        116.4015
351.87        116.2117
352.32        115.6995
352.77        115.0276
353.22        114.4431
353.67        114.0282
354.13        113.7246
354.58        113.4658
355.03        113.2049
355.48        112.9128
355.93         112.608
356.38         112.287
356.83        111.9322
357.28        111.5224
357.73        111.0367
358.18        110.4433
358.63         109.708
359.08        108.8509
359.53        107.9237
359.98        106.9799
360.43         106.086
360.88        105.2719
361.33        104.5245
361.78        103.8828
362.23        103.4035
362.68        103.0708
363.13        102.8457
363.58        102.6042
364.03        102.1529
364.48        101.4449
364.93        100.5299
365.38         99.5066
365.83        98.55013
366.28          97.717
366.73        96.95617
367.18         96.2399
367.63        95.51934
368.08        94.77832
368.53        94.05685
368.98        93.32158
369.43        92.49891
369.88        91.57798
370.33        90.56511
370.78        89.55718
371.23        88.74384
371.68        88.17793
372.13        87.81005
372.58        87.51505
373.03        87.08012
373.48        86.44294
373.93        85.66012
374.38        84.82329
374.83        84.09542
375.28        83.53203
375.72        83.06883
376.17        82.66632
376.62        82.20007
377.07        81.62991
377.52        80.97851
377.97        80.30565
378.42        79.72332
378.87        79.26936
379.32        78.91716
379.77        78.57777
380.22        78.10973
380.67        77.48038
381.11        76.73277
381.56        75.96571
382.01        75.37036
382.46        75.00117
382.91        74.79895
383.36        74.64246
383.81        74.34273
384.26        73.85332
384.71        73.23733
385.15        72.57399
385.60        72.04603
386.05        71.67308
386.50        71.40379
386.95        71.17599
387.40        70.90222
387.85        70.56692
388.29        70.16518
388.74         69.8207
389.19        69.52277
389.64        69.26369
390.09        69.00771
390.54        68.74522
390.98        68.45746
391.43        68.18768
391.88        67.94592
392.33        67.70226
392.78        67.43711
393.23        67.15948
393.67        66.76199
394.12        66.40703
394.57        66.36269
395.02        66.54019
395.47        66.45168
395.91        66.09726
396.36        65.85719
396.81        65.75814
397.26        65.59218
397.71        65.32697
398.15        65.01936
398.60        64.75404
399.05        64.36929
399.50        63.99666
399.95        64.03104
400.39        64.37959
400.84        64.48423
401.29        64.27191
401.74         63.9478
402.18        63.58972
402.63        63.29768
403.08        63.08059
403.53        62.78298
403.97        62.42324
404.42        62.17442
404.87        62.05419
405.32        62.00655
405.76        62.01051
406.21          62.098
406.66        62.19437
407.11        62.16401
407.55        62.00501
408.00        61.76691
408.45        61.51453
408.90        61.25823
409.34        61.04846
409.79        61.00023
410.24        61.06107
410.68        61.06698
411.13        60.99729
411.58        60.92508
412.03        60.87849
412.47        60.89078
412.92        60.94662
413.37        61.03928
413.81         61.1202
414.26        61.17302
414.71        61.17219
415.15        61.13567
415.60        61.06189
416.05        61.00378
416.49        60.97686
416.94        60.96129
417.39        60.93155
417.83        60.83963
418.28        60.68188
418.73        60.47454
419.17        60.26093
419.62         60.1208
420.07        60.07556
420.51        60.09995
420.96         60.1707
421.41        60.21355
421.85        60.19038
422.30        60.13595
422.74        60.07066
423.19        60.17819
423.64        60.42781
424.08        60.67082
424.53        60.80376
424.98        60.91489
425.42        60.99786
425.87        60.91537
426.31        60.75892
426.76        60.79727
427.21         61.0237
427.65        61.21669
428.10        61.26838
428.54        61.27016
428.99         61.2557
429.44        61.06405
429.88         60.7688
430.33        60.84347
430.77        61.13597
431.22        61.12928
431.66        60.86758
432.11        61.00187
432.56        61.55611
433.00        61.68691
433.45        61.17896
433.89         61.2135
434.34        61.94155
434.78        60.56108
435.23        60.67728
435.67        61.33969
436.12        61.31639
436.57         61.6609
437.01        61.75794
437.46         61.7425
437.90        62.20978
438.35        62.51365
438.79        62.38361
439.24        62.63459
439.68        62.45854
440.13        62.44283
440.57        62.38985
441.02        62.32919
441.46         62.2976
441.91        62.40362
442.35        62.55756
442.80        62.89206
443.24        63.25666
443.69        63.25249
444.13        62.91993
444.58        62.66298
445.02        62.56966
445.47        62.73651
445.91        63.06166
446.36        63.23687
446.80        63.21666
447.24        63.13831
447.69        63.06124
448.13        63.17641
448.58         63.2686
449.02        63.17841
449.47        62.90609
449.91        62.79803
450.36        62.89394
450.80        62.92744
451.25        62.92489
451.69         63.0835
452.13        63.34289
452.58        63.38037
453.02        63.19551
453.47        63.07478
453.91        63.02001
454.36        62.88061
454.80        62.66551
455.24        62.47685
455.69        62.35077
456.13        62.22575
456.58         62.1358
457.02          62.098
457.46        62.11308
457.91        62.00858
458.35        61.92154
458.79        61.89727
459.24        62.02517
459.68        62.10216
460.13        62.06459
460.57        62.12843
461.01        62.37011
461.46        61.40014
461.90        61.57405
462.34         61.5498
462.79         61.2831
463.23        61.45988
463.68        61.75353
464.12        61.61504
464.56        61.13052
465.01        61.27742
465.45        61.82494
465.89        61.78772
466.34        61.25256
466.78        60.91262
467.22        60.86951
467.67        60.87591
468.11        60.86173
468.55        60.84928
468.99        60.79541
469.44        60.75057
469.88        60.70483
470.32        60.56564
470.77        60.38208
471.21        60.29549
471.65        60.32413
472.10        60.42445
472.54        60.52037
472.98        60.52885
473.42        60.43604
473.87         60.2537
474.31        60.02221
474.75        59.97788
475.20        60.08044
475.64        60.05054
476.08        59.91208
476.52        59.84854
476.97        59.83284
477.41        59.94093
477.85        60.14712
478.29        59.71632
478.74        59.65531
479.18         59.6416
479.62        59.88128
480.06         59.9978
480.50        59.96247
480.95        60.04435
481.39        60.20419
481.83        60.12899
482.27        60.32717
482.72        60.05046
483.16        60.25644
483.60        59.97623
484.04        60.29611
484.48        60.01838
484.93        60.18494
485.37        59.67155
485.81        60.08472
486.25         59.8008
486.69         60.5458
487.14        60.02958
487.58        59.98675
488.02         59.7695
488.46        59.97346
488.90        59.84108
489.34        60.21759
489.79        59.81861
490.23        59.85822
490.67         59.7304
491.11         59.7412
491.55        59.73574
491.99        59.70432
492.43        59.68727
492.88        59.67071
493.32        59.66592
493.76        59.63025
494.20        59.62786
494.64        59.68716
495.08        59.38307
495.52        59.31304
495.96        59.42682
496.41         59.7495
496.85        59.55522
497.29        58.92997
497.73        58.85934
498.17        59.02142
498.61        59.15829
499.05        59.09645
499.49        58.98584
499.93        58.89824
500.37        58.90857
500.82        59.00758
501.26        59.24463
501.70        59.52045
502.14        59.23105
502.58        58.93731
503.02        58.74249
503.46        58.77464
503.90        58.79908
504.34        58.76912
504.78        58.76957
505.22        58.81009
505.66        58.79417
506.10        58.71197
506.54        58.78651
506.98        59.06542
507.42        58.50307
507.86        59.03576
508.30        58.77584
508.74        58.86671
509.18        58.78708
509.62        58.73366
510.06        58.72897
510.50        58.74557
510.94        58.72298
511.38        58.64498
511.82        58.56856
512.26        58.49433
512.70        58.38468
513.14         58.2718
513.58        58.22651
514.02        58.25787
514.46        58.34516
514.90        58.42726
515.34        58.44695
515.78         58.3928
516.22        58.24782
516.66         57.9198
517.10        58.12312
517.54        57.93481
517.98        58.06872
518.42        58.20097
518.86        58.28531
519.30        58.29778
519.74        58.22483
520.18        58.13462
520.62        58.20047
521.06        58.39393
521.50        58.47618
521.93        58.41838
522.37        58.36369
522.81        58.31415
523.25        58.17938
523.69        58.00126
524.13        57.89622
524.57        57.88325
525.01        57.92798
525.45        58.00879
525.89        58.08981
526.32        58.15191
526.76        58.20971
527.20        58.25427
527.64        58.27303
528.08        58.26543
528.52        58.23515
528.96        58.19615
529.40        58.16632
529.83        58.14993
530.27        58.17057
530.71         58.2069
531.15        58.22157
531.59          58.207
532.03        58.17614
532.46        58.13614
532.90        58.11138
533.34        58.10189
533.78        58.10293
534.22        58.09687
534.66        58.05629
535.09        57.97299
535.53        57.88118
535.97        57.79662
536.41        57.75945
536.85        57.77729
537.28        57.83144
537.72         57.9081
538.16        57.98603
538.60        58.04974
539.04        58.10377
539.47         58.1152
539.91        58.08374
540.35        57.99781
540.79        57.86985
541.22        57.73421
541.66        57.66105
542.10        57.66193
542.54        57.71661
542.97        57.79332
543.41        57.86826
543.85        57.92577
544.29        57.98779
544.72        58.03252
545.16        58.07871
545.60        58.11416
546.04         58.0573
546.47        57.97101
546.91        58.08615
547.35        58.32594
547.79        58.41854
548.22        58.30311
548.66        58.00601
549.10        57.64827
549.53        57.55605
549.97        57.71199
550.41        57.72821
550.84        57.60054
551.28        57.55627
551.72        57.59283
552.15        57.68701
552.59         57.8661
553.03        57.67831
553.46        57.93112
553.90        57.91651
554.34        57.85579
554.77        57.80643
555.21        57.84246
555.65         57.6389
556.08        57.83429
556.52        57.93472
556.96        58.06037
557.39        58.05439
557.83        57.93805
558.27        57.81576
558.70        57.71717
559.14        57.63641
559.57        57.57878
560.01        57.61345
560.45        57.67909
560.88        57.66047
561.32        57.59324
561.75        57.43641
562.19        57.29488
562.63        57.38949
563.06        57.64573
563.50        57.69819
563.93          57.534
564.37        57.43007
564.80        57.41365
565.24        57.51278
565.68        57.68551
566.11        57.76154
566.55        57.74172
566.98        57.76952
567.42        57.85137
567.85        57.76852
568.29        57.61035
568.72        57.62645
569.16        57.84055
569.60         57.8716
570.03        57.98477
570.47        58.03769
570.90        58.05957
571.34        58.22939
571.77        58.30781
572.21        58.17855
572.64        58.05598
573.08        57.80225
573.51        58.05788
573.95        58.18249
574.38        57.93085
574.82        58.29739
