SpectraSmart Spectrum 2.9.0.0
--------- Device Information -----------
Spectrum Name :  反射率_0
Saving Time :  2024/04/21 00:57:58
Spectro-Module Model Name : SE2030-DUVN
Spectro-Module Serial Number : OS361AC55029948
Wavelength Start : 200
Wavelength End : 1025
Wavelength Unit : Wavelength(nm)
Spectrum Unit : Reflectance(%)
-----------Spectrum Setting ------------
Integration Time : 20ms
Average : 10
Boxcar : 0
Background removal :  enabled
linearity correction :  enabled
SC :  disabled
Intensity correction :  disabled
DWT denoise :  enabled
savitzky-golay :  disabled
FFT :  disabled
Running average :  disabled
Kalman :  disabled
High pass :  disabled
---------------BEGIN--------------------
Wavelength(nm)             Reflectance(%)
200.29               0
200.75       -68.08244
201.21       -24.34399
201.67         1.97619
202.13        15.04635
202.58        21.18854
203.04        25.02483
203.50        27.42031
203.96        28.32071
204.42        27.10072
204.88        22.37424
205.34        15.53084
205.80        7.947312
206.26      -0.5326356
206.72       -7.598668
207.18        -17.1689
207.64       -38.30687
208.10       -69.36305
208.55       -105.5344
209.01       -116.6344
209.47       -74.93743
209.93        -21.3363
210.39        20.14835
210.85        45.92908
211.31        56.86281
211.77        57.23283
212.23        48.44767
212.69        26.32923
213.14        -12.7359
213.60       -76.00098
214.06       -242.3381
214.52       -581.5797
214.98       -231.4517
215.44       -44.93334
215.90        15.34352
216.36        33.95774
216.81        32.83171
217.27        12.83004
217.73       -85.14911
218.19        1088.742
218.65        462.9543
219.11       -988.1788
219.57       -35.56656
220.02        24.79465
220.48        35.31075
220.94        29.18626
221.40        4.919841
221.86       -53.90805
222.32       -93.25018
222.77       -41.70602
223.23        3.780907
223.69        26.58952
224.15        33.75686
224.61        32.65437
225.06        27.83086
225.52        20.64602
225.98        12.78032
226.44        5.548223
226.90        -2.82799
227.36       -7.661181
227.81       -1.006814
228.27        12.19185
228.73        25.58606
229.19         34.1015
229.65        35.20522
230.10        30.02812
230.56        20.08589
231.02        7.107497
231.48       -1.435666
231.93      -0.3533952
232.39        7.368792
232.85        16.05235
233.31        20.94623
233.77        22.25778
234.22        22.03806
234.68        20.84351
235.14        19.56546
235.60        18.95809
236.05        17.77963
236.51        16.17253
236.97        20.81864
237.43        32.01173
237.88        39.08097
238.34        37.75246
238.80         59.6637
239.26        47.99278
239.71        44.21869
240.17        33.22239
240.63        22.13781
241.08        16.25962
241.54        19.93945
242.00        32.66666
242.46        40.90758
242.91        41.10865
243.37        34.27726
243.83        23.12091
244.28        18.99332
244.74        27.48237
245.20        41.28755
245.66        52.61815
246.11        54.32121
246.57        45.86399
247.03        30.07559
247.48        8.975092
247.94       -14.94615
248.40       -46.06395
248.85       -112.7892
249.31       -305.4873
249.77       -444.8372
250.22       -146.0312
250.68       -24.87827
251.14        14.62787
251.59        28.57333
252.05         33.7758
252.51         34.9032
252.96        31.58807
253.42        24.92192
253.88         18.0352
254.33        13.09331
254.79        14.15604
255.25        21.36044
255.70        30.29869
256.16        38.15199
256.62         43.9342
257.07        47.24625
257.53        49.05588
257.99         49.9866
258.44        49.89548
258.90        49.21649
259.35        47.79879
259.81        46.14513
260.27        44.62779
260.72        43.72869
261.18        43.57068
261.63        43.65411
262.09        43.61095
262.55          42.766
263.00        41.16199
263.46        39.27511
263.91        37.48575
264.37        36.63136
264.83        36.64317
265.28        37.10864
265.74        37.62787
266.19         37.5464
266.65        36.81567
267.11         35.6279
267.56        34.18917
268.02        32.88428
268.47        31.79125
268.93        30.83583
269.38        29.92793
269.84        28.98711
270.30        27.99495
270.75        27.03063
271.21        26.18242
271.66        25.50129
272.12        25.01656
272.57        24.66455
273.03        24.41077
273.48        24.19381
273.94        23.98854
274.39        23.76277
274.85        23.50746
275.31        23.15539
275.76        22.70452
276.22        22.22223
276.67        21.73128
277.13        21.32458
277.58        20.99547
278.04        20.72822
278.49        20.51541
278.95        20.40345
279.40        20.33902
279.86        20.32568
280.31        20.23503
280.77        19.94528
281.22        19.43382
281.68        18.81907
282.13        18.19608
282.59        17.76647
283.04        17.54952
283.50        17.48396
283.95        17.54284
284.41        17.69875
284.86        17.91073
285.32        18.19786
285.77        18.43791
286.22         18.4584
286.68        18.26963
287.13        17.89254
287.59        17.56237
288.04        17.54123
288.50        17.83819
288.95        18.48946
289.41        19.30651
289.86        19.50247
290.32        18.93879
290.77        19.76021
291.22          18.694
291.68        18.77288
292.13        19.05587
292.59        19.56174
293.04        20.21024
293.50        20.95274
293.95        21.77662
294.40          22.675
294.86        23.64711
295.31         24.6743
295.77        25.74623
296.22        26.84584
296.68        27.96395
297.13        29.09023
297.58        30.24321
298.04        31.43553
298.49        32.70841
298.95        34.14009
299.40        35.72273
299.85        37.43657
300.31        39.19869
300.76        40.86522
301.21        42.41024
301.67        43.88449
302.12        45.35911
302.58        47.03732
303.03        48.92506
303.48         51.0036
303.94        53.15018
304.39        55.12893
304.84        56.89946
305.30        58.54456
305.75        60.16534
306.20        62.01072
306.66        64.11106
307.11        66.32495
307.57        68.51311
308.02        70.41157
308.47        71.98484
308.93        73.35252
309.38        74.58484
309.83          75.828
310.29        77.21272
310.74        78.59576
311.19        79.95267
311.65        81.19519
312.10         82.2886
312.55         83.2841
313.00        84.20947
313.46        85.10587
313.91        85.97019
314.36        86.78194
314.82        87.56022
315.27        88.33551
315.72          89.111
316.18        89.88361
316.63        90.58292
317.08        91.09554
317.53        91.40627
317.99        91.55477
318.44        91.64761
318.89        91.84341
319.35        92.18262
319.80        92.62406
320.25          93.096
320.70        93.48244
321.16        93.73533
321.61        93.90512
322.06        94.01331
322.51        94.10074
322.97        94.17578
323.42        94.25943
323.87        94.34212
324.32        94.43213
324.78        94.51511
325.23        94.62402
325.68        94.76284
326.13        94.95774
326.59        95.18474
327.04        95.48544
327.49        95.77276
327.94        95.93721
328.39        95.95557
328.85        95.82215
329.30        95.70049
329.75         95.7486
330.20        96.01284
330.66        96.42018
331.11        96.89613
331.56        97.18482
332.01        97.22939
332.46        97.09826
332.92        96.89838
333.37         96.9435
333.82        97.26864
334.27        97.80028
334.72        98.42001
335.17        98.93134
335.63         99.2408
336.08         99.4578
336.53        99.62711
336.98        99.86678
337.43        100.2117
337.88        100.6143
338.34        101.0049
338.79        101.3286
339.24        101.5453
339.69        101.6915
340.14        101.8099
340.59        101.9642
341.05        102.1773
341.50        102.4354
341.95        102.7216
342.40        103.0133
342.85        103.3006
343.30        103.5928
343.75        103.8759
344.20        104.1322
344.66        104.3603
345.11         104.531
345.56        104.6742
346.01        104.8361
346.46         105.026
346.91        105.2415
347.36        105.4059
347.81        105.4184
348.26        105.2768
348.72        104.9691
349.17        104.7281
349.62        104.7155
350.07        104.9991
350.52        105.4962
350.97        106.0063
351.42        106.2008
351.87        105.9936
352.32        105.4808
352.77        104.8465
353.22        104.3749
353.67        104.1384
354.13        104.0687
354.58        104.0052
355.03        103.7455
355.48        103.2466
355.93        102.5925
356.38        101.9232
356.83        101.4379
357.28        101.1695
357.73        101.0369
358.18         100.905
358.63        100.5656
359.08        99.97241
359.53        99.20609
359.98        98.37278
360.43        97.62879
360.88        97.01633
361.33         96.4791
361.78        95.97841
362.23        95.45776
362.68        94.89397
363.13        94.31367
363.58        93.70199
364.03        93.02592
364.48        92.28883
364.93        91.50282
365.38        90.71414
365.83        90.00543
366.28        89.39429
366.73        88.84762
367.18        88.33929
367.63        87.82529
368.08        87.28394
368.53         86.7327
368.98        86.13015
369.43         85.4034
369.88        84.54495
370.33        83.57148
370.78         82.5844
371.23        81.77554
371.68        81.20856
372.13        80.84518
372.58         80.5834
373.03        80.24179
373.48        79.76392
373.93        79.19498
374.38         78.6009
374.83        78.10065
375.28        77.72477
375.72        77.40582
376.17        77.10691
376.62        76.72255
377.07        76.21851
377.52        75.61775
377.97        74.95885
378.42        74.32071
378.87        73.74813
379.32        73.23913
379.77        72.76566
380.22        72.26885
380.67         71.7284
381.11        71.16272
381.56         70.6143
382.01        70.17085
382.46        69.85881
382.91        69.65311
383.36        69.47392
383.81        69.20013
384.26        68.80051
384.71        68.30097
385.15        67.77107
385.60        67.38123
386.05        67.13629
386.50        66.98952
386.95        66.83331
387.40        66.50729
387.85        65.99923
388.29        65.34786
388.74        64.75455
389.19        64.31982
389.64        64.06067
390.09        63.92118
390.54        63.83466
390.98        63.68502
391.43        63.47691
391.88        63.23499
392.33        62.99169
392.78        62.79737
393.23        62.65987
393.67        62.50492
394.12        62.38065
394.57        62.25692
395.02        62.09981
395.47        61.81927
395.91        61.47081
396.36        61.20836
396.81        61.07566
397.26        61.02705
397.71        60.98987
398.15        60.86358
398.60        60.69442
399.05        60.38825
399.50        60.07702
399.95        60.06129
400.39        60.27999
400.84        60.42282
401.29        60.37182
401.74        59.90662
402.18        59.18879
402.63        58.89838
403.08        59.02071
403.53        58.88074
403.97        58.46457
404.42        58.23991
404.87        58.20787
405.32        58.14987
405.76        58.03833
406.21        57.97344
406.66        57.94366
407.11        57.81058
407.55        57.61359
408.00        57.64581
408.45        57.84843
408.90        57.59748
409.34        57.01785
409.79        56.97263
410.24         57.3693
410.68        57.44482
411.13         57.1697
411.58        56.94878
412.03        56.86367
412.47         56.8813
412.92        56.99724
413.37        57.21804
413.81        57.43341
414.26        57.52935
414.71        57.46531
415.15        57.28585
415.60        57.04011
416.05        56.87367
416.49         56.8334
416.94        56.86665
417.39        56.92821
417.83        56.94324
418.28        56.88909
418.73        56.78659
419.17        56.65615
419.62        56.53901
420.07        56.45526
420.51        56.39484
420.96        56.35843
421.41        56.33261
421.85        56.29512
422.30        56.21429
422.74        56.12573
423.19        56.32345
423.64        56.73574
424.08        56.99679
424.53        56.99633
424.98        57.04509
425.42         57.1631
425.87        56.99251
426.31        56.67823
426.76        56.87127
427.21        57.45818
427.65        57.59605
428.10        57.27002
428.54        57.14677
428.99        57.26775
429.44        57.38053
429.88        57.38173
430.33        57.11948
430.77        56.71064
431.22        56.67939
431.66        57.01413
432.11        57.47157
432.56        57.87506
433.00         57.9519
433.45        57.55976
433.89        57.13762
434.34        56.98362
434.78        57.08277
435.23        56.94861
435.67        58.72234
436.12        57.95201
436.57        58.00421
437.01        57.78811
437.46        57.50592
437.90         57.7902
438.35        58.06867
438.79        58.12514
439.24        58.15242
439.68         58.0584
440.13        57.77135
440.57        57.43065
441.02        57.60231
441.46        58.18595
441.91         58.3879
442.35         58.2012
442.80        58.54469
443.24         59.2404
443.69        59.31691
444.13        58.80314
444.58        58.45296
445.02        58.35944
445.47        58.46595
445.91        58.67799
446.36        58.76068
446.80        58.67755
447.24        58.55095
447.69        58.46075
448.13        58.61359
448.58        58.80649
449.02        58.87605
449.47        58.76568
449.91        58.70699
450.36         58.7214
450.80        58.59286
451.25        58.40087
451.69        58.41419
452.13        58.60294
452.58        58.64467
453.02        58.52368
453.47        58.47775
453.91        58.49903
454.36        58.45993
454.80        58.34636
455.24        58.24483
455.69        58.18503
456.13        58.04219
456.58        57.87447
457.02        57.99546
457.46        58.04718
457.91         58.0554
458.35        57.97224
458.79         57.9144
459.24          57.956
459.68         57.7561
460.13        57.31135
460.57        57.81995
461.01        57.32846
461.46        57.33292
461.90        57.35207
462.34        57.41969
462.79        57.41545
463.23        57.60133
463.68        57.84887
464.12          57.611
464.56        57.03794
465.01        57.07102
465.45        57.49797
465.89        57.48759
466.34        57.13604
466.78         56.8869
467.22         56.7261
467.67        57.39965
468.11        56.84881
468.55        56.94348
468.99        57.03164
469.44        57.02166
469.88        56.89408
470.32        56.69897
470.77        56.52206
471.21        56.44651
471.65        56.49318
472.10        56.62578
472.54         56.7677
472.98        56.82087
473.42        56.77886
473.87        56.66721
474.31        56.47898
474.75         56.4009
475.20        56.47446
475.64        56.12154
476.08        56.37112
476.52         56.3714
476.97        56.38238
477.41        56.65285
477.85        57.11534
478.29        56.59123
478.74        56.58329
479.18        56.28283
479.62        56.60986
480.06        56.66828
480.50        56.63965
480.95        56.64228
481.39        56.56875
481.83        57.06277
482.27        56.97535
482.72        56.79311
483.16        56.78268
483.60        57.04398
484.04        56.97048
484.48        56.80154
484.93        57.01957
485.37        56.51025
485.81        56.87438
486.25        56.82212
486.69        57.41802
487.14        57.66082
487.58        57.50563
488.02        57.02654
488.46        56.83512
488.90        56.80296
489.34        57.34726
489.79         57.0349
490.23        57.20087
490.67        57.03571
491.11        56.98655
491.55        57.03657
491.99        57.17109
492.43        57.23359
492.88        57.20017
493.32         57.2109
493.76        57.23059
494.20        57.25323
494.64        57.30698
495.08        57.02515
495.52        57.02236
495.96        57.08298
496.41         57.2863
496.85        57.17003
497.29        56.79436
497.73        56.84254
498.17        57.00637
498.61        57.28207
499.05        57.44433
499.49        57.31982
499.93        57.02675
500.37         56.9388
500.82        57.07269
501.26        57.37588
501.70        57.70824
502.14        57.37853
502.58        56.97224
503.02        56.79496
503.46        56.97789
503.90        57.15809
504.34         57.2436
504.78        57.30874
505.22        57.34864
505.66        57.26818
506.10        57.07793
506.54        57.07339
506.98        57.32576
507.42        56.73623
507.86        57.14136
508.30        57.11979
508.74        57.08987
509.18        57.09972
509.62        57.11644
510.06        57.14144
510.50        57.13597
510.94        57.05158
511.38         56.9131
511.82        56.83103
512.26        56.82901
512.70        56.81855
513.14         56.7714
513.58        56.78387
514.02         56.8766
514.46        56.55304
514.90        56.68011
515.34        56.60489
515.78        56.59903
516.22        56.58621
516.66        56.42545
517.10        56.74791
517.54        56.56617
517.98        56.65159
518.42        56.71339
518.86        56.77436
519.30        56.82861
519.74        56.84262
520.18        56.83916
520.62        56.92114
521.06        57.04879
521.50          57.011
521.93        56.83491
522.37        56.74661
522.81        56.76347
523.25        56.76456
523.69        56.72757
524.13        56.66951
524.57        56.58762
525.01        56.48311
525.45        56.38331
525.89        56.32915
526.32        56.32826
526.76        56.37439
527.20        56.44013
527.64        56.48412
528.08        56.49232
528.52        56.47396
528.96        56.44803
529.40        56.43782
529.83        56.44629
530.27        56.49218
530.71        56.53456
531.15        56.50843
531.59        56.40711
532.03         56.2578
532.46        56.10858
532.90        56.04659
533.34        56.08398
533.78        56.19347
534.22        56.31767
534.66        56.36803
535.09        56.31723
535.53         56.2132
535.97          56.091
536.41         56.0206
536.85         56.0222
537.28        56.07417
537.72         56.1501
538.16        56.20987
538.60        56.23774
539.04        56.24453
539.47        56.23222
539.91        56.25046
540.35        56.28802
540.79        56.33352
541.22        56.36067
541.66        56.34185
542.10        56.27156
542.54        56.16943
542.97        56.05861
543.41        56.00164
543.85        56.00731
544.29        56.06803
544.72        56.15907
545.16        56.27475
545.60        56.39113
546.04        56.49006
546.47        56.58154
546.91         56.7048
547.35        56.83535
547.79         56.9339
548.22        56.95131
548.66        56.83645
549.10        56.64149
549.53        56.52859
549.97        56.51904
550.41        56.48205
550.84        56.42648
551.28        56.43147
551.72        56.48359
552.15        56.56506
552.59        56.68847
553.03        56.62267
553.46        56.76577
553.90         56.7628
554.34        56.72484
554.77        56.67171
555.21        56.66338
555.65        56.62284
556.08        56.79599
556.52        56.96305
556.96        57.13151
557.39        57.25771
557.83        57.30882
558.27        57.17147
558.70        56.92814
559.14        56.81927
559.57        56.86243
560.01        57.04037
560.45        57.23643
560.88        57.18051
561.32        56.96135
561.75        56.82818
562.19        56.85254
562.63        56.98233
563.06        57.12909
563.50        57.05477
563.93        56.78911
564.37        56.64756
564.80        56.65483
565.24        56.76833
565.68         56.9425
566.11        57.04874
566.55        57.08297
566.98        57.17208
567.42        57.28089
567.85        57.19324
568.29        57.04103
568.72        56.99917
569.16        57.04305
569.60        57.58311
570.03        57.31384
570.47        57.44484
570.90        57.55825
571.34        57.71022
571.77        57.71914
572.21          57.765
572.64        57.71254
573.08        57.40763
573.51        57.83348
573.95        57.95706
574.38        57.47771
574.82        58.43236
