SpectraSmart Spectrum 2.9.0.0
--------- Device Information -----------
Spectrum Name :  反射率_0
Saving Time :  2024/04/21 00:06:44
Spectro-Module Model Name : SE2030-DUVN
Spectro-Module Serial Number : OS361AC55029948
Wavelength Start : 200
Wavelength End : 1025
Wavelength Unit : Wavelength(nm)
Spectrum Unit : Reflectance(%)
-----------Spectrum Setting ------------
Integration Time : 20ms
Average : 10
Boxcar : 0
Background removal :  enabled
linearity correction :  enabled
SC :  disabled
Intensity correction :  disabled
DWT denoise :  enabled
savitzky-golay :  disabled
FFT :  disabled
Running average :  disabled
Kalman :  disabled
High pass :  disabled
---------------BEGIN--------------------
Wavelength(nm)             Reflectance(%)
200.29               0
200.75       -6.698576
201.21        28.11858
201.67        45.42684
202.13        48.33677
202.58         41.7304
203.04        28.36247
203.50        11.14937
203.96       0.2886033
204.42        1.113964
204.88        9.232721
205.34        19.62204
205.80        25.48476
206.26        25.05378
206.72        21.62693
207.18        13.56334
207.64       -1.745597
208.10       -21.34098
208.55       -43.97756
209.01        -50.4737
209.47       -22.62847
209.93        12.68114
210.39        40.15424
210.85        57.19577
211.31        64.09997
211.77        63.52359
212.23        55.86732
212.69        37.69223
213.14        6.308136
213.60       -44.11684
214.06       -172.7323
214.52       -438.5088
214.98       -180.5851
215.44       -37.84395
215.90        9.580847
216.36        24.31331
216.81        22.85103
217.27         5.18102
217.73       -80.75619
218.19        949.3779
218.65        401.6119
219.11       -884.4844
219.57       -39.16262
220.02        14.67078
220.48        23.91576
220.94        18.44553
221.40        -2.97209
221.86       -53.24162
222.32       -80.68323
222.77       -29.80321
223.23        11.34872
223.69        31.31301
224.15        37.58636
224.61        36.78176
225.06        32.68165
225.52        26.39216
225.98        19.21104
226.44        12.31426
226.90        4.330344
227.36      -0.2580544
227.81         6.04923
228.27        18.61306
228.73        31.28465
229.19        39.49384
229.65        41.12267
230.10        37.31222
230.56         29.6147
231.02        19.28177
231.48        11.90668
231.93        11.72604
232.39        16.75657
232.85        22.92558
233.31        26.69884
233.77        28.16423
234.22        28.94019
234.68        29.09139
235.14        28.56436
235.60        27.72731
236.05        25.69092
236.51        23.02423
236.97        26.80491
237.43        37.64168
237.88        45.40466
238.34        46.18774
238.80        66.31416
239.26        57.39991
239.71        54.40261
240.17        45.08617
240.63        36.60903
241.08        34.43966
241.54        41.87937
242.00         56.3819
242.46        64.60124
242.91        62.72534
243.37        50.60219
243.83        31.11971
244.28         19.0834
244.74        23.95092
245.20          38.409
245.66        52.83624
246.11        57.82772
246.57        52.36744
247.03        39.70579
247.48        22.61227
247.94        5.596996
248.40        -12.4349
248.85       -47.48053
249.31       -143.7117
249.77       -210.7847
250.22       -63.30552
250.68       -3.757796
251.14        14.74146
251.59        18.72943
252.05        16.50342
252.51         10.8774
252.96        1.405747
253.42       -6.936625
253.88       -7.985633
254.33        -3.18944
254.79        9.658177
255.25        29.00295
255.70        47.54091
256.16        62.17912
256.62        70.88989
257.07        72.79993
257.53        70.90723
257.99        67.28969
258.44        63.73225
258.90        62.52828
259.35        62.77679
259.81         63.7444
260.27        64.41148
260.72        63.85007
261.18        62.59172
261.63        60.94472
262.09        59.32342
262.55        57.57575
263.00        55.69044
263.46        53.87633
263.91        52.28487
264.37        51.59777
264.83        51.66806
265.28        52.15142
265.74        52.67957
266.19        52.53905
266.65        51.71756
267.11        50.39115
267.56        48.80864
268.02        47.45659
268.47        46.41033
268.93        45.56168
269.38        44.75737
269.84        43.83592
270.30        42.74287
270.75        41.57204
271.21        40.42493
271.66        39.36239
272.12        38.44263
272.57        37.60569
273.03        36.85443
273.48        36.14757
273.94        35.49108
274.39        34.85754
274.85        34.26023
275.31        33.63934
275.76        32.98581
276.22        32.36144
276.67         31.7715
277.13        31.31528
277.58        30.95329
278.04        30.67051
278.49        30.40235
278.95        30.15039
279.40        29.85012
279.86        29.54737
280.31        29.15465
280.77        28.64001
281.22        27.98604
281.68        27.28946
282.13         26.6169
282.59        26.14749
283.04        25.88075
283.50        25.78296
283.95         25.7919
284.41        25.84521
284.86        25.89685
285.32        25.98024
285.77         26.0399
286.22        26.01894
286.68        25.93698
287.13        25.76985
287.59        25.64643
288.04        25.65637
288.50        25.79364
288.95         26.1355
289.41        26.61777
289.86         26.6658
290.32        26.19114
290.77        27.09542
291.22        26.33132
291.68        26.54262
292.13        26.84825
292.59        27.31236
293.04        27.92587
293.50        28.74445
293.95        29.78055
294.40        30.99814
294.86        32.33569
295.31        33.68261
295.77        34.99981
296.22        36.27951
296.68        37.57749
297.13        38.97725
297.58         40.5143
298.04        42.17558
298.49         43.8884
298.95        45.55901
299.40        47.15312
299.85        48.71275
300.31        50.32904
300.76        52.10989
301.21        54.07571
301.67        56.19477
302.12        58.34606
302.58        60.46656
303.03        62.50027
303.48        64.52263
303.94        66.57433
304.39        68.65742
304.84        70.78202
305.30        72.94208
305.75        75.08602
306.20        77.26011
306.66        79.45823
307.11        81.60585
307.57        83.68644
308.02        85.58643
308.47        87.31887
308.93        88.95284
309.38        90.47525
309.83        91.94902
310.29        93.43024
310.74        94.84783
311.19        96.23594
311.65        97.61834
312.10        98.96959
312.55         100.287
313.00        101.5121
313.46        102.5538
313.91          103.38
314.36        104.0334
314.82        104.5926
315.27        105.1702
315.72        105.8135
316.18        106.4983
316.63        107.1875
317.08        107.8193
317.53        108.3684
317.99        108.8474
318.44        109.2785
318.89         109.678
319.35        110.0507
319.80         110.401
320.25        110.7055
320.70        110.9373
321.16        111.0894
321.61        111.1917
322.06        111.2975
322.51        111.4982
322.97         111.795
323.42        112.2014
323.87        112.6251
324.32        112.9289
324.78        113.0606
325.23        113.1024
325.68        113.1204
326.13        113.2603
326.59         113.531
327.04        113.9362
327.49        114.3861
327.94        114.7696
328.39        115.0477
328.85        115.2267
329.30        115.3886
329.75        115.5249
330.20        115.6547
330.66        115.7288
331.11        115.8631
331.56        116.1046
332.01        116.4705
332.46        116.9525
332.92        117.4254
333.37         117.823
333.82        118.0647
334.27        118.1919
334.72        118.3107
335.17        118.6042
335.63        119.0855
336.08        119.7572
336.53        120.4927
336.98        121.1335
337.43        121.6226
337.88        122.0016
338.34         122.285
338.79        122.5673
339.24        122.8529
339.69         123.122
340.14        123.3852
340.59        123.6672
341.05        123.9752
341.50         124.323
341.95           124.7
342.40         125.083
342.85        125.4624
343.30        125.8395
343.75        126.2045
344.20        126.5496
344.66        126.8769
345.11        127.1566
345.56        127.4016
346.01         127.635
346.46         127.868
346.91         128.077
347.36        128.2125
347.81        128.2897
348.26         128.321
348.72        127.9875
349.17        127.9584
349.62        127.9065
350.07        128.0326
350.52        128.2757
350.97        128.5031
351.42        128.4872
351.87        128.1719
352.32        127.6327
352.77        127.0149
353.22        126.5384
353.67        126.2556
354.13        126.1191
354.58         125.984
355.03        125.6742
355.48        125.1516
355.93        124.4829
356.38        123.7879
356.83         123.244
357.28        122.8697
357.73        122.5759
358.18        122.2414
358.63        121.6835
359.08        120.8634
359.53        119.8686
359.98        118.7618
360.43        117.6268
360.88        116.5095
361.33        115.3906
361.78        114.3417
362.23        113.4771
362.68        112.8071
363.13        112.3027
363.58        111.8258
364.03        111.1478
364.48        110.2133
364.93        109.0769
365.38        107.8726
365.83        106.8304
366.28        106.0096
366.73        105.3391
367.18        104.7104
367.63        103.9512
368.08        103.0252
368.53        102.0099
368.98        100.9779
369.43        100.0218
369.88         99.1646
370.33        98.36153
370.78        97.60098
371.23        96.88808
371.68        96.21713
372.13        95.58684
372.58        94.96889
373.03        94.29929
373.48        93.55959
373.93        92.77459
374.38        91.95127
374.83        91.11903
375.28        90.31174
375.72        89.51063
376.17        88.80814
376.62        88.25815
377.07        87.84193
377.52           87.52
377.97        87.18652
378.42        86.67924
378.87        85.98055
379.32        85.16544
379.77        84.32867
380.22        83.59157
380.67        82.97331
381.11         82.4293
381.56        81.93845
382.01        81.49112
382.46        81.08426
382.91        80.73917
383.36        80.39854
383.81        79.96527
384.26        79.42513
384.71        78.79665
385.15        78.16687
385.60        77.74369
386.05        77.52892
386.50        77.45679
386.95         77.3913
387.40        77.12392
387.85        76.62552
388.29        75.94271
388.74        75.28474
389.19         74.7372
389.64        74.32148
390.09        73.97983
390.54         73.6915
390.98        73.41685
391.43        73.17896
391.88        72.98013
392.33        72.78454
392.78        72.53448
393.23        72.22722
393.67        71.84192
394.12        71.50303
394.57        71.23256
395.02        71.02916
395.47        70.84341
395.91        70.67027
396.36        70.49262
396.81        70.32087
397.26        70.18353
397.71        70.03032
398.15        69.77364
398.60        69.49078
399.05        69.06501
399.50        68.63881
399.95        68.57722
400.39        68.79961
400.84        68.86411
401.29        68.68879
401.74        68.24258
402.18        67.67831
402.63        67.51558
403.08        67.68409
403.53        67.51595
403.97        66.98885
404.42        66.55618
404.87           66.29
405.32        66.12827
405.76        66.07511
406.21        66.12241
406.66        66.20774
407.11        66.28293
407.55        66.29646
408.00        66.15517
408.45        65.89919
408.90        65.52621
409.34        65.16316
409.79        65.16856
410.24        65.43184
410.68        65.46014
411.13        65.21904
411.58         64.9839
412.03         64.8203
412.47         64.7336
412.92        64.72536
413.37        64.79829
413.81        64.89583
414.26        64.98765
414.71        65.03983
415.15        65.07863
415.60        65.07301
416.05        65.03055
416.49        64.95928
416.94        64.84668
417.39        64.72627
417.83        64.64372
418.28        64.61084
418.73        64.61636
419.17        64.62446
419.62        64.58334
420.07        64.48351
420.51        64.34286
420.96        64.22451
421.41        64.17085
421.85        64.17133
422.30        64.25685
422.74        64.37065
423.19         64.5283
423.64        64.69978
424.08        64.91326
424.53        65.09856
424.98        65.22746
425.42        65.29385
425.87        65.33234
426.31        65.35855
426.76        65.26431
427.21        65.11561
427.65        65.25949
428.10        65.58117
428.54        65.63351
428.99        65.42352
429.44        65.21848
429.88        65.07393
430.33        64.92422
430.77        64.79721
431.22         65.0779
431.66        65.59622
432.11         65.7558
432.56        65.59669
433.00        65.43462
433.45        65.19594
433.89        65.42384
434.34        66.15487
434.78        65.09898
435.23        64.95135
435.67         65.7681
436.12        66.26188
436.57        66.48597
437.01        65.93935
437.46        65.80595
437.90        66.78527
438.35         66.1025
438.79        66.23987
439.24        65.99032
439.68        66.04015
440.13        66.14359
440.57        66.26146
441.02        66.28902
441.46        66.22999
441.91        66.39087
442.35        66.64593
442.80        66.93699
443.24        67.18653
443.69        67.28337
444.13        67.22655
444.58        67.22008
445.02        67.25682
445.47        67.26575
445.91        67.22174
446.36        67.17712
446.80        67.12668
447.24        67.00305
447.69        66.86337
448.13        66.98389
448.58        67.13604
449.02        67.16513
449.47        67.02569
449.91        66.96941
450.36        67.01944
450.80        66.95154
451.25        66.81854
451.69        66.84187
452.13        66.98667
452.58        66.94485
453.02        66.72848
453.47        66.62897
453.91        66.63792
454.36        66.60293
454.80        66.52753
455.24        66.41808
455.69        66.27627
456.13        66.23615
456.58        66.31517
457.02        65.84766
457.46        65.62121
457.91        65.52414
458.35        65.79073
458.79        65.78691
459.24        65.55342
459.68        65.33691
460.13         65.2104
460.57        65.08992
461.01        65.02864
461.46        65.06207
461.90        64.91792
462.34        65.00353
462.79        64.93628
463.23        64.31931
463.68          65.077
464.12        64.85735
464.56        64.38642
465.01        64.48083
465.45        64.95081
465.89        65.00584
466.34        64.67943
466.78        64.43037
467.22        64.30638
467.67        64.39946
468.11        64.10836
468.55        63.99883
468.99         63.8815
469.44         63.7412
469.88        63.57463
470.32        63.37992
470.77        63.19808
471.21        63.08819
471.65        63.05769
472.10        63.08494
472.54        63.12468
472.98        63.12485
473.42        63.07584
473.87        63.01367
474.31        62.91148
474.75        62.83387
475.20        62.79024
475.64        62.64152
476.08        62.62112
476.52        62.60038
476.97        62.63363
477.41        62.73382
477.85        62.80046
478.29        62.86903
478.74        62.36936
479.18        62.35874
479.62        62.51031
480.06        62.59317
480.50        62.55133
480.95        62.69918
481.39        62.98682
481.83        62.83696
482.27        63.41316
482.72        62.96624
483.16         63.1012
483.60        63.25474
484.04        63.05229
484.48        62.63774
484.93        62.49043
485.37        62.65751
485.81        62.84361
486.25        62.60799
486.69        64.43421
487.14        64.45917
487.58        63.52728
488.02        62.65305
488.46        62.78222
488.90        62.67793
489.34        62.63271
489.79        62.25134
490.23        62.65806
490.67        62.66333
491.11        62.57851
491.55        62.37249
491.99         62.1315
492.43        62.01403
492.88        62.03781
493.32        62.16553
493.76        62.29813
494.20          62.383
494.64        62.41124
495.08        62.11435
495.52        62.06425
495.96        61.99461
496.41        62.03812
496.85        62.07294
497.29         62.0256
497.73        62.10861
498.17        61.98301
498.61        61.93657
499.05        61.85976
499.49        61.74099
499.93        61.61933
500.37        61.55471
500.82        61.54315
501.26          61.767
501.70         62.1176
502.14        61.83276
502.58        61.50082
503.02        61.32479
503.46        61.43631
503.90        61.53556
504.34        61.56696
504.78        61.61338
505.22        61.64917
505.66        61.65817
506.10        61.65325
506.54         61.5759
506.98        61.40852
507.42        61.31472
507.86        61.40127
508.30        60.87288
508.74        61.11941
509.18        61.02404
509.62         60.9995
510.06        61.05373
510.50        61.16948
510.94        61.24784
511.38          61.253
511.82        61.23629
512.26        61.19174
512.70        61.07953
513.14        60.92308
513.58        60.82685
514.02        60.81668
514.46        60.79301
514.90        60.70075
515.34        60.91234
515.78        60.74651
516.22        60.72622
516.66        60.52146
517.10        60.78068
517.54         60.6142
517.98        60.70375
518.42        60.77245
518.86        60.80453
519.30        60.79161
519.74        60.71614
520.18         60.6167
520.62        60.62617
521.06        60.71056
521.50        60.63697
521.93        60.44545
522.37        60.39267
522.81        60.49437
523.25        60.61605
523.69        60.69513
524.13        60.69195
524.57        60.59069
525.01         60.4007
525.45        60.19996
525.89        60.11454
526.32        60.17089
526.76        60.33931
527.20        60.52512
527.64        60.59681
528.08        60.52695
528.52         60.3108
528.96        60.05265
529.40        60.03036
529.83        60.21251
530.27        60.29643
530.71        60.24701
531.15        60.25568
531.59        60.31157
532.03        60.28254
532.46         60.1938
532.90        60.17218
533.34        60.22358
533.78        60.30793
534.22        60.38085
534.66        60.37665
535.09        60.27835
535.53        60.13872
535.97        59.99255
536.41        59.90785
536.85          59.902
537.28        59.94832
537.72        60.02913
538.16        60.11585
538.60        60.18984
539.04        60.26115
539.47        60.29057
539.91        60.26845
540.35        60.18208
540.79        60.04471
541.22        59.90252
541.66        59.84733
542.10        59.89156
542.54        60.00223
542.97         60.1286
543.41         60.2225
543.85        60.25859
544.29        60.26301
544.72        60.22739
545.16         60.1942
545.60        60.17084
546.04        60.07938
546.47        59.97034
546.91        60.10958
547.35        60.42492
547.79        60.47628
548.22        60.26898
548.66        60.27252
549.10        60.44788
549.53        60.35918
549.97        60.06031
550.41        59.92225
550.84        59.98494
551.28        60.04141
551.72        60.05365
552.15        60.12845
552.59        60.28783
553.03        60.05595
553.46        60.29405
553.90        60.19136
554.34        60.20586
554.77        60.15202
555.21        60.14764
555.65        60.11626
556.08        60.25854
556.52        60.36182
556.96        60.43872
557.39        60.42048
557.83        60.33755
558.27        60.27366
558.70        60.25544
559.14        60.24543
559.57         60.2387
560.01        60.35549
560.45        60.50783
560.88        60.45579
561.32        60.27989
561.75        60.11677
562.19        60.06224
562.63        60.21768
563.06        60.48577
563.50        60.47584
563.93        60.20084
564.37        60.08688
564.80        60.13047
565.24        60.14387
565.68        60.11246
566.11        60.10907
566.55        60.16008
566.98        60.22306
567.42        60.30231
567.85        60.43187
568.29          60.625
568.72        60.66543
569.16        60.62128
569.60        60.97446
570.03        60.85906
570.47        61.15809
570.90        61.56753
571.34        61.04871
571.77        61.32719
572.21        61.08557
572.64        61.52711
573.08        61.21741
573.51         61.1358
573.95        61.43287
574.38        61.30956
574.82        62.04133
