SpectraSmart Spectrum 2.9.0.0
--------- Device Information -----------
Spectrum Name :  反射率_0
Saving Time :  2024/04/21 00:20:36
Spectro-Module Model Name : SE2030-DUVN
Spectro-Module Serial Number : OS361AC55029948
Wavelength Start : 200
Wavelength End : 1025
Wavelength Unit : Wavelength(nm)
Spectrum Unit : Reflectance(%)
-----------Spectrum Setting ------------
Integration Time : 20ms
Average : 10
Boxcar : 0
Background removal :  enabled
linearity correction :  enabled
SC :  disabled
Intensity correction :  disabled
DWT denoise :  enabled
savitzky-golay :  disabled
FFT :  disabled
Running average :  disabled
Kalman :  disabled
High pass :  disabled
---------------BEGIN--------------------
Wavelength(nm)             Reflectance(%)
200.29               0
200.75       -49.68763
201.21       -22.02347
201.67       -5.477634
202.13        4.747373
202.58        12.39524
203.04        20.68513
203.50        28.42705
203.96        29.88486
204.42        22.54544
204.88        8.029791
205.34       -8.362232
205.80       -20.71716
206.26       -27.52412
206.72       -25.97484
207.18       -19.81697
207.64       -21.01575
208.10       -32.48772
208.55        -51.0955
209.01       -54.92023
209.47         -22.885
209.93        16.32178
210.39         45.7166
210.85        63.31544
211.31        69.86874
211.77        67.97959
212.23        57.71082
212.69         34.1315
213.14       -8.916445
213.60       -83.52614
214.06       -281.8182
214.52       -707.9182
214.98       -312.2163
215.44       -84.61201
215.90       -8.887919
216.36        16.17184
216.81        19.02383
217.27        4.173187
217.73        -76.0267
218.19        894.9623
218.65        375.0253
219.11       -798.7657
219.57       -29.52924
220.02        19.43724
220.48        28.54337
220.94        25.11574
221.40        9.089729
221.86       -29.67517
222.32       -52.75622
222.77       -15.33882
223.23        15.79383
223.69         30.9996
224.15        35.65419
224.61        34.72382
225.06        31.03734
225.52        25.57234
225.98         19.4731
226.44        13.60916
226.90        6.775333
227.36        2.078912
227.81        5.150265
228.27        13.09235
228.73        21.76972
229.19        27.41468
229.65        27.80948
230.10        23.71471
230.56        16.71768
231.02        8.099061
231.48        2.642713
231.93        3.768414
232.39        9.496451
232.85         15.9706
233.31         20.0053
233.77        21.82481
234.22        22.97367
234.68        23.39901
235.14        22.85588
235.60        21.69348
236.05        19.06893
236.51        15.79358
236.97        19.92311
237.43        32.14618
237.88        41.18179
238.34        42.84264
238.80        64.60547
239.26         55.2513
239.71        51.72342
240.17        40.81478
240.63        29.35789
241.08        22.78615
241.54        24.87486
242.00        36.00957
242.46        44.74656
242.91        48.35688
243.37        48.74438
243.83        47.50334
244.28        49.20934
244.74        55.17056
245.20        61.32716
245.66        64.20002
246.11        60.82124
246.57        51.17368
247.03        36.79284
247.48        19.18424
247.94       0.3633826
248.40       -22.75208
248.85        -69.8513
249.31       -197.8642
249.77       -265.4548
250.22       -59.09815
250.68        16.51123
251.14        39.00115
251.59        45.47803
252.05        46.07354
252.51        43.33463
252.96        35.91546
253.42        24.85056
253.88        15.42513
254.33        10.65441
254.79        15.64959
255.25        30.09275
255.70        46.39803
256.16        60.21496
256.62        69.60622
257.07        73.81298
257.53        74.94744
257.99        74.38302
258.44        72.79178
258.90        71.51825
259.35        70.12618
259.81        68.84835
260.27        67.50588
260.72        66.05946
261.18        64.92052
261.63         63.7973
262.09        62.77119
262.55        61.38133
263.00         59.5704
263.46         57.7067
263.91        55.90388
264.37        54.79813
264.83        54.30103
265.28        54.12717
265.74        54.05739
266.19        53.56936
266.65        52.66127
267.11        51.42142
267.56        50.01066
268.02        48.77836
268.47        47.74839
268.93        46.85564
269.38        45.92145
269.84        44.74899
270.30        43.29982
270.75        41.68196
271.21        40.10486
271.66        38.80011
272.12        37.85877
272.57        37.17772
273.03        36.64748
273.48        36.05204
273.94        35.36404
274.39        34.61261
274.85          33.896
275.31        33.28617
275.76        32.78672
276.22          32.385
276.67        32.02045
277.13        31.70339
277.58        31.37868
278.04        31.08563
278.49        30.75831
278.95        30.39567
279.40         29.9492
279.86        29.45576
280.31         28.9183
280.77        28.43988
281.22        28.00009
281.68        27.64336
282.13        27.27511
282.59        26.83709
283.04        26.30933
283.50        25.76196
283.95        25.30999
284.41        25.15506
284.86        25.30806
285.32        25.70576
285.77        26.17574
286.22        26.49417
286.68         26.6256
287.13         26.5846
287.59        26.53463
288.04        26.61486
288.50        26.83372
288.95        27.24698
289.41        27.75613
289.86        27.74903
290.32        27.14679
290.77        27.86231
291.22        26.96414
291.68        27.18049
292.13        27.66035
292.59        28.43577
293.04        29.41882
293.50        30.53769
293.95        31.76895
294.40        33.10865
294.86        34.56079
295.31         36.1183
295.77        37.76662
296.22        39.46264
296.68        41.18866
297.13        42.92249
297.58        44.67427
298.04        46.44918
298.49        48.26129
298.95        50.15406
299.40         52.1086
299.85        54.12287
300.31        56.14636
300.76        58.06594
301.21        59.88469
301.67        61.66885
302.12        63.47943
302.58        65.53253
303.03        67.81751
303.48        70.30274
303.94        72.88488
304.39        75.33959
304.84        77.60781
305.30          79.755
305.75        81.76948
306.20        83.76637
306.66        85.77925
307.11        87.71313
307.57        89.57981
308.02        91.30461
308.47        92.90788
308.93        94.44706
309.38        95.89289
309.83        97.28872
310.29        98.66113
310.74        99.96097
311.19        101.1926
311.65        102.3406
312.10        103.3835
312.55        104.3374
313.00        105.2115
313.46        106.0247
313.91        106.7665
314.36        107.4458
314.82        108.0784
315.27        108.6714
315.72        109.2448
316.18        109.8108
316.63        110.3604
317.08        110.8791
317.53        111.3611
317.99        111.7968
318.44        112.2212
318.89        112.6751
319.35        113.1558
319.80        113.6566
320.25        114.1026
320.70        114.3814
321.16        114.4666
321.61        114.4126
322.06        114.3182
322.51        114.3541
322.97        114.5463
323.42        114.8875
323.87         115.271
324.32        115.5331
324.78        115.6119
325.23        115.6083
325.68        115.5807
326.13         115.657
326.59        115.8475
327.04        116.1604
327.49        116.5352
327.94        116.9151
328.39        117.2688
328.85        117.5779
329.30        117.8891
329.75        118.1306
330.20        118.2999
330.66        118.3692
331.11        118.4535
331.56        118.6007
332.01        118.8376
332.46        119.1467
332.92        119.4633
333.37        119.8261
333.82        120.1739
334.27        120.5319
334.72        120.8923
335.17         121.241
335.63        121.5485
336.08        121.8735
336.53         122.239
336.98        122.7424
337.43        123.3911
337.88        124.1453
338.34        124.8718
338.79        125.4172
339.24        125.7086
339.69        125.8024
340.14        125.8063
340.59        125.8968
341.05        126.1335
341.50        126.4865
341.95        126.9072
342.40        127.3149
342.85        127.6816
343.30        128.0315
343.75        128.3844
344.20        128.7728
344.66        129.1972
345.11        129.5979
345.56        129.9354
346.01        130.1578
346.46        130.2657
346.91          130.27
347.36        130.1669
347.81        130.0444
348.26        129.9427
348.72        129.5102
349.17        129.4543
349.62        129.4269
350.07        129.6264
350.52        129.9793
350.97        130.3222
351.42        130.3742
351.87        130.0607
352.32        129.4705
352.77        128.7492
353.22        128.1218
353.67        127.6551
354.13        127.3055
354.58        126.9749
355.03        126.5625
355.48        126.0417
355.93        125.4561
356.38        124.8699
356.83        124.3678
357.28        123.9514
357.73        123.5708
358.18         123.136
358.63        122.5182
359.08        121.6977
359.53        120.7315
359.98        119.7051
360.43         118.741
360.88        117.8736
361.33        117.0691
361.78        116.3006
362.23        115.5243
362.68        114.7258
363.13        113.9252
363.58        113.1127
364.03        112.2678
364.48        111.3838
364.93        110.4532
365.38        109.5049
365.83        108.5932
366.28        107.7316
366.73        106.9133
367.18        106.0968
367.63        105.2133
368.08          104.26
368.53        103.2718
368.98        102.3032
369.43        101.4261
369.88        100.6451
370.33        99.91965
370.78        99.21438
371.23        98.48698
371.68        97.72813
372.13        96.96166
372.58        96.18314
373.03        95.36902
373.48        94.51902
373.93        93.64291
374.38        92.78907
374.83        92.04803
375.28        91.44789
375.72        90.94608
376.17         90.5218
376.62        90.06223
377.07        89.52209
377.52        88.90182
377.97        88.22851
378.42        87.57259
378.87        86.96688
379.32        86.40675
379.77        85.83974
380.22        85.17043
380.67        84.37935
381.11        83.50477
381.56        82.63684
382.01        81.95177
382.46        81.50636
382.91        81.25557
383.36        81.08593
383.81        80.81826
384.26        80.40056
384.71        79.87344
385.15        79.30878
385.60        78.88767
386.05        78.61428
386.50         78.4305
386.95        78.23076
387.40        77.86341
387.85        77.31879
388.29        76.63132
388.74        76.00721
389.19        75.52009
389.64        75.18517
390.09        74.95219
390.54        74.77346
390.98        74.56015
391.43        74.32137
391.88        74.06947
392.33        73.81298
392.78        73.52846
393.23        73.21389
393.67         72.9252
394.12         72.7273
394.57          72.332
395.02        71.82902
395.47        71.70932
395.91        71.88908
396.36        71.74665
396.81        71.26974
397.26         70.8366
397.71        70.48342
398.15        70.12683
398.60        69.86417
399.05        69.51125
399.50        69.18753
399.95        69.31782
400.39        69.75027
400.84        69.85938
401.29        69.55886
401.74        68.92031
402.18        68.17844
402.63        67.99229
403.08        68.27336
403.53        68.14211
403.97        67.56008
404.42         67.1274
404.87        66.91414
405.32        66.76724
405.76        66.68542
406.21        66.71615
406.66        66.78553
407.11         66.7744
407.55        66.66743
408.00        66.48114
408.45        66.26207
408.90        65.98463
409.34        65.71354
409.79        65.64713
410.24        65.72454
410.68        65.69299
411.13        65.53192
411.58        65.37693
412.03        65.25089
412.47        65.15313
412.92         65.0742
413.37        65.02485
413.81        64.99391
414.26         65.0182
414.71        65.07518
415.15        65.16786
415.60        65.23634
416.05        65.23592
416.49        65.15643
416.94         65.0062
417.39        64.82168
417.83        64.65157
418.28        64.51544
418.73        64.39868
419.17        64.29874
419.62         64.2206
420.07        64.16476
420.51        64.13021
420.96        64.12564
421.41        64.12582
421.85        64.10194
422.30        64.05802
422.74        63.99426
423.19        64.10188
423.64        64.32833
424.08        64.46946
424.53        64.44459
424.98        64.44915
425.42        64.49552
425.87        64.39133
426.31        64.21773
426.76        64.25348
427.21        64.47124
427.65        64.62242
428.10         64.6057
428.54        64.51068
428.99        64.37418
429.44        64.13153
429.88        63.84053
430.33         63.7417
430.77        63.79296
431.22        63.92802
431.66        64.10535
432.11         64.4053
432.56        64.76266
433.00        64.79741
433.45         64.3513
433.89        64.02848
434.34        64.07648
434.78         63.1861
435.23        63.65849
435.67         64.0489
436.12        64.79536
436.57         64.8558
437.01         64.3407
437.46        64.08154
437.90        64.82653
438.35        64.51538
438.79        64.79377
439.24        64.71349
439.68        64.73035
440.13        64.66505
440.57        64.55268
441.02        64.69104
441.46        64.95613
441.91        64.83651
442.35        64.41508
442.80        64.52876
443.24        65.04805
443.69        65.23563
444.13         65.0271
444.58        64.89706
445.02        64.74497
445.47        64.84282
445.91        65.05356
446.36        65.07069
446.80        64.87097
447.24        64.60267
447.69        64.38959
448.13        64.51987
448.58         64.7785
449.02        64.96191
449.47        64.97346
449.91        65.01402
450.36        65.08398
450.80          64.956
451.25        64.70946
451.69        64.63392
452.13          64.703
452.58        64.56548
453.02        64.24384
453.47        64.06239
453.91        64.02676
454.36        63.98353
454.80        63.89337
455.24        63.79146
455.69        63.69341
456.13        63.48476
456.58        63.26535
457.02        63.23962
457.46        63.48415
457.91        63.27989
458.35        62.86057
458.79        62.67085
459.24        62.78448
459.68        62.84643
460.13        62.82563
460.57        62.80418
461.01        62.79973
461.46         62.5314
461.90        62.41365
462.34        62.38987
462.79        61.70387
463.23        61.81713
463.68        62.32122
464.12        62.19222
464.56        61.54575
465.01        61.75656
465.45        62.53569
465.89        62.51442
466.34        61.84868
466.78        61.56936
467.22        61.67849
467.67        62.01163
468.11        61.49151
468.55        61.31607
468.99        61.19004
469.44        61.03574
469.88        60.85048
470.32        60.64596
470.77        60.46111
471.21        60.34417
471.65        60.30714
472.10        60.33468
472.54        60.37232
472.98        60.37896
473.42        60.35286
473.87        60.24495
474.31        60.07314
474.75        60.14459
475.20        60.42595
475.64        60.24938
476.08        60.32208
476.52        60.19178
476.97        60.01684
477.41        60.08708
477.85         60.0787
478.29        59.57329
478.74        59.59115
479.18        59.82115
479.62        59.71398
480.06        59.80296
480.50        59.82116
480.95        59.86769
481.39        59.88632
481.83        59.95827
482.27        59.88528
482.72        60.06182
483.16        59.82632
483.60        60.12688
484.04        60.02029
484.48        59.87982
484.93        60.15181
485.37         59.6856
485.81        60.49583
486.25        59.77822
486.69        61.51408
487.14        61.70942
487.58        60.10815
488.02        60.04402
488.46        59.62291
488.90        59.11325
489.34         59.3826
489.79        59.02982
490.23         59.6528
490.67        59.60799
491.11        59.33479
491.55        59.17516
491.99        59.17305
492.43        59.12084
492.88        59.01704
493.32        59.02906
493.76        59.09204
494.20        59.13425
494.64        59.17089
495.08        58.86951
495.52        58.81905
495.96        58.85097
496.41        59.04597
496.85        58.84248
497.29        58.33212
497.73        58.46804
498.17        58.85715
498.61        58.99268
499.05        58.71723
499.49        58.55302
499.93        58.42787
500.37         58.4506
500.82        58.54465
501.26        58.73021
501.70        58.92835
502.14        58.66838
502.58        58.48314
503.02        58.32237
503.46        58.30286
503.90        58.26914
504.34        58.19643
504.78          58.172
505.22         58.2113
505.66        58.21815
506.10        58.18026
506.54        58.26463
506.98        58.50089
507.42        57.95663
507.86        58.57613
508.30        58.02979
508.74        58.25137
509.18         58.0885
509.62         57.9773
510.06        57.92888
510.50        57.92379
510.94        57.88838
511.38        57.80734
511.82        57.75845
512.26        57.73836
512.70        57.70624
513.14        57.65808
513.58        57.60638
514.02        57.55215
514.46        57.49219
514.90         57.4235
515.34        57.38534
515.78        57.38845
516.22        57.38408
516.66        57.21955
517.10        57.51715
517.54        57.31244
517.98        57.35332
518.42        57.36462
518.86        57.38574
519.30        57.41499
519.74        57.41743
520.18        57.40113
520.62        57.44624
521.06        57.50986
521.50        57.38749
521.93        57.13467
522.37        57.02292
522.81        57.07785
523.25        57.16357
523.69        57.22282
524.13        57.21877
524.57        57.13663
525.01        56.99349
525.45        56.84691
525.89        56.78732
526.32        56.83301
526.76        56.95848
527.20         57.1111
527.64        57.20995
528.08        57.23084
528.52        57.19964
528.96        57.14715
529.40        57.11412
529.83        57.11041
530.27        57.14637
530.71        57.18842
531.15        57.18414
531.59        57.12556
532.03        57.03782
532.46        56.94353
532.90         56.8884
533.34        56.87897
533.78        56.90198
534.22        56.93463
534.66        56.94242
535.09        56.90865
535.53        56.86296
535.97        56.81023
536.41        56.77361
536.85        56.75925
537.28        56.75871
537.72        56.76425
538.16        56.76532
538.60        56.75785
539.04        56.74833
539.47        56.72591
539.91        56.72056
540.35        56.71972
540.79        56.72024
541.22         56.7197
541.66        56.72773
542.10        56.73903
542.54        56.75038
542.97        56.74859
543.41        56.74105
543.85        56.72334
544.29        56.70995
544.72        56.68941
545.16        56.67696
545.60        56.66054
546.04         56.6185
546.47         56.5911
546.91        56.64588
547.35         56.7601
547.79        56.94147
548.22        57.08785
548.66        56.93528
549.10        56.58494
549.53        56.50912
549.97        56.70265
550.41         56.7256
550.84        56.55901
551.28        56.49593
551.72        56.54955
552.15         56.5365
552.59        56.44137
553.03        56.58189
553.46        56.50634
553.90        56.47581
554.34        56.33108
554.77        56.50032
555.21        56.29443
555.65        56.34233
556.08         56.4321
556.52        56.55047
556.96        56.66039
557.39        56.78154
557.83        56.89761
558.27        56.87934
558.70        56.75476
559.14        56.69746
559.57         56.7132
560.01        56.72635
560.45         56.7114
560.88        56.71339
561.32        56.74445
561.75        56.64054
562.19        56.48347
562.63        56.49522
563.06        56.63988
563.50        56.65894
563.93        56.53979
564.37        56.48224
564.80        56.48554
565.24        56.54301
565.68        56.62882
566.11        56.65831
566.55        56.64373
566.98        56.63459
567.42        56.78101
567.85        56.65004
568.29        56.41618
568.72        56.52265
569.16        56.96456
569.60        57.08658
570.03        57.12646
570.47        57.18901
570.90        57.34334
571.34        57.24607
571.77        57.61462
572.21        57.50109
572.64        57.38974
573.08        57.43111
573.51        57.33422
573.95        57.80664
574.38        57.79305
574.82        58.11075
