SpectraSmart Spectrum 2.9.0.0
--------- Device Information -----------
Spectrum Name :  反射率_0
Saving Time :  2024/04/21 00:19:41
Spectro-Module Model Name : SE2030-DUVN
Spectro-Module Serial Number : OS361AC55029948
Wavelength Start : 200
Wavelength End : 1025
Wavelength Unit : Wavelength(nm)
Spectrum Unit : Reflectance(%)
-----------Spectrum Setting ------------
Integration Time : 20ms
Average : 10
Boxcar : 0
Background removal :  enabled
linearity correction :  enabled
SC :  disabled
Intensity correction :  disabled
DWT denoise :  enabled
savitzky-golay :  disabled
FFT :  disabled
Running average :  disabled
Kalman :  disabled
High pass :  disabled
---------------BEGIN--------------------
Wavelength(nm)             Reflectance(%)
200.29               0
200.75       -122.7342
201.21       -68.93755
201.67        -40.2145
202.13       -28.82524
202.58       -26.89563
203.04       -30.07841
203.50       -36.15881
203.96        -39.9538
204.42       -39.22338
204.88       -37.18073
205.34       -34.07978
205.80       -30.11979
206.26       -24.83995
206.72       -14.17836
207.18       -4.467809
207.64       -12.02611
208.10       -40.55497
208.55       -84.10049
209.01        -109.931
209.47       -81.00709
209.93       -33.43881
210.39        5.683702
210.85        30.99924
211.31        42.53891
211.77        44.45096
212.23        38.95864
212.69        22.96875
213.14       -7.068946
213.60       -59.14193
214.06       -205.7944
214.52        -531.423
214.98       -231.9302
215.44       -57.34652
215.90         1.40561
216.36        20.31583
216.81        20.29795
217.27        2.813257
217.73       -85.10181
218.19        967.0215
218.65        400.9383
219.11       -850.0004
219.57       -30.64191
220.02        20.64806
220.48        28.26371
220.94        20.48747
221.40       -5.543211
221.86       -65.73597
222.32       -100.0598
222.77       -40.90634
223.23        8.158619
223.69        32.60444
224.15        41.24889
224.61        41.93647
225.06        38.95346
225.52        33.56809
225.98        27.14586
226.44        20.79664
226.90        13.17564
227.36        8.233768
227.81        12.89652
228.27        23.42358
228.73         34.4229
229.19        41.64088
229.65         42.9692
230.10        39.38374
230.56        32.35467
231.02        23.08538
231.48        16.71319
231.93        16.98684
232.39        21.97304
232.85         27.8067
233.31        31.19853
233.77        32.23472
234.22        32.38823
234.68         31.7723
235.14        30.47391
235.60        28.96095
236.05        26.47069
236.51        23.35168
236.97        26.26379
237.43        35.91225
237.88        42.01866
238.34        40.65035
238.80        62.31764
239.26        53.68732
239.71        53.98006
240.17        48.89732
240.63        41.56037
241.08        33.28579
241.54        25.96531
242.00        23.17495
242.46        19.76868
242.91        14.19091
243.37        8.147783
243.83        3.142003
244.28        2.604162
244.74        7.628941
245.20         14.0461
245.66        18.41238
246.11        18.26254
246.57        13.23867
247.03        4.351803
247.48       -8.716386
247.94       -27.02135
248.40       -56.98127
248.85       -129.5616
249.31       -354.4392
249.77       -550.7432
250.22       -212.5173
250.68       -67.41032
251.14       -18.78134
251.59       -1.983603
252.05        3.215531
252.51        3.875474
252.96      -0.8754966
253.42        -10.7408
253.88       -20.72961
254.33       -27.01146
254.79       -22.40316
255.25        -5.46899
255.70        14.75932
256.16        31.97303
256.62         44.0613
257.07         50.2678
257.53        52.72612
257.99        53.24101
258.44        52.55555
258.90        51.83613
259.35        50.90172
259.81        49.99646
260.27        49.10794
260.72        48.34176
261.18        47.94263
261.63        47.60136
262.09        47.31122
262.55        46.70567
263.00        45.74151
263.46        44.72713
263.91        43.69356
264.37        43.05781
264.83        42.75507
265.28        42.59939
265.74        42.52888
266.19        42.28876
266.65         41.8899
267.11        41.35975
267.56        40.69233
268.02        39.96767
268.47        39.16564
268.93        38.29498
269.38        37.37621
269.84        36.50761
270.30        35.70424
270.75        34.97321
271.21        34.27892
271.66        33.48929
272.12        32.62715
272.57        31.72161
273.03        30.92017
273.48        30.39439
273.94         30.1742
274.39        30.14747
274.85        30.17016
275.31        29.96459
275.76        29.46918
276.22        28.80829
276.67        28.10472
277.13        27.61224
277.58         27.3335
278.04          27.207
278.49        27.08414
278.95        26.83883
279.40        26.40453
279.86        25.87666
280.31        25.29463
280.77        24.79293
281.22        24.37171
281.68        24.04944
282.13        23.74813
282.59        23.43425
283.04        23.07495
283.50        22.70571
283.95        22.39725
284.41        22.27832
284.86        22.34849
285.32        22.57629
285.77        22.80335
286.22        22.81806
286.68        22.61101
287.13        22.21401
287.59        21.85453
288.04        21.77147
288.50        21.97799
288.95        22.50432
289.41        23.17325
289.86        23.23453
290.32         22.5631
290.77        23.20932
291.22        22.06421
291.68        22.05766
292.13        22.28893
292.59        22.76913
293.04         23.3933
293.50        24.07195
293.95        24.78322
294.40        25.53402
294.86        26.34671
295.31        27.24207
295.77        28.21762
296.22         29.2354
296.68        30.27098
297.13        31.28965
297.58        32.29778
298.04        33.31383
298.49        34.36672
298.95        35.51785
299.40        36.76499
299.85        38.10121
300.31        39.47868
300.76        40.80472
301.21        42.06798
301.67        43.30976
302.12        44.57569
302.58        46.02584
303.03        47.65265
303.48        49.44286
303.94        51.29271
304.39        52.99978
304.84        54.52786
305.30        55.94603
305.75        57.32535
306.20        58.86913
306.66        60.60266
307.11         62.4076
307.57        64.18697
308.02        65.74076
308.47        67.04707
308.93        68.21697
309.38        69.28332
309.83        70.31716
310.29        71.45713
310.74        72.56899
311.19        73.69048
311.65        74.82533
312.10        75.94497
312.55        77.04916
313.00        78.09026
313.46        78.99138
313.91        79.72272
314.36        80.31612
314.82        80.81776
315.27        81.30238
315.72        81.80407
316.18        82.30878
316.63        82.81617
317.08        83.32556
317.53        83.82813
317.99        84.32527
318.44         84.7919
318.89        85.17065
319.35        85.45068
319.80        85.65007
320.25         85.8071
320.70        85.99451
321.16        86.22082
321.61        86.47549
322.06        86.72547
322.51        86.92226
322.97        87.04285
323.42         87.1426
323.87         87.2148
324.32        87.26366
324.78        87.28413
325.23        87.30086
325.68        87.34948
326.13        87.51456
326.59        87.78315
327.04        88.17553
327.49         88.5716
327.94        88.79696
328.39        88.81132
328.85        88.63975
329.30        88.44978
329.75         88.4173
330.20        88.60332
330.66        88.92448
331.11        89.35136
331.56        89.71635
332.01        89.96682
332.46        90.14085
332.92        90.23587
333.37        90.36812
333.82        90.52595
334.27        90.69275
334.72        90.86049
335.17        91.02209
335.63         91.1572
336.08        91.33298
336.53        91.55723
336.98        91.87356
337.43        92.28566
337.88        92.76929
338.34        93.26395
338.79        93.71657
339.24        94.08142
339.69        94.37327
340.14         94.6059
340.59        94.81058
341.05        95.01069
341.50         95.2114
341.95        95.43111
342.40        95.70389
342.85        96.03619
343.30        96.41663
343.75        96.82284
344.20        97.22039
344.66        97.59306
345.11        97.91702
345.56        98.18029
346.01        98.36427
346.46        98.47019
346.91        98.51859
347.36        98.50961
347.81        98.44105
348.26        98.33001
348.72        98.21822
349.17        98.10971
349.62        98.15019
350.07        98.33727
350.52        98.63499
350.97        98.92667
351.42        99.02268
351.87        98.87352
352.32         98.5279
352.77        98.09516
353.22        97.74539
353.67        97.52473
354.13        97.40549
354.58         97.2809
355.03        97.03122
355.48        96.63338
355.93        96.13426
356.38        95.63741
356.83        95.29343
357.28        95.11638
357.73        95.03882
358.18        94.92973
358.63         94.5867
359.08        93.96991
359.53        93.16181
359.98        92.27567
360.43        91.47911
360.88         90.8241
361.33        90.26175
361.78         89.7641
362.23        89.28713
362.68        88.80698
363.13        88.33992
363.58         87.8601
364.03        87.31874
364.48        86.70683
364.93        86.03195
365.38        85.32285
365.83        84.63889
366.28        83.99504
366.73        83.36668
367.18        82.75208
367.63        82.14674
368.08        81.54511
368.53        80.96352
368.98        80.35107
369.43        79.61531
369.88         78.7446
370.33        77.76168
370.78        76.78296
371.23        76.02377
371.68        75.54727
372.13        75.29925
372.58        75.14671
373.03        74.86441
373.48          74.386
373.93        73.77081
374.38        73.10889
374.83        72.55911
375.28        72.16941
375.72        71.86911
376.17         71.6096
376.62         71.2747
377.07        70.82542
377.52        70.28457
377.97        69.69875
378.42        69.15672
378.87        68.69528
379.32        68.30049
379.77        67.91325
380.22        67.43314
380.67        66.83931
381.11        66.16912
381.56         65.5043
382.01        64.99847
382.46         64.6964
382.91        64.54961
383.36        64.46291
383.81        64.28769
384.26        63.98283
384.71        63.59296
385.15        63.16322
385.60        62.82151
386.05        62.57584
386.50        62.38892
386.95        62.22274
387.40         62.0288
387.85        61.79518
388.29        61.50232
388.74        61.24822
389.19        61.00727
389.64        60.77573
390.09        60.54482
390.54        60.29393
390.98        59.98501
391.43        59.65228
391.88        59.30305
392.33        58.97907
392.78        58.71711
393.23         58.5165
393.67        58.38349
394.12        58.32103
394.57        58.07442
395.02        57.67466
395.47        57.41828
395.91        57.30898
396.36        57.07128
396.81        56.73182
397.26        56.49845
397.71        56.33232
398.15        56.10765
398.60        55.88631
399.05        55.51028
399.50        55.14141
399.95        55.28699
400.39        55.80478
400.84        55.98909
401.29        55.73938
401.74        55.22826
402.18        54.63631
402.63        54.40799
403.08        54.50725
403.53        54.34319
403.97        53.90748
404.42        53.64306
404.87        53.56654
405.32        53.51975
405.76        53.48896
406.21        53.45298
406.66        53.38706
407.11         53.4133
407.55        53.44882
408.00        53.11518
408.45        52.51004
408.90        52.05062
409.34        51.86174
409.79        51.96027
410.24         52.2085
410.68        52.26698
411.13        52.08588
411.58        51.85086
412.03        51.63012
412.47        51.47837
412.92         51.4164
413.37        51.43432
413.81        51.48696
414.26        51.54961
414.71        51.59153
415.15        51.63169
415.60        51.64722
416.05        51.64048
416.49        51.61274
416.94        51.55246
417.39        51.46274
417.83        51.34394
418.28        51.20441
418.73        51.05098
419.17        50.90141
419.62        50.79443
420.07        50.73759
420.51        50.71376
420.96        50.72639
421.41        50.74275
421.85        50.72499
422.30        50.70736
422.74        50.66784
423.19        50.63803
423.64        50.62223
424.08        50.68719
424.53         50.7325
424.98        50.71296
425.42        50.64338
425.87        50.32313
426.31        49.93483
426.76        50.24321
427.21        51.05507
427.65        51.11962
428.10        50.45069
428.54        50.17881
428.99        50.36528
429.44        50.39935
429.88         50.2294
430.33        50.11757
430.77        50.05774
431.22        50.03147
431.66        50.06063
432.11        50.38853
432.56        50.91578
433.00        50.90891
433.45        50.19773
433.89        49.89288
434.34         50.2275
434.78        49.22018
435.23        49.00803
435.67        50.06395
436.12        50.09905
436.57        50.31325
437.01         49.9519
437.46        49.79511
437.90        50.39605
438.35        50.13837
438.79        50.34019
439.24        50.15741
439.68        49.96825
440.13         49.6386
440.57        49.30033
441.02        49.39012
441.46         49.8159
441.91         50.0246
442.35        49.95948
442.80        50.21575
443.24        50.66402
443.69        50.68992
444.13        50.31557
444.58         50.0126
445.02        49.85575
445.47        49.89123
445.91        50.04732
446.36        50.08273
446.80        49.96498
447.24         49.8291
447.69        49.73208
448.13        49.74823
448.58        49.83372
449.02        49.74793
449.47        49.51826
449.91        49.39446
450.36        49.40319
450.80         49.3401
451.25        49.21896
451.69        49.18711
452.13        49.20335
452.58        49.02292
453.02         48.6911
453.47        48.49441
453.91        48.45501
454.36        48.44572
454.80        48.41228
455.24        48.39093
455.69        48.39139
456.13        48.22768
456.58         47.9999
457.02         48.2577
457.46        48.58725
457.91        48.55077
458.35        48.07707
458.79        47.87835
459.24        47.95066
459.68        47.97512
460.13        47.98697
460.57        47.83717
461.01        47.48298
461.46        47.82781
461.90        47.70879
462.34        47.13417
462.79        47.40922
463.23        47.34593
463.68        47.39248
464.12        47.15434
464.56        46.77639
465.01        47.02341
465.45        47.61262
465.89        47.60362
466.34         47.1185
466.78        46.85218
467.22         46.7935
467.67        47.32203
468.11        46.73108
468.55        46.68261
468.99        46.66161
469.44        46.57795
469.88        46.41396
470.32        46.20202
470.77        46.00272
471.21        45.87206
471.65        45.83408
472.10        45.87483
472.54        45.92296
472.98        45.91799
473.42        45.85495
473.87        45.66187
474.31        45.41967
474.75        45.56596
475.20        45.98131
475.64        46.01635
476.08        45.72475
476.52        45.62597
476.97        45.70019
477.41        45.91475
477.85        46.02934
478.29        45.64988
478.74        45.42316
479.18        45.48182
479.62        45.67376
480.06        45.81373
480.50        45.80236
480.95        45.85765
481.39         45.9197
481.83        46.10858
482.27          46.158
482.72        46.04117
483.16         45.9701
483.60        46.10561
484.04         45.9715
484.48        45.62255
484.93        45.41127
485.37        45.37972
485.81         46.1357
486.25        45.72556
486.69        47.72754
487.14        48.44629
487.58        47.25743
488.02        46.49556
488.46        45.72394
488.90        45.88845
489.34        45.19162
489.79         44.8489
490.23        45.50427
490.67        45.76306
491.11        45.88301
491.55        45.74347
491.99        45.45922
492.43        45.32313
492.88        45.37436
493.32         45.4427
493.76        45.43662
494.20        45.45488
494.64        45.51947
495.08        45.09851
495.52        45.02155
495.96         45.1413
496.41        45.54718
496.85        45.49631
497.29        45.03369
497.73        44.96989
498.17        45.08129
498.61        45.26133
499.05        45.34845
499.49        45.26599
499.93        45.08596
500.37        45.07416
500.82         45.2241
501.26        45.40792
501.70        45.55744
502.14        45.34107
502.58        45.17474
503.02        45.03629
503.46        45.01891
503.90        44.98734
504.34        44.92134
504.78        44.89774
505.22        44.92992
505.66        44.93445
506.10         44.8917
506.54        44.97108
506.98        45.20643
507.42        44.76876
507.86        45.12558
508.30        44.97653
508.74        44.93324
509.18        44.81367
509.62        44.70787
510.06        44.67173
510.50        44.68721
510.94        44.69627
511.38        44.67178
511.82         44.6252
512.26        44.54891
512.70        44.42848
513.14        44.28273
513.58        44.15731
514.02        44.06723
514.46        43.99783
514.90        43.93811
515.34        43.93549
515.78         43.9978
516.22        44.02495
516.66        43.87223
517.10        44.28609
517.54        44.01818
517.98        44.05225
518.42        44.04006
518.86        44.04874
519.30        44.07944
519.74        44.10004
520.18         44.1162
520.62         44.1753
521.06        44.23993
521.50        44.15669
521.93        43.95795
522.37        43.83491
522.81        43.80843
523.25        43.78229
523.69          43.735
524.13        43.67296
524.57        43.59251
525.01         43.4968
525.45        43.41457
525.89        43.38842
526.32        43.42434
526.76        43.51217
527.20        43.61469
527.64         43.6758
528.08        43.67955
528.52        43.63988
528.96        43.58876
529.40        43.57156
529.83        43.59687
530.27        43.67123
530.71        43.74794
531.15        43.75233
531.59        43.67324
532.03        43.53949
532.46         43.4022
532.90        43.35004
533.34        43.39733
533.78        43.51558
534.22         43.6466
534.66        43.70144
535.09        43.65503
535.53        43.55144
535.97        43.43078
536.41        43.36757
536.85        43.38109
537.28        43.44595
537.72        43.52991
538.16        43.58326
538.60        43.58914
539.04        43.56442
539.47        43.51755
539.91        43.49522
540.35        43.49511
540.79        43.50914
541.22        43.52028
541.66         43.5145
542.10        43.48478
542.54        43.43618
542.97        43.38736
543.41        43.38783
543.85        43.44247
544.29         43.5486
544.72        43.65417
545.16        43.71888
545.60        43.72194
546.04        43.62115
546.47         43.4981
546.91        43.58078
547.35        43.82082
547.79        43.98483
548.22        43.99699
548.66        43.83995
549.10        43.59487
549.53        43.52041
549.97        43.61522
550.41        43.60564
550.84        43.49369
551.28        43.44405
551.72        43.46256
552.15        43.53067
552.59        43.66629
553.03        43.58901
553.46        43.77011
553.90        43.74066
554.34        43.64209
554.77        43.47622
555.21         43.3278
555.65        43.31689
556.08        43.45303
556.52        43.69199
556.96        43.94006
557.39        44.10484
557.83        44.14248
558.27        43.98677
558.70        43.72124
559.14        43.56583
559.57        43.55212
560.01        43.63863
560.45        43.74038
560.88        43.71715
561.32        43.61118
561.75        43.47617
562.19        43.40408
562.63        43.54633
563.06        43.82147
563.50        43.87782
563.93        43.71445
564.37        43.63425
564.80        43.66021
565.24        43.75549
565.68        43.89265
566.11        43.96284
566.55        43.96637
566.98        44.04417
567.42        44.17718
567.85        44.08664
568.29        43.87619
568.72        43.91336
569.16        44.22813
569.60        44.36257
570.03        44.51731
570.47        44.71405
570.90        44.96159
571.34        45.01159
571.77        45.49261
572.21        45.11806
572.64        45.28656
573.08        45.18398
573.51         45.1162
573.95        45.54513
574.38        45.65141
574.82        46.07133
