SpectraSmart Spectrum 2.9.0.0
--------- Device Information -----------
Spectrum Name :  反射率_0
Saving Time :  2024/04/21 00:21:09
Spectro-Module Model Name : SE2030-DUVN
Spectro-Module Serial Number : OS361AC55029948
Wavelength Start : 200
Wavelength End : 1025
Wavelength Unit : Wavelength(nm)
Spectrum Unit : Reflectance(%)
-----------Spectrum Setting ------------
Integration Time : 20ms
Average : 10
Boxcar : 0
Background removal :  enabled
linearity correction :  enabled
SC :  disabled
Intensity correction :  disabled
DWT denoise :  enabled
savitzky-golay :  disabled
FFT :  disabled
Running average :  disabled
Kalman :  disabled
High pass :  disabled
---------------BEGIN--------------------
Wavelength(nm)             Reflectance(%)
200.29               0
200.75       -91.42892
201.21       -47.06336
201.67       -22.93631
202.13       -12.64488
202.58       -9.898552
203.04       -10.73934
203.50       -14.23519
203.96         -18.659
204.42       -22.95243
204.88       -28.71451
205.34       -34.51019
205.80       -39.17729
206.26       -42.39266
206.72       -40.05101
207.18       -37.40697
207.64       -48.52969
208.10        -75.1497
208.55       -112.4799
209.01        -127.487
209.47       -86.90591
209.93       -31.99665
210.39        10.90411
210.85        37.62238
211.31        48.77485
211.77        48.64149
212.23        38.59621
212.69        13.63229
213.14       -32.05437
213.60         -109.73
214.06       -320.4248
214.52       -773.0218
214.98       -342.5684
215.44       -98.71587
215.90       -17.82072
216.36        7.965523
216.81        7.893822
217.27       -15.92094
217.73       -135.0232
218.19        1292.065
218.65        526.7987
219.11       -1194.702
219.57       -66.76747
220.02        4.356056
220.48        16.22181
220.94        8.037234
221.40       -22.56265
221.86       -96.43849
222.32       -146.8878
222.77       -83.05817
223.23       -25.94574
223.69        3.273997
224.15        13.46123
224.61        13.90544
225.06        10.22427
225.52        4.034055
225.98       -2.769122
226.44       -8.847065
226.90       -16.15641
227.36       -20.10239
227.81       -12.99527
228.27       0.1402947
228.73        13.31328
229.19        21.55168
229.65         22.2055
230.10        16.40297
230.56        5.841368
231.02       -7.621907
231.48       -16.31068
231.93       -14.88142
232.39        -6.52586
232.85        2.840299
233.31        8.292925
233.77        10.05984
234.22        10.29695
234.68        9.308993
235.14        7.504314
235.60        5.568995
236.05        2.244044
236.51       -1.934986
236.97        1.970128
237.43          14.886
237.88        23.24024
238.34        21.47425
238.80         49.1426
239.26        34.44891
239.71        29.81809
240.17         16.1658
240.63        2.075233
241.08       -6.235707
241.54       -3.563806
242.00        10.20234
242.46        19.22243
242.91        19.18446
243.37        11.82842
243.83       -0.599309
244.28       -7.594598
244.74       -2.838449
245.20        6.991485
245.66         14.9386
246.11        14.69511
246.57        5.471788
247.03       -10.19657
247.48       -30.62022
247.94       -53.54303
248.40       -83.69932
248.85       -150.4154
249.31       -348.2516
249.77       -514.0559
250.22       -215.9987
250.68       -88.78227
251.14       -47.55083
251.59       -36.61227
252.05       -38.61505
252.51       -48.25224
252.96       -64.45371
253.42       -75.67311
253.88        -71.5985
254.33       -56.55516
254.79       -35.27955
255.25       -13.57655
255.70        3.831071
256.16         16.1009
256.62        24.01567
257.07        28.33976
257.53        30.49907
257.99        31.44588
258.44        31.48855
258.90        31.26039
259.35        30.68699
259.81        30.05468
260.27        29.49608
260.72        29.21301
261.18        29.28089
261.63        29.41819
262.09        29.45051
262.55        29.03473
263.00         28.1796
263.46        27.16435
263.91        26.12397
264.37         25.4781
264.83        25.19947
265.28        25.11573
265.74        25.09717
266.19        24.89265
266.65        24.48763
267.11        23.94431
267.56        23.30919
268.02        22.71048
268.47        22.15141
268.93        21.61476
269.38        21.07295
269.84        20.53233
270.30        19.98763
270.75        19.45963
271.21        18.96231
271.66        18.46162
272.12        17.97521
272.57        17.49781
273.03        17.07585
273.48        16.76938
273.94         16.5836
274.39        16.47296
274.85         16.3751
275.31        16.15199
275.76        15.78412
276.22        15.34526
276.67        14.91402
277.13        14.64036
277.58        14.52687
278.04        14.52201
278.49        14.54325
278.95        14.51302
279.40        14.38529
279.86        14.20854
280.31        13.97416
280.77        13.71725
281.22        13.43722
281.68        13.16978
282.13        12.91315
282.59        12.71404
283.04        12.56664
283.50        12.46603
283.95        12.42787
284.41        12.47847
284.86         12.6065
285.32        12.79908
285.77        12.97597
286.22        13.01836
286.68        12.93202
287.13        12.73106
287.59        12.55736
288.04        12.53055
288.50        12.63868
288.95        12.98581
289.41        13.50281
289.86        13.55507
290.32        13.02046
290.77        14.12264
291.22        13.23317
291.68        13.41811
292.13        13.62369
292.59        13.91717
293.04        14.27109
293.50        14.72297
293.95        15.28799
294.40        15.92257
294.86        16.59727
295.31        17.25601
295.77        17.88021
296.22        18.48098
296.68        19.06853
297.13        19.65679
297.58        20.27009
298.04        20.91332
298.49        21.61978
298.95        22.45911
299.40        23.41719
299.85        24.45869
300.31        25.51121
300.76        26.45834
301.21        27.27149
301.67        28.00375
302.12        28.66947
302.58        29.35517
303.03        30.07815
303.48         30.8574
303.94        31.71473
304.39        32.65867
304.84         33.6835
305.30        34.78214
305.75        35.90837
306.20        37.05398
306.66        38.18686
307.11        39.27346
307.57        40.27193
308.02         41.1024
308.47        41.76024
308.93        42.31833
309.38        42.80783
309.83        43.22995
310.29        43.80065
310.74        44.35403
311.19        44.93915
311.65         45.5303
312.10        46.10823
312.55        46.67708
313.00        47.24186
313.46        47.81044
313.91        48.36496
314.36        48.89859
314.82        49.37189
315.27        49.73811
315.72        49.99396
316.18        50.16299
316.63        50.29903
317.08        50.49673
317.53        50.77891
317.99        51.11678
318.44        51.46484
318.89        51.73708
319.35         51.9099
319.80        52.01086
320.25         52.0717
320.70        52.14575
321.16        52.24591
321.61        52.36862
322.06        52.49726
322.51        52.61022
322.97        52.69844
323.42        52.79063
323.87        52.89736
324.32        53.04318
324.78        53.21939
325.23          53.429
325.68        53.64574
326.13        53.84452
326.59        54.00135
327.04        54.15047
327.49        54.26956
327.94        54.34394
328.39        54.37669
328.85        54.35691
329.30        54.35503
329.75        54.42295
330.20         54.5765
330.66        54.78579
331.11        55.03487
331.56        55.22161
332.01        55.32539
332.46        55.37476
332.92        55.39179
333.37        55.49279
333.82         55.6783
334.27        55.91586
334.72        56.19205
335.17        56.48465
335.63        56.76213
336.08        57.07201
336.53        57.35818
336.98        57.55108
337.43        57.64275
337.88        57.64462
338.34        57.64148
338.79        57.80056
339.24        58.14335
339.69         58.6184
340.14        59.09835
340.59        59.38573
341.05        59.44047
341.50        59.32537
341.95        59.14655
342.40        59.08508
342.85        59.19711
343.30        59.43054
343.75        59.71314
344.20        59.93008
344.66        60.05835
345.11        60.13559
345.56        60.21018
346.01        60.34235
346.46         60.5333
346.91         60.7823
347.36         61.0726
347.81        61.26565
348.26        61.32681
348.72        61.75456
349.17        61.67588
349.62        61.73326
350.07        61.68036
350.52        61.54142
350.97        61.35397
351.42        61.19973
351.87        61.10815
352.32        61.05991
352.77         61.0075
353.22        60.86991
353.67        60.63514
354.13        60.34417
354.58        60.04135
355.03        59.84126
355.48         59.7639
355.93        59.76486
356.38        59.77386
356.83        59.68565
357.28          59.467
357.73        59.14434
358.18        58.75085
358.63        58.34641
359.08        57.95716
359.53        57.57203
359.98        57.18355
360.43        56.77556
360.88        56.34829
361.33        55.92024
361.78        55.50743
362.23        55.13112
362.68        54.79473
363.13        54.48259
363.58        54.18751
364.03        53.89785
364.48        53.60533
364.93        53.31638
365.38        53.00229
365.83        52.62165
366.28        52.17056
366.73        51.65246
367.18        51.13893
367.63        50.74551
368.08        50.49075
368.53        50.34649
368.98        50.19503
369.43        49.84592
369.88        49.26149
370.33        48.49518
370.78        47.69758
371.23         47.1365
371.68        46.89106
372.13         46.8872
372.58        46.97071
373.03        46.89114
373.48        46.57882
373.93         46.1055
374.38         45.5864
374.83        45.21297
375.28        45.03873
375.72         44.9919
376.17        44.97396
376.62        44.83526
377.07        44.53386
377.52        44.10612
377.97        43.63776
378.42        43.27641
378.87        43.06397
379.32        42.96021
379.77        42.85376
380.22        42.57592
380.67        42.09713
381.11        41.47343
381.56        40.83913
382.01        40.42378
382.46        40.28648
382.91        40.34967
383.36        40.46957
383.81        40.42431
384.26        40.16047
384.71        39.75377
385.15        39.28987
385.60        38.94635
386.05         38.7513
386.50        38.64565
386.95        38.58659
387.40        38.51373
387.85        38.40664
388.29        38.27208
388.74        38.15023
389.19        37.99759
389.64        37.81281
390.09        37.59058
390.54         37.3709
390.98        37.22005
391.43        37.16959
391.88         37.1879
392.33        37.21361
392.78        37.16701
393.23        37.03864
393.67        36.81184
394.12        36.58025
394.57        36.46743
395.02        36.44756
395.47        36.31412
395.91        36.10016
396.36        36.00576
396.81        36.05026
397.26         36.1446
397.71        36.20036
398.15        36.12958
398.60         35.9607
399.05        35.63127
399.50        35.29648
399.95        35.28856
400.39        35.56688
400.84        35.81558
401.29        35.90993
401.74        35.70357
402.18        35.27502
402.63         35.0428
403.08        35.02699
403.53        34.87557
403.97        34.60488
404.42        34.48241
404.87        34.50336
405.32         34.5446
405.76        34.58524
406.21        34.61835
406.66        34.62039
407.11        34.64224
407.55        34.62798
408.00         34.3831
408.45        33.98841
408.90        33.64855
409.34        33.50102
409.79          33.755
410.24        34.25793
410.68        34.51009
411.13         34.4477
411.58        34.33288
412.03        34.22401
412.47        34.11728
412.92        34.03798
413.37        33.99442
413.81        33.96587
414.26        33.94786
414.71        33.92836
415.15        33.92213
415.60        33.92917
416.05        33.96924
416.49        34.04247
416.94        34.12315
417.39        34.18785
417.83         34.2038
418.28        34.15889
418.73        34.05524
419.17        33.91178
419.62        33.77614
420.07        33.67191
420.51        33.60197
420.96        33.55255
421.41         33.5127
421.85        33.46799
422.30        33.33654
422.74         33.1876
423.19        33.39766
423.64        33.87532
424.08        34.08971
424.53        33.94351
424.98        33.89283
425.42        33.96844
425.87        33.70374
426.31        33.27745
426.76        33.51089
427.21         34.2682
427.65        34.49129
428.10        34.15801
428.54        34.09337
428.99        34.31687
429.44        34.45338
429.88        34.42336
430.33        34.16906
430.77        33.80235
431.22         33.7468
431.66        33.99176
432.11        34.28075
432.56          34.565
433.00        34.67021
433.45        34.36922
433.89        34.21802
434.34        34.52821
434.78        33.07578
435.23        33.33541
435.67        34.54721
436.12         34.4698
436.57        34.64513
437.01        34.27667
437.46        34.09554
437.90        34.42948
438.35        34.76251
438.79        34.61841
439.24          34.618
439.68        34.62075
440.13        34.46917
440.57         34.2336
441.02        34.40138
441.46        34.84293
441.91        34.75852
442.35        34.27639
442.80        34.36415
443.24        34.90839
443.69        35.06048
444.13        34.77909
444.58        34.60231
445.02        34.56517
445.47        34.58232
445.91        34.62918
446.36        34.64506
446.80        34.61955
447.24        34.60387
447.69        34.61178
448.13        34.70738
448.58        34.76468
449.02        34.70775
449.47         34.5489
449.91        34.48833
450.36        34.55208
450.80        34.58226
451.25        34.58596
451.69        34.66023
452.13        34.76901
452.58        34.73713
453.02        34.57362
453.47         34.4462
453.91        34.36838
454.36        34.26454
454.80        34.12873
455.24        34.04329
455.69        34.03318
456.13        33.95149
456.58        33.84672
457.02        34.09496
457.46        34.39512
457.91         34.3779
458.35        34.10112
458.79        34.00592
459.24        34.13828
459.68        34.21175
460.13        34.21991
460.57         34.1946
461.01        34.13855
461.46        34.01162
461.90        34.11174
462.34        33.81847
462.79        34.01876
463.23        34.12098
463.68        34.29768
464.12        34.19437
464.56        33.89082
465.01        33.99035
465.45         34.3167
465.89         34.2461
466.34        33.88834
466.78        33.66612
467.22        33.59457
467.67        34.13479
468.11         33.9912
468.55        34.00613
468.99        33.84015
469.44        33.78998
469.88         33.8601
470.32        33.86399
470.77        33.81243
471.21        33.79421
471.65        33.81701
472.10        33.85405
472.54        33.87691
472.98        33.87085
473.42        33.83937
473.87        33.74316
474.31          33.614
474.75        33.69241
475.20        33.90658
475.64        33.87436
476.08        33.65114
476.52        33.59108
476.97        33.68888
477.41        33.85397
477.85        34.02094
478.29        33.78049
478.74        33.62609
479.18        33.51634
479.62         33.6547
480.06        33.67773
480.50        33.62128
480.95        33.58844
481.39        33.56749
481.83        33.88015
482.27        34.04082
482.72        34.20288
483.16        34.39185
483.60        34.63678
484.04        34.53095
484.48        34.11125
484.93        33.78931
485.37        33.57662
485.81         33.7934
486.25        33.73212
486.69        33.72489
487.14        33.75042
487.58        33.97372
488.02        33.98331
488.46        33.79941
488.90        34.27499
489.34        33.64402
489.79        33.33512
490.23        33.73091
490.67        33.89558
491.11        34.01307
491.55        33.93961
491.99        33.75082
492.43        33.70628
492.88        33.82199
493.32         33.8894
493.76        33.84403
494.20        33.85885
494.64        33.96902
495.08        33.57338
495.52        33.60583
495.96        33.64326
496.41        33.87128
496.85        33.74614
497.29        33.34987
497.73        33.42306
498.17        33.72678
498.61        33.86037
499.05        33.70948
499.49        33.51556
499.93        33.37682
500.37        33.37041
500.82        33.47616
501.26        33.64741
501.70        33.79093
502.14        33.52715
502.58        33.21442
503.02        33.03886
503.46        33.08736
503.90        33.15441
504.34        33.19152
504.78        33.24785
505.22        33.31929
505.66        33.34098
506.10        33.31862
506.54        33.42601
506.98         33.6959
507.42        33.46692
507.86        33.79693
508.30        33.78291
508.74        33.67006
509.18        33.50722
509.62        33.32917
510.06        33.22605
510.50        33.20186
510.94        33.20697
511.38        33.22048
511.82        33.24293
512.26        33.26126
512.70        33.26212
513.14        33.24779
513.58        33.23309
514.02        33.22189
514.46        33.20175
514.90        33.15179
515.34        33.12703
515.78        33.14307
516.22        33.05986
516.66        32.77745
517.10        33.20784
517.54        32.87899
517.98        32.96222
518.42        33.00608
518.86        33.02512
519.30        33.00878
519.74        32.95622
520.18        32.91372
520.62        32.96767
521.06        33.10067
521.50        33.17375
521.93        33.17574
522.37        33.19442
522.81        33.22764
523.25        33.22012
523.69        33.16677
524.13        33.09033
524.57        33.00004
525.01        32.89542
525.45        32.81185
525.89        32.80458
526.32        32.88014
526.76        33.02272
527.20        33.18832
527.64        33.30618
528.08        33.35414
528.52        33.35062
528.96        33.31663
529.40        33.28347
529.83        33.26233
530.27        33.25958
530.71        33.26272
531.15        33.25238
531.59        33.22557
532.03         33.1924
532.46        33.16227
532.90        33.15398
533.34        33.16667
533.78        33.19404
534.22        33.21379
534.66        33.19223
535.09        33.12148
535.53        33.02596
535.97        32.92759
536.41        32.86994
536.85        32.86372
537.28        32.89484
537.72        32.94662
538.16        32.99068
538.60        33.01654
539.04        33.03436
539.47        33.03655
539.91        33.03972
540.35        33.03699
540.79        33.02118
541.22        33.00204
541.66        33.00577
542.10        33.03205
542.54        33.07756
542.97         33.1099
543.41        33.09483
543.85        33.02816
544.29        32.93277
544.72        32.84202
545.16          32.839
545.60        32.92733
546.04        33.03725
546.47        33.15037
546.91        33.30928
547.35        33.44737
547.79         33.4325
548.22        33.27337
548.66        33.05667
549.10        32.86811
549.53         32.8651
549.97        33.02037
550.41        33.08306
550.84         33.0344
551.28         33.0224
551.72        33.04502
552.15        33.05973
552.59        33.08065
553.03        32.95905
553.46        32.97921
553.90        32.92476
554.34        32.87975
554.77         32.8337
555.21        32.81348
555.65        32.84761
556.08         32.9319
556.52         33.0562
556.96        33.18067
557.39        33.28268
557.83        33.33892
558.27         33.2782
558.70        33.15353
559.14        33.10844
559.57        33.15376
560.01        33.28835
560.45        33.42435
560.88        33.36203
561.32        33.16296
561.75        33.00373
562.19        32.95893
562.63        33.04774
563.06         33.2095
563.50        33.23948
563.93        33.13021
564.37        33.07031
564.80        33.07438
565.24        33.12344
565.68        33.20875
566.11        33.26941
566.55        33.30523
566.98        33.40654
567.42        33.53896
567.85        33.46741
568.29        33.26162
568.72        33.20202
569.16        33.31462
569.60        33.28615
570.03        33.28582
570.47         33.3013
570.90        33.32597
571.34        33.39194
571.77        33.52661
572.21        33.25494
572.64        33.14484
573.08        33.19065
573.51         33.3139
573.95        33.58086
574.38        33.35984
574.82        33.54205
