SpectraSmart Spectrum 2.9.0.0
--------- Device Information -----------
Spectrum Name :  反射率_0
Saving Time :  2024/04/21 00:02:33
Spectro-Module Model Name : SE2030-DUVN
Spectro-Module Serial Number : OS361AC55029948
Wavelength Start : 200
Wavelength End : 1025
Wavelength Unit : Wavelength(nm)
Spectrum Unit : Reflectance(%)
-----------Spectrum Setting ------------
Integration Time : 20ms
Average : 10
Boxcar : 0
Background removal :  enabled
linearity correction :  enabled
SC :  disabled
Intensity correction :  disabled
DWT denoise :  enabled
savitzky-golay :  disabled
FFT :  disabled
Running average :  disabled
Kalman :  disabled
High pass :  disabled
---------------BEGIN--------------------
Wavelength(nm)             Reflectance(%)
200.29               0
200.75        8.594114
201.21        11.66242
201.67        11.27385
202.13        14.24724
202.58        20.69277
203.04        30.87845
203.50        42.00525
203.96        44.92579
204.42        35.69538
204.88        17.58035
205.34       -1.538551
205.80       -12.29609
206.26        -12.1492
206.72        0.938884
207.18        20.11739
207.64        25.19023
208.10        8.063218
208.55        -24.7747
209.01       -47.53937
209.47       -28.95185
209.93        5.445314
210.39        34.00618
210.85        52.41493
211.31        60.62846
211.77        61.46155
212.23        56.20504
212.69        42.05138
213.14         15.5821
213.60       -31.56525
214.06       -162.7819
214.52       -466.0007
214.98       -215.4385
215.44       -57.81545
215.90       -2.676786
216.36         15.5806
216.81        15.92398
217.27     -0.04265841
217.73       -80.90481
218.19        882.5996
218.65        357.9615
219.11       -726.2025
219.57       -18.61573
220.02        25.78128
220.48        33.42707
220.94        29.15407
221.40        11.79957
221.86       -28.09914
222.32       -45.86967
222.77      -0.9705076
223.23        33.79697
223.69        50.12159
224.15        54.64983
224.61        53.02385
225.06        48.10581
225.52        41.74055
225.98        36.67646
226.44        34.22729
226.90        32.95729
227.36        34.25979
227.81        39.41559
228.27        45.64736
228.73        51.25771
229.19        54.53936
229.65        54.48942
230.10        51.60667
230.56        46.73302
231.02        40.83313
231.48        37.53649
231.93        39.09055
232.39        44.01979
232.85        49.15609
233.31        51.96882
233.77        52.70852
234.22        52.53196
234.68        51.88021
235.14        51.56405
235.60        52.11175
236.05        52.79373
236.51        53.61306
236.97        57.99002
237.43        65.61821
237.88        71.10999
238.34        72.60956
238.80        83.51692
239.26        79.89706
239.71        79.03336
240.17        75.17661
240.63        72.58636
241.08        74.64057
241.54        82.31584
242.00        93.44729
242.46         101.923
242.91        106.4443
243.37        106.3103
243.83        100.9851
244.28        92.10566
244.74        82.98383
245.20        75.09451
245.66        67.79121
246.11        58.97071
246.57        47.80854
247.03        35.21891
247.48         22.0044
247.94        9.409658
248.40       -4.120847
248.85       -28.82376
249.31       -84.24947
249.77       -70.09969
250.22        34.88964
250.68         60.5456
251.14        65.95633
251.59        68.48141
252.05        71.65061
252.51        76.58687
252.96        82.22621
253.42        84.31903
253.88        80.89587
254.33        74.88099
254.79        74.35977
255.25        82.27988
255.70        92.82944
256.16        102.4208
256.62        108.2906
257.07        109.0933
257.53         107.315
257.99        104.2918
258.44        101.1215
258.90        99.78387
259.35        99.33663
259.81        99.69365
260.27        99.89472
260.72        99.12347
261.18        98.04827
261.63        96.48989
262.09        95.19302
262.55        94.05195
263.00        92.86945
263.46        91.89784
263.91        90.72617
264.37        89.55862
264.83        88.27868
265.28        86.85142
265.74        85.55952
266.19        84.33052
266.65        83.28299
267.11        82.30388
267.56        81.25007
268.02        80.06219
268.47        78.65269
268.93        77.11271
269.38        75.52013
269.84        74.09956
270.30        72.87457
270.75        71.78471
271.21        70.74064
271.66        69.49825
272.12        68.07942
272.57        66.53229
273.03        65.05679
273.48        63.82381
273.94          62.908
274.39        62.15757
274.85        61.49821
275.31        60.70445
275.76         59.7085
276.22        58.65625
276.67        57.56654
277.13        56.62579
277.58        55.78955
278.04        55.07758
278.49         54.3812
278.95        53.72407
279.40        53.01237
279.86         52.3205
280.31        51.58283
280.77        50.86534
281.22        50.11275
281.68        49.40368
282.13        48.67318
282.59        47.96918
283.04        47.25634
283.50          46.594
283.95        46.00578
284.41         45.6045
284.86        45.37167
285.32        45.30722
285.77        45.30198
286.22         45.2578
286.68        45.16608
287.13        44.99109
287.59        44.84094
288.04        44.74897
288.50        44.72745
288.95        44.81757
289.41        44.98477
289.86        44.77999
290.32        44.16478
290.77        44.58175
291.22        43.77109
291.68        43.80652
292.13        44.01801
292.59        44.44638
293.04        45.04032
293.50        45.78644
293.95        46.66593
294.40        47.65888
294.86        48.73395
295.31        49.83006
295.77         50.9265
296.22        52.00131
296.68        53.07307
297.13        54.15556
297.58        55.27481
298.04        56.43128
298.49        57.61805
298.95        58.85506
299.40        60.11742
299.85        61.40421
300.31          62.705
300.76        63.96147
301.21        65.17409
301.67        66.38331
302.12        67.56315
302.58        68.80358
303.03         70.0808
303.48        71.42728
303.94        72.83974
304.39        74.25115
304.84         75.6533
305.30        77.06507
305.75        78.45063
306.20        79.88016
306.66        81.35503
307.11        82.79372
307.57        84.16061
308.02        85.30989
308.47        86.25663
308.93        87.09067
309.38        87.84413
309.83        88.64291
310.29        89.57011
310.74        90.52716
311.19        91.52291
311.65        92.53275
312.10        93.51394
312.55        94.47662
313.00        95.36417
313.46        96.08835
313.91         96.6245
314.36        97.01371
314.82        97.33926
315.27        97.72866
315.72        98.22307
316.18        98.77971
316.63        99.36134
317.08        99.90732
317.53        100.3841
317.99        100.8072
318.44        101.1472
318.89        101.3407
319.35        101.3895
319.80        101.3263
320.25        101.2332
320.70        101.2527
321.16        101.4156
321.61        101.7021
322.06        102.0511
322.51        102.3662
322.97        102.5949
323.42        102.7915
323.87        102.9505
324.32        103.0843
324.78        103.1837
325.23        103.2802
325.68        103.3635
326.13        103.4523
326.59        103.5338
327.04        103.6659
327.49         103.841
327.94        104.0758
328.39        104.3687
328.85        104.6759
329.30        105.0372
329.75        105.3878
330.20        105.7088
330.66        105.9707
331.11         106.221
331.56        106.4099
332.01        106.5424
332.46        106.6272
332.92        106.6724
333.37        106.8336
333.82        107.0979
334.27        107.4589
334.72        107.8788
335.17        108.2863
335.63        108.6272
336.08        108.9699
336.53        109.3253
336.98        109.7631
337.43        110.2884
337.88        110.8654
338.34        111.3933
338.79        111.7703
339.24        111.9493
339.69         111.981
340.14        111.9587
340.59        112.0308
341.05        112.2448
341.50        112.5695
341.95        112.9632
342.40        113.3577
342.85        113.7209
343.30         114.067
343.75        114.3848
344.20        114.6592
344.66        114.8938
345.11        115.0652
345.56        115.1851
346.01        115.2775
346.46        115.3604
346.91        115.4286
347.36        115.4748
347.81        115.5325
348.26        115.6144
348.72        115.5439
349.17        115.6594
349.62        115.7536
350.07        115.9211
350.52        116.1193
350.97        116.2796
351.42         116.288
351.87        116.1106
352.32        115.7855
352.77        115.3563
353.22        114.8898
353.67        114.4154
354.13        113.9365
354.58         113.441
355.03        112.9642
355.48         112.511
355.93         112.078
356.38        111.6491
356.83        111.1889
357.28        110.6778
357.73         110.117
358.18        109.4945
358.63        108.8007
359.08        108.0529
359.53        107.2733
359.98        106.4953
360.43        105.7633
360.88        105.0843
361.33        104.4378
361.78        103.8245
362.23        103.2454
362.68         102.687
363.13        102.1441
363.58        101.5537
364.03        100.8165
364.48        99.91979
364.93        98.89706
365.38        97.84338
365.83         96.9175
366.28        96.16146
366.73        95.52959
367.18        94.95403
367.63        94.32209
368.08        93.60027
368.53        92.82993
368.98        92.02687
369.43        91.20322
369.88        90.36473
370.33        89.49776
370.78        88.63017
371.23        87.83245
371.68        87.13473
372.13        86.53226
372.58        85.99899
373.03        85.47268
373.48        84.92603
373.93        84.37006
374.38        83.80853
374.83        83.25905
375.28          82.733
375.72        82.20654
376.17        81.70673
376.62        81.20904
377.07        80.69772
377.52        80.16593
377.97        79.61668
378.42        79.07068
378.87        78.54876
379.32        78.06162
379.77        77.59488
380.22        77.11122
380.67        76.59434
381.11        76.05109
381.56        75.50864
382.01        75.03593
382.46        74.65762
382.91        74.36121
383.36        74.08604
383.81        73.73647
384.26        73.29028
384.71        72.77132
385.15        72.24106
385.60        71.85614
386.05        71.61932
386.50        71.49162
386.95        71.37255
387.40        71.11205
387.85         70.6926
388.29        70.13112
388.74        69.62782
389.19        69.27714
389.64        69.08846
390.09        69.00207
390.54        68.93006
390.98        68.72041
391.43        68.38573
391.88        67.98188
392.33        67.57509
392.78        67.25456
393.23        67.04275
393.67        66.86691
394.12        66.78597
394.57         66.7395
395.02        66.70166
395.47         66.6535
395.91        66.57736
396.36        66.43015
396.81        66.23148
397.26        66.02657
397.71        65.79369
398.15        65.50753
398.60         65.2506
399.05         64.8447
399.50        64.44984
399.95        64.53072
400.39        64.95599
400.84        65.12177
401.29        64.90684
401.74        64.31155
402.18        63.54205
402.63        63.23958
403.08        63.37056
403.53        63.20175
403.97        62.71843
404.42        62.44147
404.87        62.40211
405.32        62.41311
405.76        62.45265
406.21        62.55961
406.66         62.6585
407.11        62.67011
407.55          62.564
408.00        62.26311
408.45        61.86616
408.90        61.53083
409.34        61.35357
409.79        61.46355
410.24        61.74638
410.68        61.87078
411.13        61.78991
411.58        61.66898
412.03        61.54111
412.47        61.41471
412.92        61.29379
413.37        61.18866
413.81        61.09777
414.26         61.0684
414.71        61.08513
415.15        61.15403
415.60        61.22372
416.05        61.25525
416.49        61.23355
416.94        61.15596
417.39        61.04539
417.83        60.93104
418.28        60.82716
418.73        60.72981
419.17        60.62511
419.62        60.50208
420.07        60.36435
420.51        60.21786
420.96        60.12326
421.41        60.11916
421.85        60.18406
422.30        60.34312
422.74        60.51241
423.19        60.65674
423.64        60.74571
424.08        60.83598
424.53        60.88925
424.98        60.92152
425.42        60.95417
425.87        60.98613
426.31        61.02338
426.76        61.05359
427.21        61.07331
427.65        61.13558
428.10        61.22275
428.54        61.25645
428.99        61.26728
429.44        61.42275
429.88        61.59095
430.33        61.37693
430.77        60.89386
431.22        60.76768
431.66        60.99875
432.11        61.38234
432.56        61.85445
433.00        61.96884
433.45        61.49219
433.89        61.50992
434.34          62.211
434.78        60.70126
435.23        60.44539
435.67        61.61164
436.12        62.10519
436.57         62.4234
437.01        61.85409
437.46        61.51686
437.90        62.03033
438.35        62.55635
438.79        62.27932
439.24        62.30522
439.68        62.37463
440.13        62.32037
440.57         62.1739
441.02        62.37272
441.46        62.79044
441.91        62.64455
442.35        62.08916
442.80        62.30705
443.24        63.10449
443.69        63.29627
444.13        62.84885
444.58        62.57064
445.02        62.53376
445.47        62.64003
445.91        62.81353
446.36        62.86285
446.80        62.76262
447.24         62.6461
447.69        62.58833
448.13        62.70029
448.58         62.9148
449.02        62.96207
449.47        62.85099
449.91        62.84726
450.36          62.972
450.80        62.98093
451.25        62.90294
451.69        62.94304
452.13        63.05379
452.58         62.9197
453.02        62.57655
453.47        62.35934
453.91        62.28669
454.36        62.20518
454.80        62.08558
455.24        61.99611
455.69        61.95778
456.13        61.83547
456.58        61.69218
457.02        61.88142
457.46        62.00302
457.91        62.03659
458.35        61.96566
458.79        61.87194
459.24        61.79874
459.68        61.64859
460.13        61.50139
460.57        61.29221
461.01        61.02905
461.46        61.12359
461.90        61.12407
462.34        60.76192
462.79        60.86329
463.23        60.96797
463.68        61.25398
464.12        61.12957
464.56        60.69838
465.01        60.79095
465.45        61.19151
465.89        61.17641
466.34        60.83928
466.78        60.57388
467.22         60.3588
467.67        60.87214
468.11        60.20338
468.55        60.13295
468.99        60.10572
469.44        60.08493
469.88        60.05835
470.32        60.05986
470.77        60.09651
471.21        60.11871
471.65        60.11624
472.10        60.10038
472.54        60.04534
472.98        59.93315
473.42        59.77602
473.87         59.6048
474.31        59.43471
474.75        59.38216
475.20         59.4376
475.64         59.5153
476.08        59.60667
476.52        59.69702
476.97        59.72902
477.41        59.89556
477.85         60.1564
478.29        59.73862
478.74        59.26973
479.18        59.49771
479.62        59.30307
480.06        59.35611
480.50        59.29849
480.95        59.27528
481.39        59.19686
481.83        59.53872
482.27        59.64792
482.72         59.4231
483.16        59.50552
483.60        59.78356
484.04         59.7209
484.48        59.34463
484.93        59.21136
485.37        58.95705
485.81        59.48127
486.25        58.95221
486.69        59.58285
487.14        59.39293
487.58        59.14576
488.02        59.35944
488.46        59.31152
488.90        58.87199
489.34        58.95119
489.79        58.56024
490.23        58.82439
490.67        59.00415
491.11        59.22855
491.55        59.08827
491.99        58.65993
492.43         58.4704
492.88        58.54329
493.32        58.57876
493.76         58.5173
494.20        58.51828
494.64        58.59427
495.08        58.38664
495.52        58.46806
495.96        58.45432
496.41        58.46837
496.85        58.42935
497.29        58.31715
497.73        58.32803
498.17          58.168
498.61        58.27417
499.05        58.46518
499.49          58.302
499.93        57.90213
500.37        57.84187
500.82        58.09337
501.26        58.31567
501.70        58.42035
502.14        58.09528
502.58        57.88032
503.02        57.70042
503.46        57.67501
503.90        57.64456
504.34        57.58812
504.78        57.60603
505.22        57.71285
505.66        57.79781
506.10        57.80032
506.54        57.90664
506.98        58.15889
507.42        57.46291
507.86         57.7442
508.30        57.61744
508.74        57.53886
509.18        57.53415
509.62        57.56507
510.06        57.62608
510.50         57.6698
510.94        57.65201
511.38        57.58741
511.82        57.55998
512.26        57.57642
512.70         57.5881
513.14        57.58018
513.58        57.55235
514.02        57.50085
514.46        57.42415
514.90        57.33245
515.34        57.28501
515.78        57.29585
516.22        57.31269
516.66        57.15817
517.10         57.4145
517.54        57.11429
517.98        57.02799
518.42        56.92213
518.86         56.9047
519.30        56.98756
519.74        57.10667
520.18        57.23787
520.62        57.41166
521.06        57.56579
521.50        57.50978
521.93        57.28609
522.37        57.14752
522.81        57.12623
523.25        57.09467
523.69        57.04142
524.13        57.00283
524.57        56.97693
525.01        56.95762
525.45        56.95978
525.89        57.00153
526.32        57.07959
526.76          57.191
527.20        57.29841
527.64        57.34721
528.08        57.32606
528.52         57.2511
528.96        57.16668
529.40         57.1355
529.83        57.16986
530.27        57.27879
530.71        57.40086
531.15        57.43705
531.59        57.36765
532.03         57.2242
532.46        57.06545
532.90        56.99622
533.34        57.03381
533.78        57.14961
534.22        57.26872
534.66        57.27594
535.09        57.14593
535.53        56.94072
535.97        56.73515
536.41        56.66121
536.85        56.74541
537.28        56.93715
537.72        57.16283
538.16        57.30602
538.60         57.3285
539.04        57.26825
539.47        57.14461
539.91        57.03394
540.35        56.94368
540.79        56.86036
541.22        56.78533
541.66        56.73691
542.10        56.71276
542.54        56.71274
542.97        56.72564
543.41          56.757
543.85        56.79847
544.29        56.85894
544.72        56.90888
545.16        56.95066
545.60        56.96896
546.04        56.90826
546.47          56.828
546.91        56.91697
547.35        57.12088
547.79        57.23979
548.22        57.20696
548.66        57.00306
549.10         56.7239
549.53        56.65706
549.97        56.79681
550.41        56.82553
550.84         56.7416
551.28        56.72471
551.72        56.76003
552.15        56.82725
552.59        56.95268
553.03        56.69704
553.46        56.87379
553.90        56.80198
554.34        56.70596
554.77        56.66532
555.21        56.75309
555.65        56.52482
556.08        56.82341
556.52        56.95181
556.96        57.09437
557.39         57.1919
557.83        57.21526
558.27        57.04028
558.70        56.75362
559.14        56.62644
559.57        56.68287
560.01        56.88241
560.45        57.08586
560.88        57.05443
561.32        56.84973
561.75        56.56926
562.19        56.36473
562.63        56.50643
563.06        56.87427
563.50        56.90226
563.93        56.59116
564.37        56.42253
564.80        56.42974
565.24        56.51691
565.68        56.64647
566.11        56.71756
566.55        56.73248
566.98         56.8053
567.42        56.93298
567.85        56.89671
568.29        56.76691
568.72        56.77287
569.16        56.95586
569.60        56.92257
570.03        56.93025
570.47        56.97839
570.90        57.11565
571.34        56.96865
571.77         57.0386
572.21        57.00035
572.64        56.98288
573.08        56.67654
573.51        57.09374
573.95        57.50244
574.38        57.19628
574.82        57.88524
