SpectraSmart Spectrum 2.9.0.0
--------- Device Information -----------
Spectrum Name :  反射率_0
Saving Time :  2024/04/21 00:19:28
Spectro-Module Model Name : SE2030-DUVN
Spectro-Module Serial Number : OS361AC55029948
Wavelength Start : 200
Wavelength End : 1025
Wavelength Unit : Wavelength(nm)
Spectrum Unit : Reflectance(%)
-----------Spectrum Setting ------------
Integration Time : 20ms
Average : 10
Boxcar : 0
Background removal :  enabled
linearity correction :  enabled
SC :  disabled
Intensity correction :  disabled
DWT denoise :  enabled
savitzky-golay :  disabled
FFT :  disabled
Running average :  disabled
Kalman :  disabled
High pass :  disabled
---------------BEGIN--------------------
Wavelength(nm)             Reflectance(%)
200.29               0
200.75       -29.23236
201.21        30.63981
201.67        58.61638
202.13        63.44847
202.58         53.8331
203.04        32.82579
203.50        5.123428
203.96       -12.24578
204.42       -10.26775
204.88        4.639586
205.34         23.9304
205.80        36.21188
206.26        38.28711
206.72         33.5187
207.18        20.63924
207.64      -0.8378281
208.10       -26.09633
208.55       -53.16196
209.01       -63.82744
209.47       -40.06467
209.93       -7.413023
210.39        18.63074
210.85        35.84452
211.31        45.17229
211.77        49.99031
212.23        53.01853
212.69        54.03002
213.14         51.1703
213.60        35.89225
214.06        -35.6788
214.52       -253.8701
214.98       -118.8873
215.44        -10.1298
215.90        29.86203
216.36        42.11808
216.81        37.94907
217.27        14.81676
217.73       -89.76216
218.19        1153.947
218.65        497.1982
219.11       -1101.828
219.57       -50.02578
220.02        17.93601
220.48         32.4398
220.94        31.37323
221.40        17.25101
221.86        -20.4071
222.32       -47.92687
222.77       -16.48993
223.23        11.90778
223.69        26.58636
224.15        32.07348
224.61        32.96853
225.06        32.21548
225.52         30.3311
225.98        27.33948
226.44        23.66128
226.90        18.47933
227.36        14.90475
227.81         18.4069
228.27          26.311
228.73        34.53955
229.19        39.84156
229.65        40.46572
230.10        37.12943
230.56        31.20024
231.02        23.72838
231.48        18.76957
231.93         19.2911
232.39         23.7823
232.85         28.8584
233.31        31.61861
233.77        32.19157
234.22        31.87809
234.68        30.88562
235.14        29.56663
235.60        28.43295
236.05        26.64663
236.51        24.36434
236.97        27.68382
237.43        37.09577
237.88        42.71372
238.34         40.4955
238.80        61.27097
239.26        50.75324
239.71        48.86005
240.17        40.86993
240.63         31.6368
241.08        24.18866
241.54        21.61826
242.00        25.67924
242.46        27.18378
242.91        23.47339
243.37        15.82239
243.83        5.976667
244.28       0.9691123
244.74        4.906306
245.20        12.70586
245.66        19.24786
246.11         20.2215
246.57        14.90359
247.03        4.731763
247.48       -9.663552
247.94       -27.64811
248.40       -54.20697
248.85       -115.6574
249.31       -306.7917
249.77       -496.1684
250.22       -218.0861
250.68       -91.35905
251.14       -46.68962
251.59       -29.44515
252.05       -21.33742
252.51       -14.54122
252.96       -9.034167
253.42       -6.813387
253.88       -7.850868
254.33       -9.650876
254.79       -4.403737
255.25        11.27308
255.70        29.63777
256.16        44.81152
256.62        55.06655
257.07        59.83133
257.53        61.27678
257.99        61.16483
258.44        60.02459
258.90        58.88522
259.35        57.54352
259.81        56.29807
260.27        55.32836
260.72        54.94226
261.18        55.23804
261.63        55.62477
262.09        55.85389
262.55         55.2649
263.00        53.86333
263.46        52.16376
263.91        50.37934
264.37        49.21788
264.83        48.64761
265.28        48.37425
265.74        48.23621
266.19        47.82044
266.65        47.11828
267.11        46.20457
267.56        45.14542
268.02        44.12578
268.47        43.15133
268.93        42.21207
269.38        41.24151
269.84        40.21483
270.30        39.12399
270.75        37.99985
271.21        36.95199
271.66        36.06761
272.12        35.38591
272.57        34.84565
273.03        34.36342
273.48        33.76861
273.94        33.05678
274.39        32.25362
274.85        31.47554
275.31         30.8251
275.76        30.32225
276.22        29.96165
276.67         29.6765
277.13        29.45538
277.58        29.23569
278.04        29.04225
278.49        28.82771
278.95        28.61256
279.40        28.34394
279.86        28.04728
280.31        27.66766
280.77        27.21909
281.22        26.68646
281.68        26.15709
282.13        25.63009
282.59        25.18055
283.04        24.80291
283.50        24.49894
283.95        24.30726
284.41        24.31553
284.86        24.49554
285.32         24.8164
285.77        25.11565
286.22        25.17833
286.68        24.99603
287.13        24.60761
287.59         24.2174
288.04        24.02987
288.50        24.07312
288.95        24.39284
289.41        24.89959
289.86        24.97567
290.32        24.51129
290.77        25.45741
291.22        24.68734
291.68        24.88656
292.13        25.14713
292.59        25.52916
293.04        26.01644
293.50        26.66157
293.95        27.47941
294.40        28.43476
294.86        29.48708
295.31        30.55662
295.77        31.61851
296.22        32.67452
296.68        33.75295
297.13        34.89359
297.58        36.12047
298.04        37.41894
298.49        38.77933
298.95        40.20743
299.40         41.6777
299.85        43.19806
300.31        44.73118
300.76        46.19544
301.21        47.59017
301.67         48.9579
302.12        50.34641
302.58         51.9303
303.03        53.70376
303.48        55.65613
303.94        57.69094
304.39        59.60714
304.84         61.3644
305.30        63.02722
305.75        64.64021
306.20        66.37843
306.66        68.26349
307.11        70.17729
307.57        72.04744
308.02        73.70079
308.47        75.12592
308.93        76.42322
309.38        77.60583
309.83        78.73612
310.29        79.92396
310.74        81.06623
311.19        82.20966
311.65        83.38126
312.10        84.55889
312.55        85.73737
313.00        86.86433
313.46        87.85497
313.91        88.67389
314.36        89.35507
314.82        89.94404
315.27          90.511
315.72        91.09014
316.18        91.66461
316.63         92.2327
317.08        92.79405
317.53        93.33701
317.99        93.85818
318.44        94.33449
318.89         94.7109
319.35        94.97845
319.80        95.16437
320.25        95.29874
320.70        95.43819
321.16        95.59863
321.61        95.78596
322.06        96.00385
322.51        96.26226
322.97        96.54412
323.42         96.8796
323.87        97.22591
324.32        97.52681
324.78        97.74789
325.23        97.93176
325.68        98.09265
326.13        98.28964
326.59        98.51339
327.04        98.79436
327.49        99.08127
327.94        99.32085
328.39        99.50168
328.85        99.61945
329.30        99.75792
329.75        99.93187
330.20        100.1528
330.66        100.3665
331.11         100.635
331.56        100.9328
332.01        101.2549
332.46        101.6128
332.92        101.9109
333.37        102.1216
333.82        102.1962
334.27        102.1653
334.72        102.1609
335.17        102.4043
335.63         102.915
336.08        103.6812
336.53        104.5229
336.98        105.1808
337.43        105.5705
337.88         105.754
338.34        105.8106
338.79        105.9363
339.24        106.1734
339.69        106.4781
340.14        106.8046
340.59        107.0878
341.05        107.3156
341.50        107.5269
341.95        107.7741
342.40        108.1336
342.85        108.6144
343.30        109.1796
343.75        109.7355
344.20        110.1467
344.66        110.3842
345.11        110.4581
345.56        110.4616
346.01        110.5435
346.46        110.7408
346.91        111.0078
347.36        111.2355
347.81        111.2907
348.26        111.1613
348.72        110.7912
349.17        110.5313
349.62         110.428
350.07        110.5898
350.52        110.9234
350.97         111.288
351.42        111.4517
351.87        111.3414
352.32        111.0326
352.77        110.5977
353.22        110.1452
353.67        109.7236
354.13        109.3234
354.58        108.9296
355.03        108.5761
355.48        108.2641
355.93        107.9848
356.38        107.7319
356.83         107.485
357.28        107.2163
357.73        106.9114
358.18        106.5079
358.63        105.9185
359.08        105.1454
359.53        104.2371
359.98        103.2843
360.43        102.4214
360.88        101.6843
361.33        101.0359
361.78        100.4524
362.23         99.8886
362.68        99.32319
363.13         98.7768
363.58         98.2077
364.03        97.54542
364.48        96.78382
364.93        95.93751
365.38        95.09093
365.83        94.39075
366.28        93.86296
366.73        93.45354
367.18        93.07318
367.63        92.57716
368.08        91.92823
368.53        91.18322
368.98        90.37581
369.43         89.5473
369.88        88.71999
370.33        87.87679
370.78        87.06438
371.23        86.38192
371.68        85.85181
372.13        85.44598
372.58         85.0957
373.03        84.67245
373.48        84.13486
373.93        83.52413
374.38        82.85036
374.83        82.14614
375.28        81.45029
375.72        80.74525
376.17        80.12793
376.62        79.67639
377.07        79.38051
377.52        79.19775
377.97        79.02327
378.42        78.68985
378.87        78.16525
379.32         77.5136
379.77        76.81314
380.22        76.16482
380.67           75.59
381.11        75.05924
381.56        74.55759
382.01        74.08397
382.46        73.64657
382.91        73.26431
383.36        72.91866
383.81        72.57077
384.26        72.20566
384.71        71.81805
385.15        71.42104
385.60        71.10213
386.05        70.84529
386.50        70.63127
386.95        70.39622
387.40        70.04809
387.85        69.59174
388.29        69.03713
388.74        68.55566
389.19        68.20435
389.64        67.98695
390.09        67.85147
390.54        67.75694
390.98        67.62415
391.43        67.46841
391.88        67.31075
392.33        67.12653
392.78        66.89416
393.23        66.62384
393.67        66.24236
394.12        65.91091
394.57        65.80772
395.02        65.89173
395.47        65.89526
395.91        65.76014
396.36        65.57312
396.81        65.33966
397.26        65.00632
397.71        64.61672
398.15        64.27863
398.60        64.08745
399.05        63.86263
399.50        63.66845
399.95        63.78166
400.39        64.09727
400.84        64.15297
401.29        63.90454
401.74        63.50021
402.18        63.06622
402.63        62.86177
403.08        62.84313
403.53        62.61845
403.97        62.17524
404.42        61.80173
404.87        61.57285
405.32        61.45573
405.76         61.4421
406.21        61.62312
406.66        61.85622
407.11        61.73695
407.55          61.318
408.00        61.05878
408.45        61.03083
408.90        60.88304
409.34        60.65378
409.79        60.68929
410.24          60.916
410.68        61.00987
411.13        60.93676
411.58        60.83134
412.03        60.70734
412.47        60.56588
412.92        60.40839
413.37        60.24925
413.81        60.10872
414.26        60.06681
414.71        60.11364
415.15        60.24305
415.60        60.38936
416.05        60.48611
416.49        60.50778
416.94        60.46009
417.39         60.3654
417.83        60.25623
418.28         60.1454
418.73        60.01478
419.17        59.86709
419.62        59.72221
420.07        59.58758
420.51        59.46555
420.96        59.36256
421.41        59.24961
421.85        59.10444
422.30        58.94594
422.74        58.79225
423.19        58.82429
423.64        59.01025
424.08        59.20072
424.53        59.29058
424.98        59.40567
425.42        59.55196
425.87         59.4595
426.31        59.24832
426.76        59.52749
427.21        60.15855
427.65        60.20961
428.10        59.70026
428.54        59.49702
428.99        59.65929
429.44        59.73299
429.88        59.66169
430.33        59.57774
430.77         59.4567
431.22        59.46736
431.66        59.58668
432.11         59.6743
432.56        59.77074
433.00        59.84113
433.45         59.6649
433.89        59.58268
434.34        59.85897
434.78        58.35785
435.23        59.28631
435.67        59.64676
436.12        59.86132
436.57        60.00019
437.01        59.91862
437.46        59.76889
437.90        60.17258
438.35        59.89636
438.79        59.91308
439.24        59.80859
439.68        59.83217
440.13        59.90683
440.57        59.99314
441.02        60.09076
441.46        60.14572
441.91        60.10324
442.35        59.97947
442.80        60.13537
443.24        60.48021
443.69        60.67247
444.13        60.64237
444.58        60.53151
445.02        60.39597
445.47        60.40446
445.91        60.60741
446.36        60.67136
446.80        60.60291
447.24        60.53633
447.69        60.50261
448.13        60.60265
448.58        60.63657
449.02        60.55653
449.47        60.35144
449.91        60.25062
450.36        60.28622
450.80        60.25788
451.25        60.19543
451.69        60.26926
452.13        60.43106
452.58        60.39093
453.02        60.15975
453.47        60.02289
453.91        59.98376
454.36        59.88865
454.80         59.7518
455.24        59.67968
455.69        59.69451
456.13        59.74653
456.58         59.7991
457.02        59.84239
457.46        59.58041
457.91        59.51926
458.35        59.64525
458.79         59.6289
459.24        59.51077
459.68        59.44392
460.13        59.47298
460.57        59.34217
461.01         59.0417
461.46        59.07375
461.90        59.01303
462.34        58.50878
462.79        58.77282
463.23        58.82054
463.68        58.97795
464.12        58.82491
464.56        58.47351
465.01        58.69058
465.45        59.20997
465.89        59.15643
466.34        58.64177
466.78        58.28752
467.22        58.18182
467.67        58.47729
468.11         58.4315
468.55        58.40813
468.99        58.20457
469.44        58.08586
469.88        58.04858
470.32        57.93465
470.77        57.70853
471.21        57.63404
471.65        57.70503
472.10        57.86732
472.54        58.01841
472.98        58.05186
473.42        57.95326
473.87        57.69409
474.31        57.36447
474.75        57.38565
475.20        57.67554
475.64        57.67362
476.08        57.41216
476.52        57.34645
476.97        57.45331
477.41        57.60486
477.85        57.75624
478.29        57.54611
478.74        57.28734
479.18        57.53602
479.62        57.73828
480.06        57.86952
480.50         57.6978
480.95        57.75931
481.39         58.0999
481.83        57.51428
482.27        58.09909
482.72        58.17713
483.16        58.02972
483.60        58.39089
484.04         58.4654
484.48        57.98097
484.93        57.42836
485.37        57.79209
485.81        58.55587
486.25        57.61356
486.69        58.20687
487.14        58.19415
487.58        58.21607
488.02        58.05427
488.46        57.89193
488.90        58.09156
489.34        57.48969
489.79        57.78025
490.23        58.08238
490.67        58.37665
491.11        58.44201
491.55        58.27888
491.99        57.99713
492.43        57.86831
492.88        57.93755
493.32        58.04381
493.76        58.09571
494.20        58.14899
494.64        58.20744
495.08        57.88408
495.52        57.83006
495.96        57.88136
496.41        58.12726
496.85        58.20063
497.29         58.0503
497.73        58.01199
498.17        57.83299
498.61         57.9742
499.05        58.26453
499.49        58.20543
499.93        57.85685
500.37        57.79074
500.82        58.06916
501.26        57.97049
501.70        58.46604
502.14        58.15533
502.58        57.95584
503.02        57.57544
503.46        57.92007
503.90        58.07356
504.34        58.15866
504.78        58.19214
505.22        58.16193
505.66        58.01213
506.10        57.80831
506.54        57.77498
506.98        57.95269
507.42        57.78095
507.86        58.37173
508.30        58.06292
508.74        58.25621
509.18        58.07646
509.62         57.9078
510.06        57.83273
510.50          57.855
510.94        57.86953
511.38        57.85072
511.82        57.85587
512.26        57.87431
512.70        57.87579
513.14        57.84572
513.58        57.78911
514.02        57.71127
514.46        57.58863
514.90        57.43811
515.34        57.46189
515.78        57.47347
516.22        57.56997
516.66        57.50991
517.10        57.86992
517.54        57.67974
517.98        57.70315
518.42        57.67654
518.86        57.64978
519.30        57.63207
519.74        57.58174
520.18        57.53529
520.62        57.61835
521.06        57.78943
521.50        57.82846
521.93        57.73242
522.37        57.67886
522.81        57.67443
523.25        57.61328
523.69        57.49894
524.13        57.39098
524.57        57.30045
525.01        57.21624
525.45        57.15993
525.89         57.1636
526.32        57.22621
526.76        57.34024
527.20        57.46957
527.64        57.55732
528.08        57.58622
528.52        57.57172
528.96        57.53084
529.40         57.4868
529.83        57.44681
530.27        57.42881
530.71        57.41887
531.15        57.39358
531.59        57.35121
532.03        57.30935
532.46        57.26612
532.90        57.22829
533.34        57.19483
533.78        57.16471
534.22        57.14419
534.66        57.14305
535.09        57.15318
535.53        57.18984
535.97        57.22798
536.41        57.24414
536.85        57.23411
537.28        57.20401
537.72        57.17302
538.16        57.17498
538.60         57.2132
539.04        57.27332
539.47         57.3211
539.91        57.35235
540.35        57.34807
540.79        57.32473
541.22        57.28436
541.66        57.24391
542.10        57.20605
542.54        57.16088
542.97        57.12761
543.41        57.16584
543.85        57.27457
544.29        57.44998
544.72        57.61197
545.16        57.68672
545.60        57.64716
546.04        57.44798
546.47        57.20896
546.91        57.25811
547.35        57.54286
547.79        57.73425
548.22        57.74234
548.66        57.59751
549.10        57.38139
549.53        57.33911
549.97         57.4699
550.41        57.48109
550.84        57.36335
551.28        57.33107
551.72        57.41028
552.15        57.43235
552.59        57.47812
553.03        57.60373
553.46        57.80209
553.90        57.61169
554.34        57.63179
554.77        57.55514
555.21        57.42405
555.65        57.30259
556.08        57.52654
556.52        57.79057
556.96        58.07887
557.39        58.13471
557.83        57.97567
558.27        57.79988
558.70        57.68023
559.14        57.59549
559.57        57.56543
560.01        57.71688
560.45        57.92537
560.88        57.90845
561.32        57.72797
561.75        57.47502
562.19        57.30437
562.63        57.50752
563.06        57.95918
563.50         58.0651
563.93        57.80974
564.37        57.67322
564.80        57.68415
565.24        57.74072
565.68        57.81952
566.11        57.84767
566.55        57.83837
566.98        57.90614
567.42        58.04239
567.85         58.0099
568.29        57.87643
568.72        57.88857
569.16        58.10897
569.60        58.10323
570.03        58.13893
570.47        58.29082
570.90        58.56812
571.34        58.18424
571.77        58.51708
572.21        58.00412
572.64        58.44525
573.08        58.25206
573.51        58.22004
573.95        58.69685
574.38        58.81976
574.82        59.03578
