SpectraSmart Spectrum 2.9.0.0
--------- Device Information -----------
Spectrum Name :  反射率_0
Saving Time :  2024/04/20 23:55:55
Spectro-Module Model Name : SE2030-DUVN
Spectro-Module Serial Number : OS361AC55029948
Wavelength Start : 200
Wavelength End : 1025
Wavelength Unit : Wavelength(nm)
Spectrum Unit : Reflectance(%)
-----------Spectrum Setting ------------
Integration Time : 20ms
Average : 10
Boxcar : 0
Background removal :  enabled
linearity correction :  enabled
SC :  disabled
Intensity correction :  disabled
DWT denoise :  enabled
savitzky-golay :  disabled
FFT :  disabled
Running average :  disabled
Kalman :  disabled
High pass :  disabled
---------------BEGIN--------------------
Wavelength(nm)             Reflectance(%)
200.29               0
200.75        71.12707
201.21        76.23787
201.67        75.38225
202.13        72.93986
202.58        69.34486
203.04        64.32629
203.50        57.44236
203.96        49.95916
204.42        43.80682
204.88        39.14915
205.34        37.37377
205.80        39.79753
206.26        47.41463
206.72        62.84614
207.18        82.90098
207.64        96.91227
208.10        98.63271
208.55        89.65064
209.01        77.83963
209.47        77.27385
209.93        83.93633
210.39        90.72035
210.85        95.53237
211.31        97.94212
211.77        98.62668
212.23        98.08536
212.69        96.76007
213.14        98.08166
213.60        105.6794
214.06        138.1134
214.52         220.239
214.98        144.8712
215.44        99.12335
215.90        85.02242
216.36        79.68597
216.81        75.92347
217.27        70.28015
217.73        48.67804
218.19        300.1158
218.65        167.7571
219.11       -163.2372
219.57           55.15
220.02        68.63405
220.48        70.01968
220.94        66.35435
221.40        55.66885
221.86         30.5883
222.32        12.80429
222.77        33.26855
223.23        52.31598
223.69        62.04278
224.15        65.13049
224.61        64.64699
225.06        62.36291
225.52        59.04409
225.98        55.45609
226.44         52.1258
226.90        48.22307
227.36        45.42677
227.81        46.81464
228.27        51.00231
228.73        55.68806
229.19        58.65261
229.65        58.47685
230.10        55.48785
230.56        50.57948
231.02        44.54213
231.48        40.72042
231.93        41.38232
232.39         45.1825
232.85        49.43995
233.31        51.96523
233.77        52.87435
234.22          53.236
234.68        52.93045
235.14        51.71847
235.60        49.84521
236.05          46.736
236.51        43.16744
236.97        45.19025
237.43        53.51102
237.88        60.37834
238.34        62.51857
238.80         76.9872
239.26        69.99619
239.71        65.59824
240.17        55.24018
240.63        45.58855
241.08        42.54148
241.54        49.30915
242.00        64.27164
242.46        76.20711
242.91        82.57218
243.37        84.42767
243.83        82.91209
244.28        82.46109
244.74        85.30885
245.20        88.98386
245.66        90.98909
246.11        89.00529
246.57        82.99725
247.03         73.9864
247.48        64.10384
247.94        57.23039
248.40        55.14877
248.85        60.84869
249.31        96.72855
249.77        158.0296
250.22        111.8823
250.68        83.47777
251.14        73.04507
251.59        70.80334
252.05        72.81451
252.51        77.74009
252.96        83.72998
253.42          84.884
253.88        78.02728
254.33        67.58784
254.79        61.00025
255.25        61.15431
255.70        64.72979
256.16        68.87184
256.62        71.84743
257.07        72.82766
257.53        72.72919
257.99        71.86901
258.44        70.27376
258.90        68.70345
259.35        66.76084
259.81        64.96201
260.27        63.17166
260.72        61.39839
261.18        60.06732
261.63        58.84942
262.09        57.92931
262.55        57.02512
263.00        56.00265
263.46        55.08864
263.91        54.15575
264.37        53.49466
264.83        53.00818
265.28        52.57088
265.74        52.18245
266.19         51.6097
266.65        50.89709
267.11        50.04501
267.56        49.08592
268.02        48.17381
268.47        47.29249
268.93        46.44729
269.38        45.57681
269.84        44.65598
270.30        43.67367
270.75        42.66286
271.21        41.69587
271.66         40.8028
272.12        40.02975
272.57        39.33445
273.03        38.72689
273.48        38.16573
273.94        37.65605
274.39        37.15667
274.85        36.67405
275.31        36.13939
275.76        35.53668
276.22        34.93242
276.67        34.32841
277.13        33.82451
277.58         33.3881
278.04        33.02372
278.49        32.67225
278.95        32.35038
279.40        31.99305
279.86         31.6367
280.31        31.21089
280.77        30.71317
281.22        30.11736
281.68        29.51277
282.13        28.89839
282.59        28.36207
283.04        27.89539
283.50        27.49956
283.95        27.20557
284.41        27.09631
284.86        27.14558
285.32        27.33622
285.77        27.51207
286.22        27.47041
286.68        27.20495
287.13         26.7442
287.59        26.29898
288.04        26.08155
288.50        26.11728
288.95        26.44041
289.41        26.93142
289.86        26.93742
290.32        26.34765
290.77        27.08518
291.22        26.13969
291.68        26.20501
292.13        26.40775
292.59        26.79162
293.04         27.3089
293.50        27.95946
293.95        28.74839
294.40         29.6647
294.86        30.70016
295.31        31.82266
295.77        33.02015
296.22        34.27598
296.68        35.59753
297.13        36.99474
297.58        38.48035
298.04         40.0443
298.49        41.68293
298.95        43.41062
299.40        45.20264
299.85         47.0671
300.31        48.95366
300.76        50.75861
301.21        52.48595
301.67        54.19175
302.12        55.96012
302.58         58.0288
303.03        60.39649
303.48        63.03204
303.94        65.79091
304.39        68.38764
304.84        70.75841
305.30        72.98843
305.75         75.1432
306.20        77.44665
306.66        79.93412
307.11        82.45786
307.57        84.93621
308.02        87.16734
308.47        89.14314
308.93        90.97285
309.38        92.66959
309.83        94.33488
310.29        96.02801
310.74        97.66212
311.19        99.26535
311.65         100.861
312.10        102.4173
312.55        103.9351
313.00        105.3363
313.46        106.4965
313.91        107.3827
314.36        108.0543
314.82        108.6267
315.27        109.2686
315.72        110.0427
316.18         110.908
316.63        111.8059
317.08        112.6372
317.53        113.3589
317.99        113.9892
318.44        114.5475
318.89        115.0468
319.35        115.4932
319.80        115.8919
320.25        116.2229
320.70        116.4697
321.16        116.6287
321.61        116.7267
322.06        116.8315
322.51        117.0543
322.97        117.4003
323.42        117.8908
323.87        118.3939
324.32         118.707
324.78        118.7652
325.23        118.6626
325.68        118.5483
326.13        118.7048
326.59        119.1683
327.04        119.9163
327.49        120.7261
327.94        121.2616
328.39        121.4307
328.85        121.2942
329.30        121.1159
329.75          121.19
330.20        121.6109
330.66        122.2384
331.11        122.9872
331.56        123.5564
332.01        123.8657
332.46        124.0076
332.92         124.038
333.37        124.2108
333.82        124.5462
334.27        124.9952
334.72        125.5365
335.17        126.1402
335.63        126.7499
336.08        127.4461
336.53        128.1802
336.98        128.9183
337.43        129.6402
337.88        130.3307
338.34        130.9462
338.79        131.5028
339.24        131.9689
339.69        132.3475
340.14        132.6704
340.59        132.9947
341.05        133.3413
341.50        133.7176
341.95        134.1069
342.40        134.4785
342.85        134.8271
343.30        135.1687
343.75         135.514
344.20        135.8822
344.66        136.2793
345.11          136.66
345.56        137.0195
346.01        137.3548
346.46        137.6671
346.91         137.929
347.36        138.0823
347.81        138.1605
348.26        138.1884
348.72        137.7366
349.17        137.7078
349.62        137.6445
350.07        137.8166
350.52          138.14
350.97        138.4768
351.42        138.5843
351.87        138.3879
352.32        137.9657
352.77          137.42
353.22        136.9079
353.67        136.4786
354.13        136.1052
354.58        135.7152
355.03        135.2547
355.48         134.712
355.93         134.118
356.38        133.5248
356.83        132.9987
357.28        132.5377
357.73        132.1021
358.18        131.6136
358.63        130.9586
359.08        130.1215
359.53        129.1528
359.98        128.1276
360.43        127.1524
360.88        126.2579
361.33        125.4155
361.78        124.6045
362.23        123.7927
362.68        122.9678
363.13        122.1442
363.58        121.3099
364.03        120.4401
364.48        119.5273
364.93        118.5683
365.38        117.5843
365.83        116.6183
366.28        115.6809
366.73        114.7599
367.18         113.837
367.63         112.882
368.08        111.8951
368.53        110.9044
368.98        109.9149
369.43        108.9158
369.88        107.9075
370.33        106.8902
370.78        105.9035
371.23        105.0366
371.68         104.312
372.13        103.6913
372.58        103.1284
373.03        102.5352
373.48        101.8693
373.93        101.1556
374.38         100.357
374.83        99.43172
375.28        98.41093
375.72        97.30758
376.17        96.28448
376.62        95.48469
377.07        94.91727
377.52         94.5255
377.97        94.18787
378.42        93.71271
378.87        93.05992
379.32        92.29616
379.77         91.5108
380.22        90.81874
380.67        90.23109
381.11        89.70329
381.56        89.17143
382.01        88.56625
382.46        87.89062
382.91        87.19786
383.36         86.5288
383.81        85.93213
384.26        85.41702
384.71         84.9549
385.15        84.53559
385.60        84.21246
386.05        83.94905
386.50         83.7338
386.95        83.48539
387.40        83.08809
387.85        82.54025
388.29        81.83788
388.74        81.19418
389.19        80.69408
389.64        80.34177
390.09        80.07729
390.54        79.82767
390.98        79.46272
391.43        79.01858
391.88        78.55321
392.33        78.10009
392.78        77.73747
393.23        77.48444
393.67        77.15434
394.12        76.88972
394.57        76.96098
395.02        77.23961
395.47        77.14113
395.91        76.65682
396.36        76.26448
396.81        75.99886
397.26        75.58133
397.71        75.07572
398.15        74.65749
398.60         74.4219
399.05        74.29179
399.50        74.22729
399.95        74.08553
400.39        73.87698
400.84         73.7816
401.29        73.76879
401.74        73.47176
402.18        72.96597
402.63        72.72906
403.08        72.72254
403.53        72.49196
403.97        72.02228
404.42        71.59681
404.87        71.27354
405.32        71.04364
405.76        70.90959
406.21        70.90813
406.66        70.97415
407.11        70.92683
407.55        70.78535
408.00        70.75694
408.45         70.8371
408.90        70.67668
409.34        70.33218
409.79        70.26377
410.24        70.40892
410.68        70.35637
411.13        70.09374
411.58        69.84112
412.03        69.64931
412.47        69.53439
412.92        69.49412
413.37        69.53068
413.81        69.60631
414.26        69.72094
414.71         69.8399
415.15        69.97909
415.60        70.06747
416.05        70.05024
416.49        69.91982
416.94        69.68378
417.39        69.42139
417.83        69.24557
418.28        69.18883
418.73        69.22786
419.17        69.29316
419.62        69.27536
420.07        69.14803
420.51         68.9413
420.96         68.7639
421.41        68.70874
421.85        68.76389
422.30        68.98185
422.74        69.23322
423.19        69.33295
423.64        69.28682
424.08        69.40543
424.53        69.62612
424.98        69.73004
425.42        69.71735
425.87        69.67314
426.31         69.6503
426.76        69.70411
427.21        69.83039
427.65        69.96563
428.10        70.01081
428.54        69.98373
428.99        69.92029
429.44        69.68312
429.88        69.37975
430.33        69.48539
430.77        69.82907
431.22         70.0248
431.66         70.0166
432.11        69.99674
432.56        70.06908
433.00        70.10683
433.45        69.96255
433.89        70.18925
434.34        70.79298
434.78        69.75117
435.23        69.66117
435.67        70.10502
436.12        70.88119
436.57         71.1671
437.01        70.74339
437.46        70.55659
437.90        71.42529
438.35        70.68566
438.79        71.09686
439.24        70.89866
439.68        70.85325
440.13        70.90722
440.57        71.05933
441.02        71.09341
441.46          71.029
441.91         71.3511
442.35        71.84463
442.80        72.04905
443.24        72.24039
443.69        72.12289
444.13        71.86278
444.58        71.72297
445.02        71.51667
445.47        71.67193
445.91        72.00323
446.36        72.16578
446.80        72.10532
447.24        71.99588
447.69        71.91747
448.13        72.00447
448.58        72.07265
449.02        72.20782
449.47        72.29807
449.91        72.30936
450.36        72.24603
450.80        72.02225
451.25         71.7542
451.69        71.72087
452.13         71.8945
452.58        71.90259
453.02        71.71533
453.47        71.60732
453.91        71.56405
454.36        71.42606
454.80        71.21664
455.24        71.08245
455.69        71.05982
456.13        71.04309
456.58         71.0153
457.02         71.0776
457.46        70.84583
457.91        70.74704
458.35        70.77211
458.79        70.67852
459.24        70.50526
459.68        70.36714
460.13         70.3434
460.57        70.13937
461.01        69.73165
461.46         70.0561
461.90        69.79541
462.34        69.32561
462.79        69.26509
463.23         69.0945
463.68        69.81815
464.12        69.56625
464.56        68.78907
465.01         68.7345
465.45        69.26284
465.89        69.47455
466.34        69.29091
466.78        69.10191
467.22        69.03194
467.67        68.44603
468.11        68.56223
468.55        68.37798
468.99        68.24148
469.44        68.13163
469.88        68.05261
470.32        67.99404
470.77        67.93953
471.21        67.87999
471.65        67.80708
472.10        67.73762
472.54        67.64542
472.98        67.52469
473.42        67.40176
473.87        67.22968
474.31        67.00751
474.75        67.04085
475.20        67.33558
475.64        67.01668
476.08        67.43906
476.52        67.35544
476.97        67.08097
477.41        67.36999
477.85        67.23814
478.29        66.82173
478.74        66.52754
479.18        67.01917
479.62        66.87191
480.06        67.02123
480.50        66.99683
480.95        66.97206
481.39        66.91234
481.83        67.08048
482.27        66.97319
482.72        67.04362
483.16        67.21527
483.60        67.02828
484.04         67.5578
484.48        67.18453
484.93        66.93436
485.37        67.07748
485.81        67.39905
486.25        66.73425
486.69        68.62704
487.14         68.9846
487.58        66.80881
488.02        66.54193
488.46        66.57105
488.90        66.59342
489.34        66.07284
489.79        65.56181
490.23         66.4777
490.67        66.58598
491.11        66.33121
491.55        66.06257
491.99        65.88923
492.43        65.86453
492.88        65.84483
493.32        66.00535
493.76         66.1759
494.20        66.24876
494.64        66.20985
495.08        65.81023
495.52        65.61308
495.96        65.51192
496.41        65.61568
496.85        65.65014
497.29         65.5323
497.73        65.61945
498.17        65.53276
498.61        65.42718
499.05        65.23664
499.49        65.09535
499.93        65.05336
500.37        65.15814
500.82        65.32645
501.26        65.36032
501.70        65.27229
502.14        65.00583
502.58        65.12032
503.02        65.02374
503.46        64.98093
503.90        64.97325
504.34        65.01379
504.78        65.03566
505.22         65.0377
505.66        65.00021
506.10        64.94017
506.54        64.95647
506.98        65.06109
507.42        64.74637
507.86        65.26924
508.30        64.68728
508.74        65.01955
509.18        64.88827
509.62        64.78461
510.06        64.67503
510.50        64.54435
510.94        64.32102
511.38        64.03964
511.82        63.86956
512.26        63.82771
512.70        63.84694
513.14        63.89278
513.58        63.92667
514.02        63.92896
514.46        63.90944
514.90        63.86984
515.34        63.84842
515.78        63.85431
516.22         63.8527
516.66        63.68645
517.10        63.91911
517.54        63.72849
517.98         63.7617
518.42        63.76932
518.86        63.76099
519.30        63.73578
519.74        63.65643
520.18        63.58326
520.62        63.69105
521.06        63.93769
521.50        64.06509
521.93        64.03567
522.37        63.99414
522.81        63.93996
523.25        63.77755
523.69        63.54999
524.13        63.38409
524.57        63.30526
525.01        63.27663
525.45        63.30102
525.89         63.3809
526.32         63.5024
526.76        63.66827
527.20        63.82488
527.64        63.90293
528.08        63.88917
528.52        63.76052
528.96        63.58029
529.40         63.5483
529.83        63.63546
530.27        63.61377
530.71        63.48362
531.15        63.44669
531.59        63.50562
532.03        63.53962
532.46        63.54279
532.90        63.57977
533.34        63.64264
533.78        63.70952
534.22        63.75932
534.66         63.7635
535.09        63.70938
535.53        63.63023
535.97        63.54053
536.41        63.47929
536.85        63.45767
537.28        63.46677
537.72        63.49134
538.16        63.50603
538.60        63.50181
539.04        63.48796
539.47         63.4566
539.91        63.44878
540.35        63.45079
540.79        63.45487
541.22        63.45066
541.66        63.43877
542.10        63.41148
542.54        63.36882
542.97        63.30847
543.41        63.25707
543.85        63.21884
544.29        63.20962
544.72        63.20279
545.16        63.20968
545.60         63.2162
546.04        63.14614
546.47        63.07266
546.91        63.24092
547.35        63.56709
547.79        63.76488
548.22        63.74788
548.66        63.50041
549.10        63.14746
549.53         63.0654
549.97        63.23561
550.41          63.225
550.84        63.02221
551.28        62.90655
551.72         62.9057
552.15        62.93737
552.59        63.01814
553.03        63.06936
553.46        63.20216
553.90         63.1866
554.34        63.05242
554.77        62.81389
555.21        62.59021
555.65        62.53981
556.08        62.67719
556.52        63.00526
556.96        63.37259
557.39        63.46606
557.83        63.30219
558.27        63.14157
558.70        63.04924
559.14         62.9607
559.57        62.89274
560.01        62.96124
560.45        63.09015
560.88        63.10591
561.32        63.05463
561.75        62.92911
562.19        62.81381
562.63        62.93795
563.06        63.20351
563.50        63.06233
563.93        62.59865
564.37         62.5327
564.80        62.81413
565.24         62.9362
565.68        62.88785
566.11        62.92288
566.55        63.04609
566.98        63.20506
567.42        63.38463
567.85        63.20916
568.29        63.17555
568.72        63.18718
569.16        63.36642
569.60        63.63469
570.03        63.58388
570.47        63.69002
570.90        63.76409
571.34        63.88345
571.77        64.19048
572.21        64.02158
572.64        63.82781
573.08         64.2281
573.51        64.01208
573.95        64.20576
574.38        64.08821
574.82        65.08123
