SpectraSmart Spectrum 2.9.0.0
--------- Device Information -----------
Spectrum Name :  反射率_0
Saving Time :  2024/04/21 00:25:54
Spectro-Module Model Name : SE2030-DUVN
Spectro-Module Serial Number : OS361AC55029948
Wavelength Start : 200
Wavelength End : 1025
Wavelength Unit : Wavelength(nm)
Spectrum Unit : Reflectance(%)
-----------Spectrum Setting ------------
Integration Time : 20ms
Average : 10
Boxcar : 0
Background removal :  enabled
linearity correction :  enabled
SC :  disabled
Intensity correction :  disabled
DWT denoise :  enabled
savitzky-golay :  disabled
FFT :  disabled
Running average :  disabled
Kalman :  disabled
High pass :  disabled
---------------BEGIN--------------------
Wavelength(nm)             Reflectance(%)
200.29               0
200.75        -97.0727
201.21       -46.79014
201.67       -15.20882
202.13      -0.8529048
202.58        3.511527
203.04        3.830401
203.50         2.57043
203.96        3.354126
204.42        7.176388
204.88        11.30246
205.34        13.99816
205.80        13.29872
206.26        8.762595
206.72        2.337848
207.18       -6.258763
207.64       -17.12793
208.10       -27.28842
208.55       -36.64621
209.01       -33.39939
209.47       -8.726001
209.93        17.50748
210.39        36.53857
210.85        47.33869
211.31        49.98772
211.77        45.92658
212.23        34.39962
212.69        10.50551
213.14       -30.68202
213.60       -97.25304
214.06       -269.1465
214.52       -606.5874
214.98       -237.2969
215.44       -48.98484
215.90        9.957799
216.36        27.23321
216.81        24.49847
217.27         1.36466
217.73       -108.3129
218.19        1201.995
218.65        505.7354
219.11       -1136.211
219.57       -57.47722
220.02        11.75121
220.48        25.45725
220.94        22.19743
221.40        3.157295
221.86       -44.76445
222.32        -76.8478
222.77       -34.15753
223.23        2.904296
223.69        21.89683
224.15        29.18391
224.61        30.70676
225.06        30.11211
225.52        27.77214
225.98        23.37124
226.44        17.40356
226.90        9.007937
227.36         2.75001
227.81        6.945931
228.27        17.99843
228.73        29.73312
229.19        37.52428
229.65         39.1508
230.10        35.66169
230.56        28.67415
231.02        19.44613
231.48        13.09901
231.93        13.39033
232.39        18.41959
232.85        24.18941
233.31        27.24714
233.77        27.69315
234.22        27.03444
234.68        25.59701
235.14        23.93497
235.60        22.64301
236.05         20.7078
236.51         18.1345
236.97         21.2363
237.43         30.6088
237.88         35.5924
238.34        31.47326
238.80        54.26392
239.26          40.567
239.71        37.18345
240.17        26.78915
240.63        15.93476
241.08        8.968934
241.54        10.25497
242.00        20.25854
242.46        26.08611
242.91        24.22155
243.37        15.59445
243.83        2.715526
244.28       -3.203285
244.74        3.837962
245.20        16.69458
245.66        27.36215
246.11        28.42017
246.57        19.08373
247.03        2.065043
247.48       -20.69725
247.94        -46.7866
248.40       -81.38808
248.85       -156.4944
249.31       -376.4117
249.77       -550.5037
250.22       -214.3476
250.68       -73.85705
251.14       -26.65635
251.59       -8.613127
252.05     -0.05229902
252.51        5.351654
252.96        7.772616
253.42         6.88553
253.88        3.417416
254.33      -0.1556463
254.79       0.7475073
255.25        7.350003
255.70        15.98225
256.16        23.55321
256.62        29.59968
257.07        34.08957
257.53        37.50759
257.99        40.16602
258.44        41.52583
258.90         41.5668
259.35        40.31549
259.81        38.54012
260.27        36.84394
260.72        35.92361
261.18        35.87937
261.63        36.17275
262.09        36.36936
262.55        35.81957
263.00        34.56037
263.46        33.02661
263.91        31.60333
264.37        31.07298
264.83        31.36707
265.28        32.10505
265.74        32.85182
266.19        32.93658
266.65        32.31999
267.11        31.21051
267.56        29.90557
268.02        28.92009
268.47        28.34258
268.93        28.04339
269.38         27.7925
269.84        27.29304
270.30        26.47148
270.75        25.45282
271.21        24.44869
271.66        23.71307
272.12        23.31648
272.57         23.1371
273.03        23.02331
273.48        22.73733
273.94         22.2514
274.39        21.64639
274.85         21.0446
275.31        20.56934
275.76        20.25005
276.22        20.04454
276.67        19.92846
277.13        19.92753
277.58        19.98275
278.04        20.08805
278.49        20.12113
278.95        19.96311
279.40        19.57653
279.86        19.04169
280.31         18.4342
280.77        17.93098
281.22        17.55449
281.68        17.31029
282.13        17.12326
282.59        16.93873
283.04        16.72254
283.50        16.50514
283.95        16.34732
284.41        16.35009
284.86        16.51048
285.32        16.79056
285.77        17.05308
286.22        17.10838
286.68        16.95293
287.13        16.62355
287.59        16.32317
288.04        16.25865
288.50        16.43581
288.95        16.91293
289.41        17.55782
289.86        17.66237
290.32        17.09524
290.77        18.01285
291.22        17.01151
291.68        17.10215
292.13        17.30148
292.59        17.65661
293.04        18.11288
293.50        18.66176
293.95        19.31007
294.40        20.04027
294.86        20.85224
295.31         21.7318
295.77        22.66405
296.22        23.62701
296.68        24.60826
297.13        25.59109
297.58        26.58566
298.04        27.60599
298.49        28.66687
298.95         29.8075
299.40        31.02526
299.85        32.31984
300.31        33.67182
300.76        35.03689
301.21        36.40718
301.67        37.80638
302.12        39.24554
302.58        40.82193
303.03        42.52819
303.48        44.38259
303.94        46.32035
304.39        48.20016
304.84        50.00057
305.30        51.76516
305.75         53.5598
306.20        55.57429
306.66         57.8158
307.11        60.16311
307.57        62.48226
308.02         64.5259
308.47        66.26503
308.93        67.82163
309.38        69.26534
309.83        70.72823
310.29        72.35699
310.74        73.99376
311.19        75.63962
311.65         77.2415
312.10        78.75783
312.55        80.21386
313.00        81.57882
313.46        82.80032
313.91        83.86178
314.36         84.7875
314.82        85.64259
315.27        86.53267
315.72        87.49136
316.18        88.48852
316.63        89.48324
317.08        90.40709
317.53        91.22736
317.99        91.95722
318.44        92.58945
318.89        93.10126
319.35        93.49713
319.80        93.79127
320.25          94.028
320.70        94.28696
321.16        94.58678
321.61        94.93619
322.06        95.30508
322.51        95.64323
322.97        95.92728
323.42        96.20844
323.87        96.49936
324.32        96.83741
324.78        97.20831
325.23        97.61939
325.68        98.03308
326.13        98.42319
326.59        98.75211
327.04        99.07743
327.49        99.35876
327.94        99.56384
328.39        99.69732
328.85        99.74614
329.30        99.83038
329.75        100.0259
330.20        100.3585
330.66        100.7702
331.11        101.2654
331.56        101.7126
332.01        102.0804
332.46        102.4028
332.92        102.6575
333.37        102.9475
333.82        103.2529
334.27        103.5575
334.72        103.9032
335.17        104.3654
335.63        104.9197
336.08        105.5981
336.53        106.2891
336.98        106.8489
337.43         107.237
337.88        107.4924
338.34        107.6577
338.79        107.8679
339.24        108.1458
339.69        108.4651
340.14        108.8213
340.59        109.2111
341.05        109.6261
341.50        110.0763
341.95        110.5406
342.40        110.9801
342.85        111.3834
343.30        111.7605
343.75        112.1028
344.20        112.4077
344.66        112.6896
345.11        112.9264
345.56        113.1685
346.01        113.4941
346.46        113.9095
346.91         114.374
347.36        114.7889
347.81         115.049
348.26        115.1432
348.72        114.9507
349.17        114.8704
349.62        114.8223
350.07        114.9403
350.52        115.1553
350.97        115.3957
351.42        115.5376
351.87        115.5324
352.32         115.422
352.77        115.2175
353.22        114.9307
353.67        114.5829
354.13         114.193
354.58        113.7731
355.03        113.4023
355.48        113.0975
355.93        112.8338
356.38        112.5978
356.83        112.3615
357.28        112.0947
357.73        111.7907
358.18        111.3913
358.63        110.8118
359.08        110.0553
359.53        109.1693
359.98        108.2388
360.43        107.3902
360.88         106.658
361.33        106.0069
361.78        105.4221
362.23        104.8731
362.68        104.3407
363.13        103.8402
363.58        103.3145
364.03        102.6701
364.48        101.8938
364.93        101.0024
365.38        100.0966
365.83        99.35009
366.28        98.79394
366.73         98.3671
367.18        97.95602
367.63        97.37729
368.08        96.59108
368.53        95.67379
368.98        94.69476
369.43         93.7475
369.88        92.86727
370.33        92.02274
370.78        91.23952
371.23        90.57803
371.68        90.04931
372.13         89.6408
372.58         89.2906
373.03        88.88197
373.48        88.37558
373.93        87.79707
374.38        87.16625
374.83        86.53416
375.28        85.93438
375.72        85.34127
376.17        84.81102
376.62        84.35542
377.07        83.95933
377.52        83.60345
377.97        83.24833
378.42        82.83659
378.87        82.36397
379.32        81.85988
379.77        81.33477
380.22        80.79411
380.67        80.23065
381.11        79.62944
381.56        79.01908
382.01        78.47452
382.46        78.02244
382.91          77.666
383.36        77.31368
383.81        76.81502
384.26        76.15104
384.71        75.36961
385.15        74.61272
385.60        74.16345
386.05        74.03969
386.50        74.15086
386.95        74.30301
387.40        74.19444
387.85        73.77155
388.29         73.1078
388.74        72.46077
389.19        71.99648
389.64         71.7488
390.09        71.62946
390.54         71.5702
390.98        71.45308
391.43        71.28362
391.88        71.09741
392.33         70.8917
392.78        70.67548
393.23        70.46059
393.67        70.14345
394.12        69.85497
394.57        69.76144
395.02        69.79753
395.47        69.62228
395.91        69.25477
396.36        68.98667
396.81        68.84955
397.26        68.69701
397.71        68.49064
398.15        68.22751
398.60         67.9826
399.05        67.64547
399.50        67.32925
399.95        67.29887
400.39        67.49758
400.84        67.63065
401.29        67.61025
401.74        67.27793
402.18        66.77043
402.63        66.65631
403.08        66.87575
403.53        66.76822
403.97         66.3104
404.42        65.93699
404.87        65.71909
405.32        65.59888
405.76        65.57878
406.21        65.65943
406.66        65.76158
407.11        65.79879
407.55        65.73499
408.00          65.505
408.45        65.17326
408.90        64.83405
409.34        64.57204
409.79        64.52385
410.24        64.63922
410.68        64.70705
411.13        64.70345
411.58         64.7497
412.03         64.8349
412.47         64.8907
412.92        64.88071
413.37        64.82866
413.81        64.75105
414.26        64.72933
414.71        64.75813
415.15        64.83519
415.60        64.89223
416.05        64.86927
416.49        64.75611
416.94        64.57122
417.39        64.37695
417.83        64.25624
418.28        64.23261
418.73        64.28083
419.17        64.35313
419.62        64.38132
420.07        64.34829
420.51        64.27132
420.96         64.2129
421.41        64.22959
421.85        64.30516
422.30         64.4213
422.74        64.52357
423.19        64.70837
423.64        64.92181
424.08        65.03405
424.53        64.99118
424.98         65.0048
425.42        65.10783
425.87        65.06628
426.31        64.95518
426.76        65.16654
427.21        65.61435
427.65        65.74397
428.10        65.52296
428.54         65.4333
428.99        65.52538
429.44        65.52139
429.88        65.41708
430.33        65.39953
430.77        65.40916
431.22        65.51179
431.66        65.67302
432.11        65.76485
432.56        65.82289
433.00        65.92596
433.45        65.80629
433.89        65.58496
434.34        65.59893
434.78        64.34791
435.23        64.85645
435.67        66.19267
436.12        66.35848
436.57        66.52368
437.01         66.0222
437.46        65.85249
437.90        66.78368
438.35        66.39838
438.79        66.81843
439.24        66.86107
439.68        67.04617
440.13         66.8858
440.57        66.50217
441.02        66.52154
441.46        66.88193
441.91        67.08397
442.35        67.04445
442.80        67.25109
443.24        67.60119
443.69        67.73248
444.13        67.62091
444.58        67.44202
445.02        67.27688
445.47        67.39582
445.91        67.72043
446.36          67.884
446.80        67.84985
447.24        67.77511
447.69        67.72449
448.13        67.90482
448.58        68.07544
449.02         68.0547
449.47        67.81681
449.91        67.69592
450.36        67.72858
450.80        67.64839
451.25        67.49886
451.69        67.51571
452.13        67.65184
452.58        67.56393
453.02          67.286
453.47        67.17307
453.91        67.23138
454.36        67.27911
454.80        67.26541
455.24        67.23515
455.69        67.20655
456.13        67.05195
456.58        66.83536
457.02         66.9343
457.46        66.92833
457.91        66.79982
458.35         66.6087
458.79        66.55756
459.24        66.68613
459.68        66.86378
460.13        67.08143
460.57        67.04589
461.01        66.55598
461.46        66.79543
461.90        66.50328
462.34        65.76793
462.79        66.15415
463.23        66.17949
463.68        66.34698
464.12        66.24733
464.56         65.9623
465.01        66.11762
465.45        66.49084
465.89        66.38329
466.34        65.90353
466.78        65.62965
467.22        65.63327
467.67        65.72252
468.11        65.68578
468.55        65.58303
468.99        65.39471
469.44        65.31806
469.88        65.35817
470.32        65.35841
470.77        65.30307
471.21        65.24718
471.65        65.19203
472.10        65.13389
472.54        65.05904
472.98        64.98567
473.42        64.92393
473.87        64.83834
474.31        64.74349
474.75        64.86249
475.20        65.12932
475.64        65.23022
476.08        65.15266
476.52        65.09682
476.97        65.03904
477.41         64.9734
477.85        64.93202
478.29        64.53239
478.74        64.50732
479.18         64.5411
479.62        64.72327
480.06        64.81278
480.50        64.75419
480.95        64.85126
481.39        65.08434
481.83        64.68385
482.27        65.24625
482.72        64.86783
483.16        64.85358
483.60        65.11076
484.04        65.03195
484.48        64.79826
484.93        64.91479
485.37        64.33619
485.81        64.94805
486.25        64.22702
486.69        65.49044
487.14        65.53423
487.58        65.22004
488.02        64.55125
488.46        64.41277
488.90        64.72061
489.34        64.48618
489.79        63.89482
490.23        64.36859
490.67        64.51426
491.11         64.7523
491.55        64.64795
491.99         64.2932
492.43        64.13896
492.88        64.20547
493.32        64.26097
493.76        64.22699
494.20        64.23161
494.64         64.2904
495.08        63.99905
495.52        63.92297
495.96        64.05956
496.41        64.40577
496.85        64.36088
497.29        63.93954
497.73        63.73374
498.17        63.49954
498.61        63.78743
499.05        64.31479
499.49        64.19109
499.93        63.56298
500.37        63.51611
500.82        64.00287
501.26        64.25496
501.70         64.1936
502.14         63.7887
502.58        63.63604
503.02        63.45893
503.46        63.38548
503.90        63.34258
504.34        63.29214
504.78        63.27721
505.22        63.31075
505.66        63.29552
506.10        63.21008
506.54        63.31394
506.98        63.65409
507.42        63.09037
507.86        63.50818
508.30        63.48307
508.74        63.45906
509.18         63.4533
509.62        63.44193
510.06        63.45092
510.50        63.44497
510.94         63.3708
511.38        63.24687
511.82        63.17004
512.26        63.14997
512.70        63.13296
513.14         63.1202
513.58        63.13408
514.02        63.16885
514.46         63.2165
514.90        63.24115
515.34        63.21933
515.78        63.14956
516.22        63.02244
516.66        62.71832
517.10        62.86801
517.54        62.64348
517.98         62.6889
518.42        62.73617
518.86        62.77603
519.30        62.79511
519.74         62.7641
520.18        62.72517
520.62         62.8213
521.06        63.01167
521.50        63.05283
521.93        62.94253
522.37        62.88161
522.81        62.88095
523.25        62.82331
523.69        62.72532
524.13        62.67057
524.57        62.66809
525.01          62.695
525.45        62.74253
525.89        62.79455
526.32        62.84039
526.76        62.89076
527.20        62.93533
527.64        62.96022
528.08        62.96278
528.52        62.94605
528.96        62.92548
529.40        62.91887
529.83        62.92891
530.27        62.98191
530.71        63.04252
531.15        63.05251
531.59        63.00249
532.03        62.91134
532.46        62.81322
532.90        62.77595
533.34        62.80698
533.78        62.88918
534.22        62.96771
534.66        62.95871
535.09        62.84033
535.53        62.66178
535.97        62.47866
536.41        62.39485
536.85        62.43257
537.28        62.55893
537.72        62.71037
538.16         62.7851
538.60        62.75629
539.04        62.65947
539.47        62.53097
539.91         62.4776
540.35        62.50249
540.79        62.57664
541.22        62.66196
541.66        62.71468
542.10        62.71403
542.54        62.67495
542.97        62.61116
543.41        62.57366
543.85        62.57099
544.29        62.60389
544.72        62.63506
545.16         62.6639
545.60        62.67319
546.04        62.58953
546.47        62.48441
546.91        62.61661
547.35        62.90345
547.79        63.01966
548.22        62.90969
548.66        62.66569
549.10         62.3979
549.53        62.36463
549.97        62.54554
550.41        62.58347
550.84         62.4568
551.28        62.41525
551.72        62.47668
552.15        62.50745
552.59        62.51072
553.03        62.64852
553.46        62.64548
553.90        62.64784
554.34        62.56514
554.77        62.42153
555.21         62.2971
555.65        62.21789
556.08        62.29692
556.52        62.50708
556.96        62.76598
557.39        62.75707
557.83        62.53829
558.27        62.47186
558.70        62.58602
559.14        62.63569
559.57        62.60887
560.01         62.7466
560.45        62.95204
560.88        62.89479
561.32        62.66669
561.75        62.48527
562.19        62.43314
562.63        62.53252
563.06        62.69718
563.50        62.60118
563.93        62.29358
564.37        62.22256
564.80        62.37797
565.24        62.54214
565.68        62.64834
566.11        62.70737
566.55        62.72243
566.98        62.65675
567.42        62.57693
567.85        62.55849
568.29         62.6315
568.72        62.67432
569.16        62.72032
569.60        62.68637
570.03        62.88171
570.47        62.90487
570.90        62.77934
571.34        63.07371
571.77        63.19745
572.21        62.89239
572.64        63.12558
573.08        62.89906
573.51        63.00357
573.95        63.44901
574.38        63.32645
574.82        63.74084
