SpectraSmart Spectrum 2.9.0.0
--------- Device Information -----------
Spectrum Name :  反射率_0
Saving Time :  2024/04/21 00:49:31
Spectro-Module Model Name : SE2030-DUVN
Spectro-Module Serial Number : OS361AC55029948
Wavelength Start : 200
Wavelength End : 1025
Wavelength Unit : Wavelength(nm)
Spectrum Unit : Reflectance(%)
-----------Spectrum Setting ------------
Integration Time : 20ms
Average : 10
Boxcar : 0
Background removal :  enabled
linearity correction :  enabled
SC :  disabled
Intensity correction :  disabled
DWT denoise :  enabled
savitzky-golay :  disabled
FFT :  disabled
Running average :  disabled
Kalman :  disabled
High pass :  disabled
---------------BEGIN--------------------
Wavelength(nm)             Reflectance(%)
200.29               0
200.75       -93.76635
201.21        -29.7399
201.67        7.843953
202.13         23.5612
202.58        26.67599
203.04        23.45258
203.50        16.10969
203.96        9.648707
204.42         7.02352
204.88        5.680641
205.34        4.853781
205.80         3.29676
206.26       0.6678439
206.72       0.1433249
207.18      -0.2543121
207.64       -6.425929
208.10       -18.45103
208.55       -35.05521
209.01       -39.65839
209.47       -15.78197
209.93        14.15186
210.39        37.06589
210.85        50.77766
211.31        55.26271
211.77        52.48364
212.23        42.33472
212.69        20.81473
213.14       -15.01466
213.60       -68.99223
214.06       -197.5386
214.52       -420.9456
214.98       -133.7903
215.44       -3.465527
215.90        34.46653
216.36        45.80903
216.81        46.58044
217.27        38.73272
217.73        -2.96468
218.19        515.8472
218.65        255.6323
219.11       -537.6836
219.57       -9.623188
220.02        24.87792
220.48        30.57215
220.94        26.44525
221.40        11.45788
221.86       -22.94601
222.32        -40.1938
222.77       -3.770102
223.23        24.92279
223.69         38.4244
224.15        42.06504
224.61        40.45143
225.06         36.0918
225.52        30.13899
225.98        24.17805
226.44        19.22583
226.90        14.04409
227.36        11.36914
227.81        15.62888
228.27        23.66076
228.73        31.81636
229.19        36.93407
229.65        37.20069
230.10         33.3119
230.56        26.61331
231.02        18.13572
231.48        12.25945
231.93        12.33567
232.39        16.74897
232.85        22.10887
233.31        25.47563
233.77        26.93487
234.22        27.89517
234.68        28.09064
235.14        26.90069
235.60        24.59163
236.05        20.48073
236.51         15.5812
236.97        18.50068
237.43        30.30722
237.88        39.28904
238.34         41.1108
238.80        64.01319
239.26          55.634
239.71        53.75844
240.17        44.94588
240.63        34.73498
241.08        27.16214
241.54        25.14809
242.00        30.40069
242.46        33.95783
242.91        33.60814
243.37        31.58796
243.83        30.07198
244.28        33.88853
244.74        43.65205
245.20        54.01108
245.66        61.16483
246.11        62.55833
246.57         58.3977
247.03        50.15625
247.48        38.33995
247.94        23.30187
248.40       0.9732323
248.85       -50.81383
249.31       -204.9324
249.77       -315.5204
250.22       -75.77032
250.68        20.75148
251.14        50.83716
251.59        58.58239
252.05        57.14242
252.51         49.4358
252.96        34.83467
253.42         19.3484
253.88        11.17798
254.33        9.910938
254.79        16.58334
255.25        28.35877
255.70        39.96978
256.16        49.66541
256.62        55.89119
257.07        57.88964
257.53        57.48703
257.99        55.82536
258.44        53.88333
258.90        53.16556
259.35         53.0537
259.81         53.3103
260.27        53.28992
260.72        52.44645
261.18        51.22289
261.63        49.74318
262.09        48.35704
262.55        46.97982
263.00         45.5601
263.46        44.25595
263.91        43.03411
264.37           42.25
264.83         41.8106
265.28        41.54691
265.74        41.36782
266.19        40.97704
266.65        40.37287
267.11        39.58688
267.56        38.63288
268.02        37.62265
268.47        36.55945
268.93        35.46484
269.38        34.35249
269.84        33.30452
270.30        32.33861
270.75         31.4585
271.21        30.68745
271.66        29.98447
272.12        29.35857
272.57        28.79078
273.03        28.28019
273.48        27.79336
273.94        27.33346
274.39        26.86943
274.85        26.41463
275.31        25.93202
275.76        25.41874
276.22        24.92494
276.67        24.46377
277.13        24.11832
277.58        23.86431
278.04        23.69299
278.49        23.54316
278.95        23.39807
279.40        23.20243
279.86        22.98533
280.31        22.70589
280.77        22.38037
281.22        21.99347
281.68        21.61295
282.13         21.2215
282.59        20.86329
283.04        20.53341
283.50        20.23976
283.95        20.04351
284.41        20.05595
284.86          20.263
285.32        20.62807
285.77        20.98452
286.22        21.10166
286.68        20.96873
287.13        20.63188
287.59        20.30738
288.04        20.22172
288.50        20.39463
288.95        20.86627
289.41        21.51709
289.86        21.67451
290.32        21.21567
290.77        22.18935
291.22        21.34781
291.68         21.5196
292.13        21.77007
292.59        22.15916
293.04        22.66389
293.50         23.3268
293.95        24.15954
294.40        25.12179
294.86          26.189
295.31        27.30559
295.77        28.44436
296.22         29.6011
296.68         30.7543
297.13        31.86986
297.58        32.96736
298.04          34.063
298.49         35.2271
298.95        36.59112
299.40         38.1537
299.85        39.87385
300.31        41.64046
300.76        43.26068
301.21        44.70119
301.67        46.04086
302.12        47.35326
302.58        48.84827
303.03        50.53895
303.48        52.39856
303.94        54.35155
304.39         56.2338
304.84        58.00884
305.30        59.73878
305.75        61.42796
306.20        63.18124
306.66         65.0099
307.11        66.81794
307.57        68.58756
308.02        70.23519
308.47        71.75729
308.93        73.21854
309.38        74.56628
309.83        75.75327
310.29        76.87499
310.74         77.8577
311.19        78.80415
311.65        79.82493
312.10        80.92575
312.55        82.07947
313.00        83.20959
313.46        84.19199
313.91        84.98029
314.36        85.62379
314.82         86.1831
315.27        86.74967
315.72        87.35976
316.18        87.98458
316.63        88.60265
317.08        89.18577
317.53        89.71484
317.99        90.19405
318.44        90.61765
318.89         90.9595
319.35        91.21789
319.80        91.41044
320.25        91.55273
320.70        91.67686
321.16        91.79436
321.61        91.92315
322.06        92.07872
322.51        92.28784
322.97        92.54099
323.42        92.86092
323.87        93.20732
324.32        93.52793
324.78        93.78468
325.23        94.01419
325.68        94.21547
326.13        94.42183
326.59         94.6184
327.04        94.84048
327.49        95.04829
327.94        95.21009
328.39        95.32341
328.85        95.38097
329.30        95.47231
329.75        95.62178
330.20        95.84846
330.66         96.1148
331.11        96.46021
331.56        96.82377
332.01         97.1917
332.46        97.56725
332.92         97.9194
333.37        98.32764
333.82        98.75316
334.27          99.188
334.72        99.61397
335.17        100.0067
335.63        100.3361
336.08        100.6657
336.53        101.0027
336.98        101.4038
337.43        101.8767
337.88        102.3952
338.34        102.8989
338.79        103.3392
339.24        103.6742
339.69        103.9314
340.14        104.1258
340.59        104.2858
341.05        104.4359
341.50        104.5788
341.95        104.7558
342.40        105.0392
342.85        105.4343
343.30        105.9137
343.75        106.4003
344.20        106.7717
344.66        107.0025
345.11        107.1098
345.56        107.1463
346.01        107.1959
346.46        107.2936
346.91        107.4182
347.36        107.5493
347.81        107.6806
348.26        107.8104
348.72        107.8612
349.17         108.003
349.62        108.1553
350.07        108.3634
350.52        108.5935
350.97        108.7696
351.42         108.772
351.87        108.5739
352.32        108.2181
352.77        107.7834
353.22        107.3876
353.67        107.0694
354.13        106.8204
354.58        106.5806
355.03        106.3034
355.48        105.9729
355.93        105.6021
356.38        105.2274
356.83        104.9004
357.28        104.6127
357.73        104.3286
358.18        103.9691
358.63        103.4178
359.08         102.668
359.53        101.7849
359.98        100.8555
360.43        100.0055
360.88        99.27111
361.33        98.60844
361.78         98.0174
362.23        97.49491
362.68         97.0199
363.13        96.59636
363.58         96.1302
364.03        95.46844
364.48        94.59121
364.93        93.54311
365.38        92.46793
365.83        91.60783
366.28        91.01793
366.73        90.61974
367.18        90.28982
367.63        89.82594
368.08        89.17239
368.53         88.4043
368.98        87.56956
369.43        86.73032
369.88         85.9129
370.33        85.08635
370.78        84.28773
371.23        83.60392
371.68        83.05525
372.13        82.62456
372.58         82.2453
373.03         81.7909
373.48        81.22294
373.93        80.57855
374.38        79.88868
374.83        79.21812
375.28         78.6076
375.72        78.03217
376.17        77.53887
376.62        77.13641
377.07        76.80536
377.52        76.52148
377.97        76.24458
378.42        75.91606
378.87        75.52343
379.32        75.09064
379.77         74.6142
380.22        74.08023
380.67        73.48717
381.11          72.838
381.56        72.18459
382.01        71.63732
382.46        71.23401
382.91        70.95957
383.36         70.7302
383.81        70.40725
384.26        69.95848
384.71        69.41882
385.15        68.86633
385.60          68.485
386.05        68.27902
386.50        68.18861
386.95        68.09908
387.40        67.83996
387.85        67.39099
388.29        66.79102
388.74        66.22878
389.19        65.78751
389.64         65.4837
390.09        65.26218
390.54        65.09173
390.98        64.91386
391.43        64.74979
391.88        64.61426
392.33        64.48078
392.78        64.33366
393.23        64.17472
393.67        63.89267
394.12        63.62714
394.57        63.60495
395.02        63.74942
395.47        63.63674
395.91        63.27276
396.36         63.0067
396.81        62.86725
397.26        62.66538
397.71        62.40965
398.15        62.16248
398.60        61.98899
399.05        61.83476
399.50        61.73191
399.95        61.65072
400.39        61.60793
400.84        61.76078
401.29        61.98227
401.74        61.69472
402.18        60.98473
402.63         60.5634
403.08        60.47102
403.53        60.22197
403.97        59.83564
404.42        59.64908
404.87        59.65305
405.32        59.69143
405.76        59.72794
406.21        59.79945
406.66        59.87771
407.11        59.89341
407.55         59.8378
408.00        59.79942
408.45        59.76837
408.90        59.40588
409.34        58.87435
409.79        58.90167
410.24        59.36591
410.68        59.49458
411.13         59.2445
411.58        59.04368
412.03        58.95192
412.47        58.88931
412.92        58.85709
413.37        58.88384
413.81        58.93614
414.26        59.01455
414.71        59.09241
415.15        59.17685
415.60        59.23057
416.05        59.24429
416.49        59.21531
416.94        59.13887
417.39        59.02924
417.83        58.90156
418.28        58.77069
418.73        58.64043
419.17        58.52505
419.62        58.45376
420.07        58.42967
420.51        58.44212
420.96        58.50135
421.41        58.55273
421.85        58.55621
422.30        58.62215
422.74        58.71781
423.19        58.73123
423.64        58.72692
424.08        59.09841
424.53        59.66468
424.98        59.91338
425.42        59.80382
425.87        59.45676
426.31        59.07893
426.76        59.17715
427.21        59.66882
427.65        59.79842
428.10        59.54203
428.54        59.52025
428.99        59.76313
429.44        59.97896
429.88         60.0575
430.33        59.92594
430.77        59.63209
431.22        59.52942
431.66        59.64362
432.11        59.91722
432.56        60.31218
433.00        60.48447
433.45        60.17373
433.89        60.07338
434.34        60.46349
434.78        59.20879
435.23        59.37451
435.67        60.73612
436.12        60.46044
436.57        60.71876
437.01        60.55743
437.46        60.32748
437.90        60.61921
438.35         61.0126
438.79        60.75403
439.24        60.81598
439.68        60.92187
440.13        60.86467
440.57        60.69246
441.02         60.8597
441.46         61.2772
441.91        61.33422
442.35        61.06922
442.80        61.28344
443.24        61.83992
443.69        61.99866
444.13        61.72699
444.58        61.49292
445.02         61.3695
445.47        61.43607
445.91         61.6366
446.36        61.73877
446.80        61.71498
447.24        61.68189
447.69        61.67288
448.13          61.833
448.58        61.93867
449.02        61.84716
449.47        61.56423
449.91        61.43674
450.36        61.50574
450.80        61.50294
451.25        61.45733
451.69        61.56753
452.13        61.77852
452.58         61.7846
453.02         61.5774
453.47        61.42029
453.91        61.31943
454.36        61.13198
454.80        60.89531
455.24        60.78599
455.69        60.84387
456.13         60.9085
456.58        60.94868
457.02        61.16784
457.46        61.15753
457.91        60.97164
458.35        60.69307
458.79         60.5346
459.24        60.58189
459.68        60.64046
460.13        60.69891
460.57        60.71511
461.01        60.69616
461.46        60.38281
461.90        60.65918
462.34        60.09357
462.79        60.37173
463.23        60.38172
463.68        60.48241
464.12        60.38387
464.56        60.11225
465.01        60.13142
465.45        60.30379
465.89        60.17888
466.34        59.84632
466.78        59.79751
467.22        59.97116
467.67        60.00596
468.11        59.31829
468.55        59.26797
468.99        59.61544
469.44        59.69941
469.88         59.4851
470.32         59.3205
470.77        59.25234
471.21        59.17505
471.65         59.1064
472.10        59.09181
472.54        59.06951
472.98        59.00669
473.42        58.91373
473.87        58.68044
474.31        58.40362
474.75        58.64177
475.20         59.2415
475.64        59.35087
476.08        59.00397
476.52        58.93655
476.97        59.12145
477.41        59.25003
477.85        59.25581
478.29        59.12713
478.74        58.30988
479.18        58.92004
479.62        58.71945
480.06        58.90108
480.50        58.83885
480.95        58.85589
481.39        58.90457
481.83        59.05345
482.27        59.08804
482.72        59.18414
483.16        59.02856
483.60        59.34448
484.04        59.28624
484.48        58.92921
484.93        58.79922
485.37        58.55957
485.81        59.41753
486.25        58.95748
486.69        59.55925
487.14        59.96721
487.58         59.5207
488.02        58.95708
488.46        58.69582
488.90         58.8092
489.34        58.74206
489.79        58.28144
490.23        58.79649
490.67        58.94398
491.11        59.11504
491.55        58.98821
491.99        58.66117
492.43        58.51412
492.88        58.56987
493.32        58.63901
493.76         58.6331
494.20        58.64262
494.64        58.68651
495.08        58.33988
495.52        58.23751
495.96        58.34638
496.41        58.71142
496.85        58.59166
497.29        58.05473
497.73        58.09724
498.17        58.36636
498.61         58.4914
499.05        58.31966
499.49        58.12726
499.93        58.01776
500.37        58.05185
500.82         58.1929
501.26        58.42776
501.70        58.64396
502.14         58.2672
502.58        57.88943
503.02        57.67236
503.46         57.7519
503.90        57.87257
504.34        57.94593
504.78        57.99176
505.22        58.00342
505.66        57.90883
506.10        57.74809
506.54        57.78637
506.98        58.07915
507.42        57.63887
507.86        58.35783
508.30        58.00594
508.74        58.24797
509.18        58.14621
509.62        58.06097
510.06        58.00393
510.50        57.95869
510.94        57.85409
511.38        57.70122
511.82        57.61473
512.26        57.60134
512.70        57.61428
513.14        57.62703
513.58        57.61177
514.02        57.55893
514.46        57.47578
514.90        57.37939
515.34         57.3425
515.78        57.38178
516.22        57.43346
516.66        57.32384
517.10         57.6419
517.54        57.41899
517.98        57.41542
518.42        57.37098
518.86        57.34737
519.30        57.35252
519.74        57.34473
520.18        57.33607
520.62        57.41239
521.06        57.52842
521.50        57.47799
521.93        57.29825
522.37        57.23014
522.81        57.29357
523.25        57.36154
523.69        57.39617
524.13        57.39304
524.57        57.34491
525.01        57.25649
525.45        57.17426
525.89        57.17126
526.32        57.25709
526.76        57.40989
527.20        57.57243
527.64        57.65673
528.08        57.63978
528.52        57.55096
528.96        57.43183
529.40        57.33997
529.83        57.29201
530.27        57.29835
530.71        57.32321
531.15         57.3083
531.59        57.24424
532.03        57.15791
532.46        57.07523
532.90        57.04632
533.34        57.07613
533.78        57.14643
534.22        57.22425
534.66        57.26181
535.09        57.23857
535.53         57.1863
535.97        57.11919
536.41        57.07518
536.85         57.0654
537.28        57.08083
537.72        57.10227
538.16        57.10091
538.60        57.06947
539.04        57.01802
539.47        56.95935
539.91        56.95833
540.35        57.00709
540.79        57.09383
541.22        57.17614
541.66        57.20122
542.10        57.15203
542.54        57.04219
542.97        56.91747
543.41        56.87776
543.85        56.93895
544.29        57.08879
544.72        57.24227
545.16        57.31852
545.60        57.28515
546.04        57.09689
546.47        56.88002
546.91        56.96341
547.35        57.29068
547.79        57.54802
548.22         57.6135
548.66        57.43103
549.10        57.09842
549.53        56.96489
549.97        57.06033
550.41        57.04469
550.84        56.92371
551.28         56.9673
551.72        57.16057
552.15        57.11756
552.59        57.38506
553.03        57.15811
553.46        57.31707
553.90        57.26438
554.34        57.21039
554.77        57.11889
555.21        57.04636
555.65        57.04824
556.08        57.11564
556.52        57.31677
556.96        57.54539
557.39         57.5204
557.83        57.28828
558.27        57.15575
558.70        57.17756
559.14        57.17739
559.57        57.15773
560.01         57.3619
560.45        57.63554
560.88        57.54376
561.32        57.19722
561.75        56.86432
562.19        56.70948
562.63        56.96688
563.06        57.46853
563.50        57.51699
563.93        57.12737
564.37        56.94429
564.80        57.00364
565.24        57.10229
565.68        57.19454
566.11        57.22475
566.55        57.20167
566.98        57.21983
567.42        57.28262
567.85        57.23511
568.29        57.14184
568.72        57.11679
569.16        57.21737
569.60        57.33781
570.03        57.36206
570.47        57.56073
570.90        57.81789
571.34         57.6133
571.77        57.95501
572.21        57.56484
572.64        57.29895
573.08        57.41109
573.51        57.46979
573.95        57.98147
574.38        57.71545
574.82        58.41238
