SpectraSmart Spectrum 2.9.0.0
--------- Device Information -----------
Spectrum Name :  反射率_0
Saving Time :  2024/04/21 00:46:41
Spectro-Module Model Name : SE2030-DUVN
Spectro-Module Serial Number : OS361AC55029948
Wavelength Start : 200
Wavelength End : 1025
Wavelength Unit : Wavelength(nm)
Spectrum Unit : Reflectance(%)
-----------Spectrum Setting ------------
Integration Time : 20ms
Average : 10
Boxcar : 0
Background removal :  enabled
linearity correction :  enabled
SC :  disabled
Intensity correction :  disabled
DWT denoise :  enabled
savitzky-golay :  disabled
FFT :  disabled
Running average :  disabled
Kalman :  disabled
High pass :  disabled
---------------BEGIN--------------------
Wavelength(nm)             Reflectance(%)
200.29               0
200.75       -1.398582
201.21        31.79485
201.67          48.548
202.13        50.81417
202.58        43.26376
203.04        28.51673
203.50        10.40071
203.96        1.227675
204.42        6.680708
204.88        21.40045
205.34        37.62878
205.80         45.2259
206.26        41.27484
206.72        27.94674
207.18        6.214518
207.64       -18.06301
208.10       -36.89262
208.55       -50.41497
209.01       -46.28341
209.47       -17.08131
209.93        13.46908
210.39        35.70443
210.85        49.30656
211.31        55.51172
211.77        56.76566
212.23        53.97341
212.69        44.41839
213.14        22.55998
213.60       -25.31565
214.06       -175.4245
214.52       -543.5284
214.98       -248.8195
215.44       -56.85587
215.90        9.200984
216.36        31.44738
216.81        34.00726
217.27        20.63783
217.73       -51.04588
218.19        820.5919
218.65        360.3328
219.11       -755.8688
219.57       -21.62707
220.02        24.84647
220.48        32.13346
220.94        25.70286
221.40        3.342164
221.86       -49.43951
222.32       -82.95097
222.77        -34.8483
223.23        6.780667
223.69        27.50853
224.15        34.00531
224.61        33.02814
225.06        28.54285
225.52        22.01004
225.98        15.37202
226.44        9.830029
226.90        3.651031
227.36       0.3619669
227.81        5.797905
228.27        16.00411
228.73         26.3909
229.19        32.80312
229.65        32.87382
230.10        27.43645
230.56        17.83763
231.02         5.82238
231.48       -1.483121
231.93       0.5721944
232.39        8.870382
232.85        17.78824
233.31          22.748
233.77         24.0298
234.22        23.66175
234.68        22.09444
235.14        20.07111
235.60        18.39326
236.05        15.92175
236.51        13.18905
236.97        17.85748
237.43        30.38997
237.88        39.51366
238.34        41.17366
238.80        63.95698
239.26         55.6915
239.71        54.01323
240.17        45.92785
240.63        38.22457
241.08        35.85192
241.54        41.62685
242.00        54.10709
242.46        62.14523
242.91        62.89923
243.37        56.89772
243.83        46.29271
244.28        40.50847
244.74        44.94838
245.20        54.50677
245.66        62.58299
246.11        62.60655
246.57        54.02098
247.03          39.333
247.48        20.79771
247.94        1.912227
248.40       -19.28916
248.85       -60.76651
249.31       -168.7197
249.77        -210.703
250.22       -30.82154
250.68        32.26686
251.14        50.46836
251.59          55.671
252.05          56.368
252.51        53.78753
252.96        48.39207
253.42        44.72083
253.88        46.17497
254.33        51.35768
254.79        58.18949
255.25        63.14459
255.70        65.73711
256.16         67.2905
256.62        68.55859
257.07        70.06846
257.53        71.97784
257.99        73.54242
258.44        73.84953
258.90        72.88876
259.35        70.46847
259.81        67.69896
260.27        64.97456
260.72        62.82792
261.18        61.61603
261.63        60.69175
262.09        59.96887
262.55        58.89603
263.00        57.37197
263.46        55.79147
263.91        54.19033
264.37        53.07194
264.83        52.36756
265.28        51.85756
265.74         51.4424
266.19        50.77108
266.65        49.85565
267.11         48.7298
267.56        47.47037
268.02        46.29342
268.47        45.19712
268.93        44.16594
269.38        43.08584
269.84        41.85112
270.30        40.45202
270.75        38.96858
271.21        37.56692
271.66        36.42052
272.12        35.59507
272.57        34.99227
273.03        34.53904
273.48        34.07606
273.94        33.57808
274.39        33.06193
274.85        32.53913
275.31         31.9578
275.76        31.31987
276.22          30.663
276.67        30.06588
277.13          29.734
277.58        29.62222
278.04         29.6706
278.49        29.67382
278.95        29.42859
279.40        28.86091
279.86        28.10433
280.31        27.23966
280.77        26.47392
281.22        25.83747
281.68         25.3433
282.13        24.93425
282.59        24.60454
283.04        24.31666
283.50        24.09864
283.95        23.97513
284.41         24.0057
284.86        24.16941
285.32         24.4477
285.77         24.7158
286.22         24.8191
286.68        24.76091
287.13        24.55676
287.59        24.39312
288.04        24.44642
288.50        24.72152
288.95        25.25583
289.41        25.93643
289.86        26.11905
290.32        25.69849
290.77        26.61777
291.22        25.82262
291.68        25.99074
292.13        26.25409
292.59        26.68157
293.04        27.29084
293.50          28.181
293.95        29.36922
294.40         30.8001
294.86         32.3936
295.31        34.00205
295.77        35.57269
296.22        37.11563
296.68        38.65526
297.13        40.23264
297.58        41.88412
298.04        43.59531
298.49        45.39019
298.95         47.3296
299.40        49.39304
299.85        51.57471
300.31        53.79533
300.76        55.89654
301.21        57.86573
301.67        59.77213
302.12        61.69472
302.58        63.87854
303.03        66.32105
303.48        68.98262
303.94        71.74059
304.39        74.34137
304.84        76.72457
305.30          78.971
305.75        81.09966
306.20        83.26971
306.66        85.51861
307.11        87.72955
307.57        89.89007
308.02        91.88881
308.47          93.741
308.93         95.5275
309.38        97.21619
309.83        98.84901
310.29        100.4527
310.74        101.9722
311.19        103.4584
311.65        104.9734
312.10        106.4975
312.55        108.0205
313.00        109.4439
313.46        110.6149
313.91        111.4905
314.36        112.1316
314.82        112.6801
315.27        113.3461
315.72         114.191
316.18        115.1514
316.63        116.1119
317.08        116.8837
317.53        117.4111
317.99        117.7522
318.44        117.9897
318.89        118.2358
319.35        118.5317
319.80        118.8598
320.25        119.1891
320.70        119.4788
321.16        119.7096
321.61         119.918
322.06          120.14
322.51        120.4366
322.97        120.7963
323.42        121.2335
323.87        121.6591
324.32        121.9509
324.78        122.0611
325.23         122.073
325.68        122.0551
326.13        122.1567
326.59        122.3927
327.04        122.7845
327.49        123.2435
327.94        123.6581
328.39        123.9898
328.85        124.2336
329.30        124.4973
329.75        124.8047
330.20        125.1708
330.66        125.5271
331.11        125.9188
331.56        126.2673
332.01        126.5614
332.46         126.821
332.92        127.0174
333.37         127.267
333.82        127.5392
334.27        127.8365
334.72        128.1735
335.17        128.5709
335.63        128.9985
336.08        129.5221
336.53        130.0965
336.98        130.7012
337.43        131.3159
337.88        131.9225
338.34        132.4779
338.79        132.9922
339.24        133.4264
339.69        133.7867
340.14        134.0713
340.59        134.2845
341.05        134.4469
341.50        134.5853
341.95         134.752
342.40        135.0317
342.85        135.4401
343.30        135.9475
343.75        136.4955
344.20        136.9902
344.66        137.4044
345.11        137.7358
345.56        137.9906
346.01        138.1875
346.46        138.3491
346.91        138.4346
347.36        138.4494
347.81        138.5294
348.26        138.7035
348.72         138.501
349.17        138.7263
349.62        138.7242
350.07        138.7378
350.52        138.7498
350.97        138.7324
351.42        138.6271
351.87         138.414
352.32        138.1056
352.77        137.7567
353.22        137.4512
353.67        137.1996
354.13        136.9947
354.58        136.7225
355.03        136.2582
355.48        135.5891
355.93        134.7702
356.38        133.9281
356.83        133.2503
357.28        132.7627
357.73        132.3898
358.18        132.0139
358.63        131.4509
359.08        130.6576
359.53        129.7103
359.98        128.6735
360.43        127.6359
360.88        126.6362
361.33        125.6502
361.78        124.7063
362.23        123.8555
362.68        123.0983
363.13        122.4188
363.58        121.7528
364.03         120.989
364.48        120.0959
364.93        119.1016
365.38         118.043
365.83        116.9918
366.28        115.9759
366.73        114.9713
367.18        113.9925
367.63        113.0634
368.08        112.1866
368.53        111.3747
368.98        110.5675
369.43        109.6488
369.88        108.5974
370.33        107.4414
370.78        106.2868
371.23        105.3405
371.68        104.6606
372.13        104.1767
372.58        103.7847
373.03        103.3058
373.48        102.6732
373.93        101.9395
374.38        101.1116
374.83        100.2166
375.28        99.30102
375.72        98.35137
376.17        97.48335
376.62        96.77614
377.07        96.22549
377.52        95.79099
377.97        95.40108
378.42        94.94357
378.87        94.39482
379.32        93.79875
379.77        93.17471
380.22        92.53775
380.67        91.88642
381.11        91.20692
381.56        90.52224
382.01        89.90911
382.46        89.39574
382.91        88.97733
383.36        88.58749
383.81        88.11304
384.26        87.52978
384.71        86.87017
385.15         86.2011
385.60        85.69525
386.05        85.35591
386.50        85.13501
386.95         84.9358
387.40        84.61749
387.85        84.15745
388.29         83.5575
388.74        83.01308
389.19        82.57048
389.64        82.23971
390.09        81.98629
390.54        81.74048
390.98        81.38116
391.43        80.93161
391.88        80.42058
392.33        79.94577
392.78        79.59412
393.23        79.37091
393.67        79.32933
394.12        79.41719
394.57        79.08209
395.02        78.42313
395.47        78.16019
395.91        78.29425
396.36        78.18111
396.81        77.81969
397.26        77.61745
397.71        77.52072
398.15        77.22939
398.60         76.8294
399.05        76.34211
399.50        75.90103
399.95        75.70892
400.39          75.771
400.84        75.94733
401.29        76.10992
401.74        75.94772
402.18        75.50024
402.63        75.18651
403.08        75.01923
403.53        74.67793
403.97        74.18048
404.42        73.76202
404.87        73.47304
405.32        73.29539
405.76        73.22294
406.21        73.30331
406.66        73.42028
407.11        73.34686
407.55         73.0908
408.00        72.75753
408.45         72.4595
408.90         72.2855
409.34        72.24416
409.79         72.2813
410.24        72.31683
410.68        72.29019
411.13        72.17765
411.58        71.96436
412.03        71.72831
412.47        71.65379
412.92        71.74685
413.37        71.95473
413.81        72.16006
414.26        72.25263
414.71        72.18291
415.15        72.00828
415.60        71.76548
416.05        71.58457
416.49        71.51109
416.94        71.50194
417.39        71.51778
417.83        71.48957
418.28        71.40169
418.73        71.27271
419.17        71.13028
419.62        71.02657
420.07        70.97301
420.51        70.94292
420.96        70.92984
421.41        70.87605
421.85        70.75276
422.30        70.62164
422.74        70.48702
423.19         70.4974
423.64        70.62148
424.08        70.76326
424.53        70.85272
424.98        70.97307
425.42        71.11715
425.87        71.22734
426.31        71.29852
426.76         71.2774
427.21        71.20473
427.65         71.2961
428.10         71.4597
428.54        71.45911
428.99        71.32949
429.44        71.10262
429.88        70.86194
430.33         70.9429
430.77        71.17564
431.22        71.26466
431.66        71.16438
432.11        71.00353
432.56         70.9155
433.00        70.92649
433.45        70.81409
433.89        70.93137
434.34        71.46344
434.78        70.28127
435.23        70.53773
435.67        71.97499
436.12        71.89243
436.57         72.0394
437.01        71.49183
437.46        71.26687
437.90        72.21827
438.35        71.46104
438.79        72.06202
439.24         72.1073
439.68        72.37249
440.13        72.29616
440.57        71.95779
441.02        72.00656
441.46        72.34243
441.91        72.31197
442.35        71.94447
442.80         72.1322
443.24        72.75748
443.69        72.98972
444.13          72.713
444.58        72.94052
445.02        72.53925
445.47        72.66327
445.91        72.91158
446.36        72.95966
446.80        72.76801
447.24        72.67439
447.69        72.75291
448.13        72.58791
448.58        72.66864
449.02        72.76659
449.47        72.96858
449.91        73.07399
450.36         73.0824
450.80        72.98572
451.25        72.84807
451.69        72.84621
452.13        72.94137
452.58        72.79064
453.02        72.42945
453.47         72.2373
453.91        72.21604
454.36        72.16686
454.80        72.06225
455.24        71.94447
455.69        71.82359
456.13        71.70078
456.58        71.57223
457.02        71.39823
457.46        70.88346
457.91        70.80507
458.35        71.09105
458.79        71.11222
459.24        70.90739
459.68        70.75896
460.13        70.72256
460.57        70.63281
461.01        70.50722
461.46        70.53887
461.90        70.22692
462.34        70.41803
462.79        70.08913
463.23        70.13718
463.68        70.22266
464.12        69.82484
464.56        69.13547
465.01        69.30341
465.45        70.04994
465.89         70.0519
466.34        69.40759
466.78         69.1875
467.22         69.4765
467.67        69.31137
468.11        69.38081
468.55        69.14751
468.99        68.89211
469.44        68.76678
469.88        68.79154
470.32        68.81904
470.77        68.79837
471.21        68.74202
471.65        68.63622
472.10        68.48891
472.54        68.31123
472.98         68.1571
473.42        68.04528
473.87        67.94563
474.31        67.84201
474.75        67.88409
475.20        68.01899
475.64        68.02118
476.08        67.89121
476.52        67.83579
476.97        67.84818
477.41         67.8267
477.85         67.7533
478.29        67.69926
478.74         67.6317
479.18        67.58378
479.62        67.77004
480.06        67.81529
480.50        67.82504
480.95        67.69151
481.39        67.35224
481.83        67.85481
482.27        67.82677
482.72        67.57127
483.16        67.78566
483.60        68.16217
484.04        68.12059
484.48        67.83186
484.93        67.88988
485.37        67.36171
485.81         68.3419
486.25         67.5466
486.69        68.68153
487.14        68.97314
487.58        68.19987
488.02        67.55199
488.46        67.52232
488.90        67.28208
489.34        67.66955
489.79        67.19492
490.23         67.4321
490.67        67.33857
491.11        67.33279
491.55        67.25386
491.99        67.14449
492.43        67.11761
492.88        67.17171
493.32        67.31317
493.76        67.43636
494.20         67.4961
494.64        67.50438
495.08        67.10822
495.52        66.86241
495.96        66.97015
496.41        67.41301
496.85        67.24107
497.29        66.55409
497.73        66.57923
498.17        66.93344
498.61        67.23031
499.05        67.23486
499.49        67.04505
499.93        66.76283
500.37        66.66444
500.82        66.81402
501.26        66.77332
501.70         67.3849
502.14        66.96809
502.58        66.46964
503.02        66.18484
503.46        66.26964
503.90        66.32339
504.34        66.27382
504.78        66.27818
505.22        66.34135
505.66        66.34268
506.10        66.28964
506.54        66.42602
506.98        66.79472
507.42        66.36658
507.86        67.03751
508.30        66.77876
508.74        66.81743
509.18         66.6514
509.62        66.57281
510.06        66.27933
510.50        66.44793
510.94        66.43504
511.38        66.40373
511.82        66.36572
512.26        66.31403
512.70        66.20667
513.14        66.05399
513.58        65.98465
514.02        66.02448
514.46        66.01083
514.90        65.86594
515.34        66.21543
515.78         65.9099
516.22        65.87417
516.66        65.64709
517.10        65.85661
517.54        65.72614
517.98        65.84881
518.42        65.97865
518.86        66.08166
519.30        66.14108
519.74        66.12813
520.18        66.07902
520.62        66.13667
521.06        66.26154
521.50        66.20468
521.93        65.99007
522.37        65.86874
522.81        65.86202
523.25        65.83833
523.69        65.79025
524.13        65.76402
524.57        65.75845
525.01        65.76016
525.45        65.77731
525.89        65.82237
526.32         65.8887
526.76        65.97191
527.20        66.04565
527.64        66.07229
528.08         66.0441
528.52        65.97781
528.96        65.89274
529.40        65.81151
529.83        65.74242
530.27        65.71036
530.71        65.70124
531.15        65.68937
531.59        65.66978
532.03        65.65599
532.46        65.63976
532.90        65.62131
533.34         65.5956
533.78        65.56326
534.22        65.52666
534.66        65.49131
535.09        65.44949
535.53        65.42103
535.97        65.39433
536.41        65.36905
536.85        65.34541
537.28        65.32537
537.72        65.30971
538.16        65.30054
538.60        65.29736
539.04        65.30027
539.47        65.29425
539.91        65.31168
540.35        65.33599
540.79        65.36533
541.22        65.39054
541.66        65.41249
542.10        65.42378
542.54        65.42161
542.97        65.40454
543.41        65.40527
543.85        65.42388
544.29        65.46603
544.72        65.49971
545.16         65.5339
545.60        65.55518
546.04        65.48465
546.47        65.38338
546.91        65.51656
547.35        65.79962
547.79        65.85403
548.22        65.65424
548.66        65.44487
549.10        65.29632
549.53        65.24036
549.97        65.27446
550.41        65.25978
550.84         65.1934
551.28        65.17835
551.72        65.21377
552.15        65.26272
552.59        65.32122
553.03         65.2742
553.46        65.44577
553.90        65.36605
554.34        65.07689
554.77        65.43413
555.21         65.0804
555.65        65.05762
556.08        65.23501
556.52        65.38673
556.96        65.52262
557.39          65.617
557.83        65.65057
558.27        65.47844
558.70        65.18509
559.14        65.04068
559.57        65.06487
560.01        65.20436
560.45        65.35728
560.88        65.34278
561.32        65.22568
561.75        65.10685
562.19        65.07364
562.63        65.21304
563.06        65.44588
563.50        65.42384
563.93        65.17352
564.37        65.12971
564.80        65.26374
565.24        65.32942
565.68        65.30031
566.11        65.26801
566.55        65.24988
566.98        65.22723
567.42        65.21709
567.85        65.14136
568.29        65.10288
568.72        65.20051
569.16        65.39591
569.60        65.73765
570.03        65.61615
570.47         65.6222
570.90        65.56506
571.34        65.65754
571.77        65.93291
572.21        65.61258
572.64        65.76234
573.08        65.51359
573.51        66.03535
573.95        66.33531
574.38         66.1759
574.82        66.58015
