SpectraSmart Spectrum 2.9.0.0
--------- Device Information -----------
Spectrum Name :  反射率_0
Saving Time :  2024/04/21 00:58:10
Spectro-Module Model Name : SE2030-DUVN
Spectro-Module Serial Number : OS361AC55029948
Wavelength Start : 200
Wavelength End : 1025
Wavelength Unit : Wavelength(nm)
Spectrum Unit : Reflectance(%)
-----------Spectrum Setting ------------
Integration Time : 20ms
Average : 10
Boxcar : 0
Background removal :  enabled
linearity correction :  enabled
SC :  disabled
Intensity correction :  disabled
DWT denoise :  enabled
savitzky-golay :  disabled
FFT :  disabled
Running average :  disabled
Kalman :  disabled
High pass :  disabled
---------------BEGIN--------------------
Wavelength(nm)             Reflectance(%)
200.29               0
200.75       -122.2751
201.21       -44.36086
201.67       0.2851734
202.13        17.36006
202.58         18.2568
203.04        9.578525
203.50       -4.488868
203.96       -12.98071
204.42       -10.78979
204.88       -2.953772
205.34        4.995659
205.80        5.388142
206.26       -4.177262
206.72       -20.22935
207.18       -42.12139
207.64       -66.49351
208.10       -85.60431
208.55       -99.63151
209.01       -90.59684
209.47       -47.74704
209.93       -4.134912
210.39        26.95212
210.85        45.34458
211.31        52.66459
211.77        52.10898
212.23        44.37706
212.69        24.85041
213.14       -13.66279
213.60       -86.31429
214.06       -297.2425
214.52        -769.972
214.98       -334.0517
215.44       -79.99868
215.90        3.621308
216.36        30.26977
216.81        30.81877
217.27        8.063453
217.73       -105.7044
218.19        1268.188
218.65        545.3745
219.11       -1239.602
219.57       -64.04419
220.02        11.57005
220.48        26.35598
220.94         22.1859
221.40      -0.3636643
221.86        -55.8875
222.32       -89.77266
222.77       -37.16925
223.23        6.982982
223.69        28.24704
224.15         33.8689
224.61        30.99549
225.06        23.97515
225.52        14.58066
225.98        5.418134
226.44       -1.860909
226.90       -9.281387
227.36       -12.57106
227.81       -4.979942
228.27        8.234458
228.73        21.35943
229.19        29.60764
229.65        30.56256
230.10        25.35818
230.56        15.45463
231.02        2.690247
231.48       -5.336317
231.93       -3.601689
232.39        4.718779
232.85        13.62205
233.31        18.06676
233.77        18.31129
234.22         16.5347
234.68        13.51235
235.14        10.66035
235.60        9.046394
236.05        7.240783
236.51        5.355442
236.97        10.73361
237.43        23.57086
237.88        31.86816
238.34        30.95154
238.80        55.66854
239.26        43.29616
239.71        39.43165
240.17        27.50916
240.63        15.34408
241.08        8.664362
241.54        12.16846
242.00        25.32256
242.46        33.26098
242.91        31.91587
243.37        22.47152
243.83        8.026157
244.28        1.889443
244.74        10.94692
245.20        26.57801
245.66        39.85958
246.11        42.69924
246.57         34.3134
247.03        17.91709
247.48       -5.031937
247.94       -33.53197
248.40       -74.74081
248.85       -168.9777
249.31       -454.7939
249.77       -695.1743
250.22       -262.5325
250.68       -77.46013
251.14       -15.31972
251.59        6.617249
252.05        14.30162
252.51        15.45378
252.96        10.65666
253.42        3.538137
253.88       -1.474899
254.33       -3.695877
254.79      -0.5086972
255.25        7.515385
255.70        16.58241
256.16        24.43918
256.62        30.41761
257.07        34.28195
257.53        36.79695
257.99         38.4632
258.44        39.16629
258.90        39.27816
259.35         38.6373
259.81        37.65212
260.27        36.56604
260.72        35.71382
261.18        35.27631
261.63        34.97202
262.09        34.56652
262.55        33.57841
263.00        32.05701
263.46         30.3719
263.91        28.84199
264.37        28.16215
264.83        28.26315
265.28        28.78704
265.74        29.38505
266.19        29.51301
266.65        29.11424
267.11        28.34749
267.56        27.34072
268.02        26.35279
268.47           25.44
268.93        24.55694
269.38        23.69117
269.84        22.88104
270.30        22.12449
270.75        21.44496
271.21        20.84759
271.66        20.26478
272.12         19.7043
272.57        19.17387
273.03        18.69257
273.48        18.27806
273.94          17.943
274.39        17.65572
274.85         17.4297
275.31        17.24023
275.76        17.07137
276.22         16.9413
276.67        16.82913
277.13        16.75101
277.58        16.67792
278.04        16.60302
278.49        16.49552
278.95        16.36105
279.40        16.16882
279.86        15.94114
280.31        15.64639
280.77        15.29074
281.22        14.87442
281.68        14.46778
282.13        14.07792
282.59        13.76231
283.04        13.51985
283.50        13.33324
283.95        13.24916
284.41        13.34359
284.86        13.59701
285.32        13.97538
285.77        14.31325
286.22        14.36943
286.68        14.13991
287.13        13.68622
287.59        13.25346
288.04        13.11885
288.50        13.30409
288.95        13.85642
289.41        14.62534
289.86        14.86226
290.32        14.41655
290.77        15.51208
291.22        14.62339
291.68        14.83131
292.13        15.11869
292.59        15.53655
293.04        16.02935
293.50        16.59226
293.95        17.23685
294.40        17.94205
294.86        18.72792
295.31        19.61157
295.77        20.58145
296.22        21.61065
296.68        22.64927
297.13        23.62164
297.58        24.53029
298.04        25.41016
298.49        26.32524
298.95        27.39347
299.40        28.62578
299.85        29.98688
300.31        31.41188
300.76        32.78899
301.21        34.09141
301.67        35.36921
302.12         36.6427
302.58         38.0192
303.03        39.50222
303.48        41.09884
303.94        42.77746
304.39        44.45448
304.84        46.11037
305.30        47.77082
305.75        49.43978
306.20        51.20425
306.66        53.06014
307.11        54.93253
307.57        56.75354
308.02        58.38464
308.47         59.8097
308.93        61.10204
309.38        62.29863
309.83        63.46064
310.29        64.74034
310.74        66.00421
311.19        67.23247
311.65        68.32491
312.10        69.25438
312.55         70.0584
313.00        70.83301
313.46        71.72953
313.91        72.75594
314.36        73.86212
314.82        74.92464
315.27        75.75395
315.72        76.31641
316.18        76.67697
316.63        76.94598
317.08        77.30933
317.53        77.81245
317.99        78.38762
318.44        78.96029
318.89         79.3979
319.35        79.66473
319.80        79.82417
320.25        79.90872
320.70        79.96871
321.16         80.0277
321.61        80.08315
322.06        80.17126
322.51        80.36095
322.97        80.64379
323.42        81.02354
323.87        81.41162
324.32        81.66892
324.78        81.74401
325.23        81.70791
325.68        81.60893
326.13         81.5569
326.59         81.5725
327.04         81.6659
327.49        81.81552
327.94        82.01089
328.39         82.2402
328.85         82.4916
329.30        82.77581
329.75        83.00136
330.20        83.15076
330.66        83.20474
331.11        83.26469
331.56        83.40308
332.01        83.64616
332.46        83.97178
332.92        84.28618
333.37        84.54037
333.82        84.67455
334.27        84.72417
334.72        84.76571
335.17        84.92412
335.63         85.2106
336.08        85.63694
336.53        86.11159
336.98        86.51948
337.43        86.82211
337.88        87.04486
338.34        87.22363
338.79        87.46302
339.24        87.76649
339.69        88.09931
340.14        88.40771
340.59        88.61576
341.05        88.71525
341.50        88.74947
341.95        88.76991
342.40        88.86018
342.85        89.04977
343.30        89.31447
343.75        89.62855
344.20        89.95403
344.66        90.27418
345.11        90.57358
345.56        90.84625
346.01        91.07735
346.46        91.26089
346.91        91.41335
347.36         91.5203
347.81        91.53864
348.26        91.47594
348.72        91.46341
349.17        91.36011
349.62        91.43443
350.07        91.64185
350.52        91.94183
350.97        92.23278
351.42        92.35064
351.87        92.25364
352.32         91.9952
352.77        91.64235
353.22        91.29862
353.67        91.00462
354.13        90.74773
354.58        90.51195
355.03        90.32113
355.48        90.16981
355.93        90.05351
356.38        89.93857
356.83        89.76715
357.28        89.51437
357.73          89.179
358.18        88.76725
358.63        88.30155
359.08        87.79933
359.53         87.2702
359.98        86.71408
360.43        86.12391
360.88        85.50676
361.33        84.87352
361.78        84.26959
362.23        83.76267
362.68        83.36121
363.13        83.04086
363.58         82.7292
364.03        82.31081
364.48        81.75674
364.93        81.09699
365.38         80.3952
365.83          79.761
366.28        79.22278
366.73        78.74247
367.18        78.27867
367.63        77.76535
368.08        77.18832
368.53        76.58613
368.98        75.96616
369.43        75.32697
369.88        74.67341
370.33        73.99621
370.78        73.34477
371.23        72.81739
371.68         72.4377
372.13        72.18128
372.58        71.96285
373.03        71.63739
373.48        71.16424
373.93        70.57865
374.38        69.95347
374.83        69.41912
375.28        69.01876
375.72        68.70647
376.17        68.44048
376.62        68.11175
377.07        67.68819
377.52        67.19046
377.97        66.67905
378.42        66.26355
378.87        65.97584
379.32        65.78584
379.77        65.60324
380.22        65.29008
380.67        64.81507
381.11        64.21697
381.56        63.59391
382.01        63.12695
382.46         62.8678
382.91        62.76532
383.36        62.69492
383.81        62.46453
384.26        62.03017
384.71         61.4497
385.15        60.83277
385.60        60.40343
386.05        60.18518
386.50        60.11527
386.95        60.06825
387.40        59.85304
387.85         59.4464
388.29        58.89982
388.74        58.41085
389.19        58.09793
389.64        57.97593
390.09        57.96902
390.54        58.00755
390.98        57.97123
391.43        57.85716
391.88        57.70293
392.33        57.50475
392.78        57.27359
393.23        57.02833
393.67        56.68174
394.12         56.3744
394.57        56.30201
395.02        56.41175
395.47         56.3892
395.91        56.20607
396.36        56.04981
396.81        55.93538
397.26        55.75452
397.71        55.52015
398.15        55.32407
398.60        55.23396
399.05         55.0608
399.50        54.88187
399.95        55.00576
400.39         55.3175
400.84         55.3478
401.29        55.04451
401.74        54.49571
402.18        53.88557
402.63        53.68298
403.08        53.84423
403.53        53.76859
403.97        53.43278
404.42        53.26158
404.87        53.26216
405.32        53.27142
405.76        53.27278
406.21        53.26089
406.66        53.23022
407.11        53.28012
407.55        53.36119
408.00        53.23095
408.45        52.92683
408.90        52.60365
409.34        52.37215
409.79        52.43039
410.24        52.69529
410.68        52.81243
411.13        52.74645
411.58        52.70751
412.03        52.70304
412.47        52.65232
412.92        52.54575
413.37        52.42496
413.81        52.31149
414.26        52.27753
414.71        52.31865
415.15        52.42318
415.60        52.54519
416.05        52.64684
416.49        52.70672
416.94        52.72296
417.39        52.68957
417.83         52.5927
418.28        52.44035
418.73        52.23892
419.17         52.0214
419.62        51.85538
420.07        51.75995
420.51        51.72014
420.96        51.73556
421.41        51.75174
421.85        51.73048
422.30        51.74338
422.74        51.77446
423.19        51.81002
423.64         51.8806
424.08        52.17236
424.53         52.5415
424.98        52.73721
425.42        52.74325
425.87        52.49348
426.31        52.16953
426.76        52.41935
427.21        53.09758
427.65         53.1638
428.10        52.64864
428.54        52.49184
428.99         52.7377
429.44        52.96767
429.88        53.05636
430.33        52.86353
430.77        52.48392
431.22        52.48409
431.66         52.8324
432.11        53.12103
432.56        53.31628
433.00        53.41797
433.45        53.22589
433.89        53.15989
434.34        53.45403
434.78         52.2376
435.23        52.54659
435.67        53.40066
436.12        53.60269
436.57        53.79018
437.01        53.46032
437.46        53.40718
437.90        53.79231
438.35        53.81414
438.79        53.83302
439.24        53.80115
439.68        53.84977
440.13        53.74822
440.57        53.56928
441.02        53.91558
441.46        54.57177
441.91        54.43672
442.35        53.71439
442.80        53.81499
443.24        54.59398
443.69        54.88012
444.13        54.58934
444.58        54.38766
445.02        54.32603
445.47        54.36716
445.91        54.47541
446.36        54.49378
446.80        54.40442
447.24        54.40292
447.69        54.34676
448.13        54.55671
448.58        54.77482
449.02        54.86658
449.47        54.77417
449.91        54.70454
450.36        54.68058
450.80        54.50047
451.25        54.25591
451.69        54.22219
452.13        54.38206
452.58        54.43964
453.02        54.36129
453.47        54.33631
453.91        54.34696
454.36        54.27274
454.80        54.14256
455.24        54.08905
455.69        54.14133
456.13        54.20937
456.58        54.24927
457.02        54.31637
457.46        54.10606
457.91          53.921
458.35        53.81489
458.79        53.74097
459.24        53.78452
459.68        53.86496
460.13        53.92074
460.57        54.01414
461.01        54.19145
461.46        53.50198
461.90        53.60271
462.34        53.58095
462.79        53.48204
463.23        53.56664
463.68         53.8897
464.12        53.69012
464.56        53.15555
465.01        53.25632
465.45        53.76705
465.89        53.66228
466.34        53.09862
466.78        52.91841
467.22        53.08961
467.67        53.60486
468.11        53.13634
468.55        53.12792
468.99        53.18724
469.44        53.17013
469.88        53.06491
470.32        52.91473
470.77        52.77354
471.21        52.69505
471.65        52.70013
472.10        52.77657
472.54        52.85454
472.98        52.87012
473.42        52.81736
473.87        52.65026
474.31         52.4368
474.75        52.55131
475.20        52.90038
475.64        52.95444
476.08        52.75103
476.52        52.67469
476.97        52.70753
477.41        52.83676
477.85        53.03485
478.29        52.45387
478.74        52.46003
479.18        52.29013
479.62        52.76255
480.06        52.91261
480.50        52.88409
480.95        52.96022
481.39        53.09146
481.83        53.10326
482.27        53.59597
482.72        52.95112
483.16        53.34104
483.60        53.33324
484.04        53.46315
484.48         53.2748
484.93        53.37224
485.37        53.04467
485.81        53.35315
486.25        52.87295
486.69         53.4922
487.14        53.56995
487.58        53.37145
488.02         53.1979
488.46           53.53
488.90        53.87654
489.34        53.52861
489.79          52.936
490.23        53.38707
490.67        53.51905
491.11        53.70633
491.55        53.75061
491.99        53.67653
492.43        53.68172
492.88        53.76105
493.32        53.77327
493.76        53.67341
494.20        53.64305
494.64        53.72132
495.08        53.38165
495.52        53.33895
495.96        53.55053
496.41        54.05283
496.85        54.09927
497.29        53.68769
497.73        53.57281
498.17        53.50628
498.61        53.57132
499.05         53.6455
499.49        53.53179
499.93        53.33043
500.37        53.55671
500.82        54.08089
501.26        54.26194
501.70        54.07217
502.14        53.68187
502.58        53.61449
503.02         53.4744
503.46        53.37992
503.90        53.40098
504.34          53.496
504.78        53.59892
505.22        53.69977
505.66        53.76452
506.10        53.76822
506.54        53.86121
506.98         54.0764
507.42        53.66077
507.86        53.89107
508.30        53.84885
508.74         53.8023
509.18        53.79738
509.62        53.79888
510.06        53.81251
510.50        53.80639
510.94        53.73444
511.38        53.62424
511.82        53.57533
512.26        53.59649
512.70        53.63591
513.14        53.66921
513.58        53.67514
514.02        53.64624
514.46        53.59269
514.90        53.51687
515.34        53.47371
515.78        53.47873
516.22        53.45658
516.66        53.27244
517.10        53.61193
517.54        53.42756
517.98        53.53392
518.42        53.59113
518.86         53.5744
519.30        53.47579
519.74        53.29008
520.18        53.09403
520.62        53.06343
521.06        53.18033
521.50        53.22378
521.93        53.18328
522.37        53.20838
522.81        53.29372
523.25        53.34313
523.69        53.34071
524.13        53.31215
524.57         53.2602
525.01        53.17592
525.45        53.09595
525.89        53.08188
526.32        53.14024
526.76        53.25571
527.20         53.3791
527.64        53.43186
528.08        53.39493
528.52        53.29718
528.96        53.17362
529.40        53.07165
529.83        53.00753
530.27        52.99341
530.71        53.00659
531.15        53.01012
531.59        52.99497
532.03        52.97485
532.46         52.9586
532.90        52.96885
533.34        53.00361
533.78        53.05619
534.22        53.09787
534.66        53.08684
535.09        53.01216
535.53        52.90626
535.97        52.80242
536.41        52.76819
536.85         52.8152
537.28         52.9181
537.72        53.03514
538.16        53.09915
538.60        53.09015
539.04        53.03356
539.47        52.93897
539.91         52.8634
540.35         52.8107
540.79        52.77648
541.22        52.76417
541.66        52.79232
542.10        52.85575
542.54        52.94427
542.97        53.04585
543.41        53.16776
543.85         53.2966
544.29         53.4355
544.72        53.53997
545.16        53.58919
545.60        53.56916
546.04        53.43728
546.47        53.27319
546.91        53.30443
547.35        53.48978
547.79         53.5998
548.22        53.57283
548.66        53.43716
549.10        53.26127
549.53        53.23619
549.97        53.36144
550.41        53.40209
550.84        53.34575
551.28        53.36113
551.72        53.44335
552.15        53.47306
552.59        53.44966
553.03        53.49814
553.46        53.43742
553.90        53.42593
554.34        53.40714
554.77        53.37988
555.21        53.36592
555.65        53.39297
556.08        53.45948
556.52        53.55212
556.96        53.64079
557.39        53.74062
557.83        53.82677
558.27        53.77071
558.70        53.62677
559.14        53.58968
559.57        53.67092
560.01        53.84208
560.45        53.99123
560.88         53.9565
561.32        53.79929
561.75        53.51918
562.19        53.27582
562.63        53.47194
563.06        53.95634
563.50        53.97305
563.93        53.55294
564.37        53.37493
564.80         53.4755
565.24        53.63916
565.68        53.81542
566.11        53.92243
566.55        53.95214
566.98        54.05146
567.42        54.20477
567.85        54.08792
568.29        53.82229
568.72        53.84455
569.16        54.15772
569.60        54.18516
570.03        54.18017
570.47        54.17102
570.90        54.20833
571.34         54.2272
571.77        54.39642
572.21         54.1001
572.64        54.38953
573.08        53.92722
573.51        54.38884
573.95        54.65203
574.38        54.36286
574.82        54.74019
