SpectraSmart Spectrum 2.9.0.0
--------- Device Information -----------
Spectrum Name :  反射率_0
Saving Time :  2024/04/21 00:08:05
Spectro-Module Model Name : SE2030-DUVN
Spectro-Module Serial Number : OS361AC55029948
Wavelength Start : 200
Wavelength End : 1025
Wavelength Unit : Wavelength(nm)
Spectrum Unit : Reflectance(%)
-----------Spectrum Setting ------------
Integration Time : 20ms
Average : 10
Boxcar : 0
Background removal :  enabled
linearity correction :  enabled
SC :  disabled
Intensity correction :  disabled
DWT denoise :  enabled
savitzky-golay :  disabled
FFT :  disabled
Running average :  disabled
Kalman :  disabled
High pass :  disabled
---------------BEGIN--------------------
Wavelength(nm)             Reflectance(%)
200.29               0
200.75       -25.80801
201.21        12.20954
201.67        29.39528
202.13        32.65282
202.58        27.36823
203.04        16.20313
203.50        1.281858
203.96       -9.507152
204.42       -11.50205
204.88       -8.051815
205.34       -1.156488
205.80        6.390826
206.26        14.60915
206.72        28.07447
207.18        41.71287
207.64        41.89811
208.10        24.28561
208.55       -8.060061
209.01       -29.94518
209.47       -10.47467
209.93        24.20393
210.39        53.23443
210.85        71.55921
211.31        78.14692
211.77        75.44154
212.23         63.7278
212.69        38.33899
213.14       -4.125611
213.60       -68.87955
214.06       -224.4952
214.52       -508.0347
214.98       -171.7628
215.44       -10.45595
215.90        38.58743
216.36        54.03675
216.81        56.10011
217.27        48.15887
217.73        2.728032
218.19         567.428
218.65        277.7452
219.11       -525.2844
219.57        6.669592
220.02        40.48142
220.48        44.97596
220.94        38.34999
221.40        17.80809
221.86       -29.90248
222.32       -60.35217
222.77       -17.33675
223.23        20.12371
223.69        38.77304
224.15        44.57127
224.61         43.5183
225.06        39.04934
225.52        32.55416
225.98        25.82785
226.44        20.07717
226.90        13.98339
227.36        10.49398
227.81        14.64156
228.27        23.16143
228.73        31.93928
229.19        37.69579
229.65        38.71226
230.10        35.80363
230.56        30.47019
231.02        23.45223
231.48        17.98409
231.93        17.01674
232.39        19.71127
232.85        23.64675
233.31        26.60512
233.77        28.62325
234.22        30.81111
234.68        32.82772
235.14        33.82043
235.60        33.78437
236.05        32.20559
236.51         29.7768
236.97        33.29922
237.43        43.44252
237.88        50.75554
238.34        51.92698
238.80           70.62
239.26        64.39296
239.71        64.26616
240.17        59.65317
240.63        55.01951
241.08        53.41265
241.54        56.22504
242.00        63.85033
242.46         71.0772
242.91        77.25951
243.37        83.39793
243.83        89.04078
244.28        91.14626
244.74        87.99476
245.20        81.45576
245.66        72.82993
246.11        62.71916
246.57        51.10612
247.03        37.84631
247.48        24.22938
247.94        12.76601
248.40        3.196402
248.85       -8.477173
249.31       -20.28044
249.77        23.70576
250.22        58.80938
250.68        57.04793
251.14        53.95826
251.59        54.09839
252.05        57.06126
252.51        62.83988
252.96        69.81339
253.42        72.15842
253.88        66.89365
254.33        58.33659
254.79        55.24966
255.25        61.08692
255.70        70.51848
256.16        79.54607
256.62        85.53088
257.07        87.24841
257.53        86.61718
257.99         84.6684
258.44        82.35847
258.90        81.39095
259.35        80.93034
259.81        80.91692
260.27         80.4493
260.72        78.75143
261.18        76.59713
261.63        74.15598
262.09        72.13031
262.55        70.54885
263.00        69.23813
263.46         68.2639
263.91        67.38194
264.37        66.85259
264.83        66.49417
265.28        66.16399
265.74        65.79961
266.19        65.00161
266.65        63.83398
267.11        62.33867
267.56        60.63976
268.02        59.05789
268.47        57.62478
268.93        56.32404
269.38        55.06449
269.84        53.77916
270.30        52.43667
270.75        51.08074
271.21        49.80616
271.66         48.6591
272.12        47.68654
272.57        46.83127
273.03        46.04536
273.48         45.1899
273.94        44.27644
274.39        43.29803
274.85        42.37613
275.31        41.60554
275.76        40.98469
276.22         40.5092
276.67        40.06573
277.13        39.60773
277.58        39.06094
278.04         38.4958
278.49         37.8873
278.95         37.3163
279.40        36.73826
279.86        36.18241
280.31         35.5923
280.77        35.00316
281.22        34.38263
281.68        33.81229
282.13        33.25808
282.59        32.76693
283.04        32.31352
283.50        31.91605
283.95        31.60483
284.41         31.4733
284.86        31.49959
285.32        31.67036
285.77        31.84277
286.22        31.84345
286.68        31.66935
287.13         31.3347
287.59        31.03123
288.04        30.93574
288.50        31.06736
288.95        31.45192
289.41         31.9806
289.86        32.03928
290.32        31.53536
290.77        32.26295
291.22        31.43104
291.68        31.54683
292.13        31.80676
292.59        32.26126
293.04        32.89042
293.50        33.73522
293.95        34.79629
294.40        36.03667
294.86        37.40658
295.31        38.80917
295.77        40.20765
296.22        41.59481
296.68        42.98002
297.13        44.37538
297.58        45.80885
298.04         47.2771
298.49        48.80495
298.95        50.45724
299.40        52.21572
299.85        54.06862
300.31        55.94909
300.76        57.71749
301.21         59.3627
301.67        60.95137
302.12         62.5357
302.58         64.3187
303.03        66.29608
303.48        68.45148
303.94        70.70569
304.39        72.87171
304.84        74.91177
305.30        76.89455
305.75        78.81866
306.20        80.80559
306.66        82.87997
307.11        84.93398
307.57        86.96296
308.02        88.87337
308.47         90.6719
308.93        92.41845
309.38        94.05885
309.83        95.59585
310.29        97.06156
310.74        98.41532
311.19         99.7157
311.65         101.034
312.10         102.361
312.55        103.6781
313.00        104.9348
313.46        106.0518
313.91         106.991
314.36        107.7939
314.82        108.5003
315.27        109.1577
315.72        109.8047
316.18        110.4348
316.63        111.0624
317.08        111.7122
317.53        112.3772
317.99          113.04
318.44        113.6742
318.89        114.2182
319.35        114.6521
319.80         115.003
320.25        115.2727
320.70        115.4751
321.16        115.6197
321.61        115.7273
322.06        115.8429
322.51        116.0465
322.97        116.3368
323.42         116.736
323.87        117.1669
324.32        117.5142
324.78        117.7267
325.23        117.8784
325.68        118.0064
326.13        118.2114
326.59        118.4917
327.04        118.8667
327.49        119.2734
327.94         119.649
328.39        119.9677
328.85         120.215
329.30        120.4619
329.75        120.6748
330.20        120.8612
330.66        120.9831
331.11        121.1421
331.56        121.3533
332.01        121.6358
332.46        121.9905
332.92        122.3454
333.37        122.7322
333.82        123.0909
334.27        123.4366
334.72        123.8127
335.17        124.2918
335.63        124.8532
336.08         125.535
336.53        126.2464
336.98        126.8964
337.43        127.4498
337.88        127.9168
338.34        128.3073
338.79        128.7159
339.24        129.1311
339.69        129.5333
340.14        129.8907
340.59        130.1581
341.05        130.3377
341.50        130.4735
341.95        130.6167
342.40        130.8488
342.85        131.1926
343.30        131.6215
343.75        132.0999
344.20        132.5718
344.66        133.0194
345.11          133.43
345.56        133.7936
346.01           134.1
346.46        134.3557
346.91        134.5235
347.36        134.6064
347.81        134.7269
348.26         134.913
348.72        134.7441
349.17        134.9405
349.62        134.9099
350.07        134.8757
350.52        134.8245
350.97        134.7548
351.42        134.6515
351.87        134.4998
352.32        134.2977
352.77        134.0556
353.22        133.7877
353.67        133.4949
354.13        133.1991
354.58        132.8314
355.03        132.3394
355.48        131.7313
355.93        131.0384
356.38        130.3684
356.83        129.8808
357.28        129.5873
357.73        129.4177
358.18        129.2377
358.63        128.8352
359.08        128.1572
359.53        127.2763
359.98        126.2752
360.43        125.2796
360.88        124.3339
361.33        123.4019
361.78        122.4923
362.23        121.6198
362.68         120.788
363.13        120.0165
363.58        119.2617
364.03        118.4404
364.48         117.537
364.93        116.5655
365.38        115.6007
365.83        114.7733
366.28        114.1009
366.73        113.5274
367.18        112.9551
367.63        112.2313
368.08        111.3243
368.53         110.301
368.98        109.2181
369.43        108.1475
369.88        107.1203
370.33        106.1155
370.78        105.1715
371.23        104.3716
371.68        103.7344
372.13        103.2359
372.58        102.8087
373.03        102.3279
373.48        101.7423
373.93        101.0728
374.38        100.3197
374.83        99.50563
375.28        98.66638
375.72        97.79202
376.17        96.97123
376.62        96.24057
377.07        95.59562
377.52        95.01292
377.97        94.46745
378.42        93.92838
378.87        93.39292
379.32        92.87841
379.77         92.3677
380.22        91.82011
380.67        91.22141
381.11        90.58154
381.56        89.92742
382.01        89.34085
382.46        88.85552
382.91        88.45553
383.36        88.10249
383.81        87.73132
384.26        87.31677
384.71        86.87133
385.15        86.39959
385.60        85.97731
386.05        85.59061
386.50        85.22562
386.95         84.8484
387.40        84.41974
387.85        83.94697
388.29        83.40271
388.74        82.94494
389.19        82.56796
389.64        82.26891
390.09        82.03051
390.54        81.79967
390.98        81.47514
391.43        81.07654
391.88        80.63279
392.33        80.25537
392.78        79.89242
393.23        79.52158
393.67        79.51704
394.12        79.90487
394.57        78.78951
395.02        78.62141
395.47        78.27779
395.91        78.42799
396.36        78.27312
396.81        77.83163
397.26        77.59854
397.71        77.41911
398.15        77.16365
398.60        76.89976
399.05        76.42984
399.50        75.94757
399.95        76.15771
400.39        76.87293
400.84        76.98301
401.29        76.43302
401.74        75.94444
402.18        75.64108
402.63        75.32966
403.08        75.00737
403.53        74.66312
403.97        74.32347
404.42        73.96328
404.87        73.90704
405.32        73.77882
405.76        73.63751
406.21        73.59323
406.66        73.59645
407.11        73.35812
407.55        72.95196
408.00         72.8712
408.45          73.065
408.90        72.78414
409.34        72.11995
409.79        71.91011
410.24        72.12276
410.68        72.16155
411.13         72.0093
411.58        71.97636
412.03        72.06365
412.47        72.14063
412.92        72.15987
413.37          72.158
413.81        72.11389
414.26         72.0593
414.71        71.97873
415.15        71.88285
415.60         71.7355
416.05        71.55009
416.49        71.34163
416.94        71.10808
417.39        70.89273
417.83        70.74603
418.28         70.6767
418.73        70.66658
419.17        70.66121
419.62         70.5812
420.07        70.41127
420.51        70.17239
420.96        69.94539
421.41        69.80805
421.85        69.75399
422.30        69.78132
422.74         69.8218
423.19        69.93574
423.64        70.06397
424.08        70.11739
424.53        70.05776
424.98        70.06436
425.42        70.16584
425.87        70.21493
426.31        70.20344
426.76        70.29034
427.21        70.46992
427.65        70.47416
428.10        70.21848
428.54        70.56652
428.99        70.22443
429.44        70.17595
429.88        70.02626
430.33        69.98897
430.77        69.97279
431.22        69.90611
431.66        69.78677
432.11        69.80437
432.56        69.99023
433.00        69.94065
433.45        69.52068
433.89        69.65572
434.34        70.32842
434.78        69.56022
435.23          68.854
435.67        69.74218
436.12        70.23936
436.57        70.45202
437.01        69.79013
437.46        69.48306
437.90        70.34903
438.35        69.87621
438.79        70.29716
439.24        70.16695
439.68        70.10107
440.13        69.96381
440.57        69.80916
441.02        69.84077
441.46        69.97188
441.91        69.95827
442.35        69.79601
442.80         69.9362
443.24        70.30352
443.69        70.63403
444.13         70.7776
444.58        70.68255
445.02        70.32424
445.47        70.16124
445.91        70.19773
446.36        70.17915
446.80        70.10655
447.24        70.12869
447.69        70.25623
448.13        70.47646
448.58        70.72825
449.02        70.68927
449.47        70.41801
449.91        70.28324
450.36         70.3308
450.80        70.25935
451.25        70.10805
451.69        70.12339
452.13        70.25146
452.58        70.14346
453.02        69.80981
453.47         69.5752
453.91         69.4461
454.36        69.25485
454.80        69.01008
455.24        68.84369
455.69        68.78707
456.13          68.719
456.58        68.64644
457.02        68.75935
457.46        68.62698
457.91        68.58263
458.35        68.37124
458.79         68.2724
459.24        68.26997
459.68        68.27321
460.13        68.27396
460.57        68.18819
461.01        68.02899
461.46        67.76528
461.90        67.61499
462.34        67.40633
462.79        67.27453
463.23        67.48598
463.68         67.8831
464.12        67.71349
464.56        67.06519
465.01        66.96491
465.45        67.26711
465.89        67.13223
466.34        66.68951
466.78        66.65351
467.22        66.94066
467.67        67.22604
468.11        66.56704
468.55        66.45663
468.99        66.60122
469.44        66.53097
469.88         66.2328
470.32         66.0235
470.77         65.8354
471.21        65.73894
471.65        65.70281
472.10        65.73784
472.54        65.78196
472.98        65.74573
473.42        65.61858
473.87        65.48026
474.31        65.32387
474.75        65.17231
475.20        65.07639
475.64        65.05953
476.08        65.29211
476.52        65.38354
476.97        65.28624
477.41         65.3418
477.85        65.49388
478.29        65.18604
478.74        64.66119
479.18        64.85336
479.62        65.13085
480.06        65.31099
480.50        65.18652
480.95        65.16664
481.39        65.21098
481.83        65.20033
482.27        65.37638
482.72        65.11162
483.16        65.05213
483.60        65.30385
484.04        65.37144
484.48        65.06258
484.93        64.95069
485.37        65.04575
485.81        65.17062
486.25        65.07653
486.69        65.92062
487.14        65.83864
487.58        65.25793
488.02        64.78069
488.46        64.73241
488.90        64.65169
489.34        64.36291
489.79         64.2664
490.23        64.87275
490.67        65.16659
491.11        65.24316
491.55        65.02631
491.99        64.63589
492.43        64.40849
492.88         64.3931
493.32        64.43125
493.76         64.4275
494.20        64.44589
494.64        64.49468
495.08        64.16579
495.52        64.05016
495.96         64.2551
496.41        64.76724
496.85        64.79877
497.29        64.34177
497.73        64.20566
498.17        64.10264
498.61        64.19247
499.05        64.28416
499.49        64.13056
499.93        63.82966
500.37        63.75565
500.82        63.90868
501.26        64.22893
501.70         64.5743
502.14        64.23456
502.58         63.8332
503.02        63.59514
503.46        63.66692
503.90        63.71951
504.34        63.70591
504.78        63.74726
505.22        63.82183
505.66        63.90303
506.10        64.01006
506.54         64.0737
506.98        64.05965
507.42        64.19415
507.86        64.42416
508.30        63.94952
508.74        64.17908
509.18        63.96254
509.62         63.7627
510.06        63.64226
510.50        63.61311
510.94        63.57048
511.38        63.48682
511.82        63.42287
512.26        63.37072
512.70        63.29301
513.14        63.21589
513.58        63.20062
514.02        63.25388
514.46        63.35485
514.90        63.45222
515.34        63.50001
515.78        63.48566
516.22        63.40137
516.66        63.13734
517.10        63.33578
517.54        63.17881
517.98        63.29701
518.42        63.39582
518.86        63.41963
519.30        63.35209
519.74        63.18278
520.18        63.00471
520.62        63.03967
521.06        63.25992
521.50        63.39233
521.93        63.38844
522.37        63.37383
522.81        63.33897
523.25        63.19638
523.69        62.97984
524.13        62.79945
524.57        62.68026
525.01        62.58984
525.45        62.54945
525.89        62.59171
526.32        62.70871
526.76        62.89704
527.20          63.088
527.64        63.17139
528.08        63.12445
528.52        62.97892
528.96         62.8072
529.40        62.71866
529.83        62.73758
530.27         62.8594
530.71        63.01134
531.15        63.07503
531.59        63.02504
532.03        62.90613
532.46        62.76839
532.90        62.70264
533.34        62.72569
533.78        62.80705
534.22        62.90114
534.66        62.94094
535.09        62.90176
535.53        62.82806
535.97        62.74157
536.41         62.6921
536.85        62.69207
537.28        62.72271
537.72        62.76328
538.16        62.78336
538.60        62.77274
539.04        62.74584
539.47        62.69698
539.91        62.66784
540.35        62.64923
540.79        62.63722
541.22        62.62969
541.66        62.63936
542.10        62.65977
542.54        62.68341
542.97        62.69986
543.41        62.72509
543.85        62.75362
544.29        62.79482
544.72        62.81622
545.16         62.8243
545.60        62.80801
546.04        62.69428
546.47        62.55426
546.91         62.6548
547.35        62.91821
547.79        62.99949
548.22        62.86024
548.66        62.66387
549.10         62.4958
549.53        62.49866
549.97         62.6501
550.41        62.68414
550.84        62.58411
551.28        62.53253
551.72        62.54563
552.15        62.55506
552.59        62.57418
553.03        62.60757
553.46        62.63873
553.90        62.63792
554.34        62.58941
554.77         62.5143
555.21        62.46068
555.65        62.43927
556.08        62.44183
556.52        62.66161
556.96        62.67843
557.39        62.78297
557.83        62.83311
558.27        62.70523
558.70         62.4687
559.14         62.3482
559.57        62.35891
560.01        62.50671
560.45        62.67801
560.88        62.56848
561.32        62.29756
561.75         62.1925
562.19        62.31126
562.63        62.51846
563.06        62.70213
563.50        62.62421
563.93        62.32263
564.37        62.15275
564.80        62.14316
565.24        62.23841
565.68        62.40193
566.11         62.4783
566.55        62.45427
566.98        62.55109
567.42        62.78483
567.85        62.44797
568.29        62.43164
568.72        62.41008
569.16         62.6261
569.60        62.69787
570.03        62.73619
570.47        62.76962
570.90        62.79331
571.34        62.99194
571.77        63.02979
572.21        63.11457
572.64        63.03289
573.08        62.78823
573.51        62.97016
573.95        63.37396
574.38        63.18143
574.82        63.48698
