SpectraSmart Spectrum 2.9.0.0
--------- Device Information -----------
Spectrum Name :  反射率_0
Saving Time :  2024/04/21 00:32:58
Spectro-Module Model Name : SE2030-DUVN
Spectro-Module Serial Number : OS361AC55029948
Wavelength Start : 200
Wavelength End : 1025
Wavelength Unit : Wavelength(nm)
Spectrum Unit : Reflectance(%)
-----------Spectrum Setting ------------
Integration Time : 20ms
Average : 10
Boxcar : 0
Background removal :  enabled
linearity correction :  enabled
SC :  disabled
Intensity correction :  disabled
DWT denoise :  enabled
savitzky-golay :  disabled
FFT :  disabled
Running average :  disabled
Kalman :  disabled
High pass :  disabled
---------------BEGIN--------------------
Wavelength(nm)             Reflectance(%)
200.29               0
200.75        -52.8113
201.21        6.426219
201.67        38.07924
202.13        51.96163
202.58        56.64616
203.04        56.68982
203.50        52.08706
203.96        43.27677
204.42        32.04233
204.88        18.25844
205.34         6.04709
205.80      -0.2465752
206.26       0.5133025
206.72        12.53963
207.18         29.2909
207.64        31.06969
208.10        10.86756
208.55       -26.02449
209.01        -50.1424
209.47       -26.26194
209.93         14.8147
210.39        48.61029
210.85        69.91624
211.31        78.17125
211.77        76.40482
212.23        65.35902
212.69        40.27811
213.14       -3.126832
213.60       -72.77465
214.06       -249.8271
214.52       -603.1368
214.98       -233.7409
215.44       -39.47031
215.90        22.67905
216.36        42.44485
216.81        43.53678
217.27        28.95902
217.73       -46.10853
218.19        861.0512
218.65        379.1308
219.11       -756.1494
219.57       -10.88583
220.02        36.81422
220.48        46.37481
220.94        44.23601
221.40        31.29484
221.86       -2.339446
222.32       -28.74948
222.77       -3.236649
223.23        21.03729
223.69        33.74307
224.15         38.3331
224.61        38.70509
225.06        37.52225
225.52        34.90955
225.98        30.32843
226.44        24.11784
226.90        15.48442
227.36        8.651977
227.81        11.60804
228.27          21.292
228.73        31.92484
229.19        38.96624
229.65        40.07945
230.10        36.15218
230.56        28.70186
231.02        19.03075
231.48        12.52338
231.93        13.07393
232.39        18.62512
232.85         24.9665
233.31        28.53817
233.77        29.48913
234.22        29.39177
234.68        28.62106
235.14         27.7637
235.60        27.41325
236.05        26.62926
236.51        25.47957
236.97        29.75294
237.43        39.68109
237.88        45.78248
238.34        44.49837
238.80        64.54507
239.26        55.97358
239.71        55.56105
240.17        50.20729
240.63        44.40762
241.08        40.92274
241.54        42.06284
242.00        48.72102
242.46        54.10115
242.91        57.01825
243.37        58.46501
243.83        59.93783
244.28        64.55649
244.74        71.99559
245.20        79.24553
245.66        82.66484
246.11        78.78105
246.57        67.58095
247.03        49.99571
247.48        28.24046
247.94         5.61944
248.40        -21.1442
248.85       -73.13227
249.31       -219.7155
249.77       -342.8399
250.22       -123.8469
250.68       -29.28493
251.14        3.501877
251.59        17.12007
252.05        25.12295
252.51        32.07875
252.96        37.94278
253.42        40.38543
253.88        38.01611
254.33        33.64211
254.79        32.28962
255.25        35.79113
255.70        41.30703
256.16        46.24912
256.62        50.36078
257.07        53.69743
257.53         56.5226
257.99        58.75301
258.44        59.38618
258.90         58.1333
259.35        55.12987
259.81        51.58858
260.27        48.42106
260.72        46.69413
261.18        46.44761
261.63        46.73782
262.09        47.00826
262.55        46.39861
263.00        44.90438
263.46        43.10791
263.91        41.27536
264.37        40.11024
264.83        39.59035
265.28        39.38202
265.74        39.32822
266.19         39.0834
266.65        38.61368
267.11        37.98994
267.56        37.17643
268.02        36.19109
268.47        35.03006
268.93        33.73241
269.38        32.40446
269.84        31.27896
270.30        30.40298
270.75        29.73892
271.21        29.20855
271.66        28.60977
272.12         27.9265
272.57        27.20932
273.03        26.55623
273.48        26.07947
273.94        25.80604
274.39        25.63974
274.85        25.52409
275.31        25.32718
275.76        25.00377
276.22        24.61885
276.67        24.19009
277.13        23.80688
277.58        23.45858
278.04        23.14765
278.49        22.82287
278.95        22.47843
279.40        22.08122
279.86        21.67606
280.31        21.26071
280.77        20.90053
281.22        20.57785
281.68        20.32291
282.13        20.08114
282.59        19.83907
283.04        19.57387
283.50        19.31296
283.95        19.09976
284.41        19.01934
284.86        19.07309
285.32         19.2399
285.77         19.4289
286.22        19.51861
286.68        19.50778
287.13        19.40154
287.59        19.33219
288.04        19.39607
288.50        19.58063
288.95        19.97128
289.41        20.49958
289.86        20.56509
290.32        20.06665
290.77        21.05838
291.22        20.22981
291.68        20.43102
292.13        20.70461
292.59        21.11666
293.04         21.6478
293.50        22.34136
293.95        23.20978
294.40        24.21556
294.86        25.31783
295.31        26.43664
295.77         27.5492
296.22        28.66581
296.68         29.8122
297.13         31.0271
297.58        32.34058
298.04        33.74267
298.49        35.25202
298.95        36.91428
299.40        38.70539
299.85        40.61393
300.31         42.5563
300.76        44.38339
301.21        46.07846
301.67         47.7038
302.12        49.34365
302.58        51.22846
303.03        53.37024
303.48        55.74348
303.94        58.23298
304.39        60.60606
304.84        62.81118
305.30        64.92211
305.75        66.99331
306.20        69.21503
306.66        71.61208
307.11        74.05645
307.57        76.46203
308.02        78.63431
308.47        80.56181
308.93        82.34677
309.38        84.02071
309.83        85.69196
310.29        87.44698
310.74        89.17734
311.19         90.8815
311.65        92.52225
312.10        94.06475
312.55        95.53126
313.00        96.90067
313.46        98.14016
313.91        99.22994
314.36        100.1838
314.82        101.0586
315.27         101.938
315.72         102.853
316.18         103.785
316.63        104.6748
317.08        105.4389
317.53         106.074
317.99         106.531
318.44         106.848
318.89        107.3126
319.35        108.0004
319.80        107.9142
320.25        108.7135
320.70        108.9655
321.16        109.1566
321.61        109.2855
322.06        109.4229
322.51        109.6518
322.97        109.9638
323.42        110.3933
323.87        110.8444
324.32        111.1791
324.78        111.3466
325.23        111.4233
325.68        111.4979
326.13        111.7509
326.59        112.1929
327.04        112.8195
327.49        113.4781
327.94         113.952
328.39        114.1809
328.85        114.1976
329.30        114.1791
329.75        114.2802
330.20        114.5632
330.66        114.9366
331.11        115.4108
331.56        115.8541
332.01        116.2283
332.46        116.5671
332.92        116.8381
333.37        117.1356
333.82        117.4268
334.27        117.7072
334.72        117.9894
335.17        118.3023
335.63         118.624
336.08        119.0144
336.53        119.4532
336.98        119.9527
337.43        120.5032
337.88        121.0916
338.34        121.6451
338.79        122.1102
339.24        122.4438
339.69         122.672
340.14        122.8515
340.59          123.08
341.05        123.3898
341.50        123.7648
341.95        124.1868
342.40        124.6258
342.85        125.0645
343.30        125.5127
343.75        125.9428
344.20        126.3146
344.66        126.6239
345.11        126.8445
345.56        127.0168
346.01        127.2117
346.46        127.4485
346.91        127.6897
347.36        127.8536
347.81        127.9009
348.26        127.8383
348.72        127.3814
349.17        127.2212
349.62        127.0931
350.07        127.2072
350.52        127.4796
350.97        127.7712
351.42        127.8448
351.87         127.628
352.32        127.1945
352.77        126.6504
353.22        126.1552
353.67        125.7586
354.13        125.4371
354.58        125.1014
355.03        124.6697
355.48        124.1266
355.93        123.5053
356.38         122.897
356.83        122.4303
357.28        122.1081
357.73        121.8694
358.18          121.57
358.63        120.9879
359.08        120.0898
359.53        118.9708
359.98        117.7774
360.43        116.7297
360.88        115.8838
361.33         115.164
361.78        114.5199
362.23        113.8695
362.68         113.177
363.13        112.4812
363.58        111.7311
364.03        110.8378
364.48        109.7989
364.93        108.6347
365.38        107.4728
365.83        106.5304
366.28        105.8505
366.73        105.3652
367.18        104.9343
367.63        104.3297
368.08        103.4933
368.53        102.5014
368.98        101.4397
369.43        100.4293
369.88         99.5071
370.33        98.63127
370.78         97.7848
371.23        96.96264
371.68         96.1697
372.13        95.42076
372.58         94.7326
373.03        94.10429
373.48        93.52116
373.93        92.97878
374.38        92.41814
374.83        91.76009
375.28        91.00531
375.72        90.16393
376.17        89.36866
376.62        88.73621
377.07        88.26981
377.52        87.91257
377.97        87.55763
378.42        87.04272
378.87        86.34644
379.32        85.54746
379.77        84.73254
380.22        84.00533
380.67        83.38319
381.11         82.8302
381.56        82.32388
382.01        81.85513
382.46        81.42498
382.91        81.05052
383.36         80.6992
383.81        80.31404
384.26        79.87839
384.71        79.39198
385.15        78.89153
385.60        78.50478
386.05        78.22431
386.50        78.02357
386.95        77.81081
387.40        77.45086
387.85         76.9362
388.29        76.28018
388.74        75.70122
389.19        75.29464
389.64         75.0752
390.09        74.99593
390.54        74.94746
390.98        74.73989
391.43        74.36835
391.88          73.877
392.33        73.39352
392.78        73.04291
393.23         72.8373
393.67        72.84568
394.12        72.98367
394.57          72.603
395.02        71.83248
395.47          71.565
395.91        71.78887
396.36          71.701
396.81        71.29863
397.26         71.0735
397.71        71.00944
398.15        70.85024
398.60        70.67564
399.05          70.421
399.50        70.15841
399.95        70.17725
400.39        70.40414
400.84        70.31805
401.29        69.93051
401.74        69.65454
402.18        69.53217
402.63        69.35957
403.08        69.11312
403.53        68.83574
403.97        68.53497
404.42        68.23644
404.87        67.99729
405.32        67.91158
405.76        67.97221
406.21        68.14944
406.66        68.32861
407.11        68.34386
407.55        68.16387
408.00        67.80315
408.45        67.37526
408.90        66.99469
409.34        66.76275
409.79         66.8296
410.24        67.09373
410.68        67.23943
411.13        67.22157
411.58        67.20098
412.03        67.18224
412.47        67.12386
412.92        67.01342
413.37        66.87363
413.81        66.74637
414.26        66.75241
414.71        66.88821
415.15        67.14029
415.60        67.40588
416.05        67.55986
416.49        67.56281
416.94        67.44232
417.39        67.27001
417.83        67.14803
418.28        67.11308
418.73        67.13866
419.17        67.18116
419.62        67.18127
420.07        67.11913
420.51        67.00629
420.96        66.92297
421.41        66.91601
421.85        66.96483
422.30        67.14449
422.74        67.33291
423.19        67.34695
423.64        67.19803
424.08        67.20036
424.53        67.33262
424.98        67.41338
425.42        67.45318
425.87        67.58556
426.31        67.78919
426.76        67.89816
427.21        67.92609
427.65        68.07867
428.10        68.27969
428.54        68.30588
428.99        68.19124
429.44        68.08656
429.88        68.01468
430.33        67.94181
430.77        67.88897
431.22        68.15542
431.66        68.61375
432.11        68.94997
432.56        69.11584
433.00        68.87184
433.45        68.12495
433.89        68.12033
434.34        69.02009
434.78        67.95479
435.23        67.47395
435.67         69.2933
436.12        68.91461
436.57        69.20374
437.01         68.7777
437.46        68.50743
437.90        69.12202
438.35        69.27074
438.79        69.46077
439.24        69.55065
439.68        69.63632
440.13        69.67353
440.57        69.64728
441.02          69.653
441.46        69.66579
441.91        69.51125
442.35        69.25547
442.80         69.5415
443.24        70.20979
443.69          70.464
444.13        70.25952
444.58        70.22357
445.02        70.36082
445.47        70.43727
445.91        70.41241
446.36         70.3606
446.80        70.28289
447.24        70.12767
447.69        69.97821
448.13        70.15788
448.58        70.42188
449.02        70.55335
449.47        70.48714
449.91        70.51826
450.36        70.66412
450.80        70.59435
451.25        70.47756
451.69        70.49892
452.13         70.6513
452.58        70.57147
453.02         70.2771
453.47        70.10951
453.91        70.06933
454.36        69.97842
454.80        69.83321
455.24        69.72894
455.69        69.68827
456.13        69.63866
456.58        69.56295
457.02        69.54144
457.46        69.21056
457.91        69.02208
458.35        69.00005
458.79        68.92429
459.24        68.84465
459.68        68.87487
460.13        68.98702
460.57         68.9186
461.01        68.65025
461.46        68.79875
461.90        67.88318
462.34         68.5003
462.79        67.98039
463.23        68.32896
463.68        68.67596
464.12        68.43581
464.56        67.77489
465.01        67.65778
465.45        67.98885
465.89        68.25276
466.34        68.35605
466.78        68.10549
467.22        67.57557
467.67        67.66431
468.11        67.32136
468.55        67.38099
468.99        67.43443
469.44        67.38216
469.88        67.20135
470.32         66.9843
470.77        66.81241
471.21        66.73587
471.65        66.77057
472.10        66.90012
472.54         67.0387
472.98        67.07268
473.42        66.98843
473.87        66.82259
474.31        66.58675
474.75        66.46751
475.20        66.51659
475.64        66.29385
476.08        66.58727
476.52        66.56165
476.97        66.39297
477.41        66.38106
477.85        66.60062
478.29        66.03477
478.74        66.02819
479.18        66.43133
479.62          66.271
480.06        66.37895
480.50        66.33658
480.95        66.42828
481.39        66.63223
481.83         66.2297
482.27         66.8252
482.72        66.48343
483.16        66.58246
483.60        66.74976
484.04        66.70634
484.48        66.40928
484.93        66.41212
485.37        65.97203
485.81        66.22374
486.25        66.09513
486.69        67.03531
487.14        67.46721
487.58        66.85904
488.02        66.50839
488.46        66.12854
488.90        66.30861
489.34        65.70368
489.79        65.46127
490.23        65.80093
490.67        66.05332
491.11        66.28201
491.55        66.16314
491.99        65.80449
492.43        65.67216
492.88          65.799
493.32        65.92236
493.76        65.93748
494.20        65.94621
494.64        65.96312
495.08        65.59424
495.52        65.41227
495.96         65.5376
496.41        65.97356
496.85        65.93783
497.29        65.44989
497.73          65.434
498.17        65.53259
498.61        65.62857
499.05        65.54708
499.49        65.32053
499.93        65.07944
500.37        65.09455
500.82        65.34174
501.26        65.72527
501.70        66.09794
502.14        65.80405
502.58        65.46667
503.02        65.23227
503.46         65.2465
503.90        65.21196
504.34        65.09364
504.78        65.04164
505.22        65.07926
505.66        65.08059
506.10        65.01425
506.54         65.1434
506.98        65.52157
507.42        64.89499
507.86        65.38561
508.30        65.34724
508.74        65.27019
509.18        65.20259
509.62        65.13036
510.06        65.09843
510.50         65.0757
510.94         65.0059
511.38        64.89442
511.82        64.81764
512.26        64.77971
512.70         64.7319
513.14        64.68726
513.58        64.68731
514.02        64.73147
514.46        64.80735
514.90        64.86666
515.34        64.86361
515.78        64.79187
516.22        64.65369
516.66        64.34398
517.10        64.50375
517.54        64.34153
517.98        64.45876
518.42        64.57436
518.86        64.64049
519.30        64.63632
519.74        64.54871
520.18        64.43359
520.62         64.4584
521.06        64.59136
521.50        64.57687
521.93         64.4314
522.37        64.38903
522.81        64.46092
523.25        64.51814
523.69        64.53481
524.13         64.5295
524.57        64.49806
525.01        64.43399
525.45        64.37349
525.89        64.37512
526.32        64.44517
526.76        64.57059
527.20        64.69927
527.64        64.75065
528.08        64.70674
528.52        64.59605
528.96        64.46799
529.40        64.39042
529.83        64.38014
530.27        64.44796
530.71        64.54027
531.15        64.57025
531.59        64.52078
532.03        64.42257
532.46        64.31834
532.90        64.28911
533.34        64.34332
533.78        64.45215
534.22        64.55856
534.66        64.57681
535.09        64.48325
535.53        64.33373
535.97        64.16799
536.41        64.06461
536.85        64.04568
537.28         64.0843
537.72        64.15804
538.16        64.23239
538.60        64.28696
539.04        64.32961
539.47        64.33539
539.91        64.31894
540.35          64.265
540.79         64.1809
541.22        64.07641
541.66        63.97624
542.10        63.88665
542.54        63.82986
542.97        63.80857
543.41        63.79483
543.85        63.81264
544.29        63.99969
544.72        64.26814
545.16         64.4123
545.60        64.39423
546.04        64.26003
546.47        64.11073
546.91        64.16517
547.35        64.38926
547.79        64.57461
548.22        64.62109
548.66        64.47637
549.10        64.21723
549.53        64.10125
549.97        64.15126
550.41        64.14368
550.84         64.0483
551.28        64.01777
551.72        64.07435
552.15        64.05952
552.59        63.95036
553.03        64.35081
553.46        64.16127
553.90         64.1823
554.34        64.08085
554.77        63.93836
555.21        63.85734
555.65        63.72663
556.08        63.96268
556.52        64.26461
556.96         64.6302
557.39        64.66058
557.83         64.6123
558.27        64.44282
558.70        64.29832
559.14        64.18876
559.57        64.12836
560.01        64.23392
560.45        64.40769
560.88        64.33331
561.32         64.1021
561.75        64.02953
562.19        64.15549
562.63        64.23186
563.06        64.22672
563.50        64.22886
563.93        64.21835
564.37        64.17022
564.80        64.09367
565.24        64.14497
565.68        64.29496
566.11         64.3327
566.55        64.26027
566.98          64.264
567.42        64.38646
567.85        64.15496
568.29        64.25531
568.72         64.3046
569.16        64.50038
569.60        64.67021
570.03        64.70996
570.47        64.81756
570.90        64.92845
571.34        64.83052
571.77        65.29613
572.21         64.9387
572.64        64.90347
573.08        64.84848
573.51        64.71609
573.95        65.19942
574.38        65.04169
574.82        65.81978
