SpectraSmart Spectrum 2.9.0.0
--------- Device Information -----------
Spectrum Name :  反射率_0
Saving Time :  2024/04/21 00:25:00
Spectro-Module Model Name : SE2030-DUVN
Spectro-Module Serial Number : OS361AC55029948
Wavelength Start : 200
Wavelength End : 1025
Wavelength Unit : Wavelength(nm)
Spectrum Unit : Reflectance(%)
-----------Spectrum Setting ------------
Integration Time : 20ms
Average : 10
Boxcar : 0
Background removal :  enabled
linearity correction :  enabled
SC :  disabled
Intensity correction :  disabled
DWT denoise :  enabled
savitzky-golay :  disabled
FFT :  disabled
Running average :  disabled
Kalman :  disabled
High pass :  disabled
---------------BEGIN--------------------
Wavelength(nm)             Reflectance(%)
200.29               0
200.75       -58.85734
201.21       -3.884667
201.67        26.10054
202.13        36.61332
202.58        35.42541
203.04         26.9652
203.50         14.0894
203.96        5.025721
204.42        4.014775
204.88        7.596539
205.34        11.38048
205.80         8.66491
206.26        -2.77919
206.72       -19.70134
207.18         -40.937
207.64       -62.30756
208.10       -76.18473
208.55       -83.41685
209.01       -68.94833
209.47       -26.03784
209.93        14.97141
210.39        43.58378
210.85         60.5562
211.31        68.08259
211.77        69.43657
212.23        65.65614
212.69        54.69017
213.14        35.22792
213.60        2.626281
214.06       -85.54459
214.52       -270.5516
214.98       -85.97161
215.44        14.43153
215.90        46.85903
216.36        56.12009
216.81         52.9637
217.27        35.70798
217.73       -43.53242
218.19        912.5514
218.65         420.377
219.11       -928.6518
219.57       -35.83481
220.02        22.20505
220.48        33.54568
220.94        30.25405
221.40        13.18443
221.86       -29.19057
222.32       -57.04076
222.77       -18.90869
223.23        13.84844
223.69        30.44044
224.15        36.56635
224.61        37.41245
225.06        36.10578
225.52        32.94635
225.98        27.63515
226.44        20.60482
226.90        10.92479
227.36         3.02223
227.81        5.469779
228.27        15.22279
228.73        26.27212
229.19        33.60295
229.65        34.50318
230.10        29.86868
230.56        21.29346
231.02        10.33353
231.48        3.306205
231.93        4.550622
232.39        11.42045
232.85        18.99883
233.31        23.21273
233.77        24.26907
234.22         23.9901
234.68        22.72432
235.14        21.03301
235.60        19.56686
236.05        17.18932
236.51        14.28973
236.97        18.20795
237.43        29.53003
237.88        37.09956
238.34        36.25592
238.80         58.7776
239.26        46.29578
239.71        41.12599
240.17          27.959
240.63         15.5797
241.08        10.85617
241.54        18.90025
242.00        37.07402
242.46        47.87476
242.91        46.41182
243.37        33.00965
243.83        11.89049
244.28        2.359458
244.74        14.79764
245.20        38.13369
245.66        59.60715
246.11        67.29999
246.57         60.2808
247.03        42.84209
247.48        18.31106
247.94       -8.796252
248.40        -42.2866
248.85       -112.6596
249.31       -318.5434
249.77       -486.5862
250.22       -175.5643
250.68       -42.82801
251.14        1.772899
251.59        17.33716
252.05        22.71219
252.51        23.74939
252.96        20.57385
253.42        15.64669
253.88        12.18906
254.33        10.40836
254.79        14.31891
255.25        24.35145
255.70        35.45937
256.16        44.80082
256.62        50.77158
257.07        52.59532
257.53        52.02773
257.99        50.36168
258.44         48.3733
258.90         47.3043
259.35        46.68536
259.81        46.37087
260.27        46.05133
260.72        45.51788
261.18        45.01331
261.63          44.435
262.09        43.78785
262.55        42.72775
263.00        41.25999
263.46        39.67544
263.91        38.17236
264.37        37.36404
264.83        37.17805
265.28        37.33743
265.74        37.55456
266.19        37.30593
266.65        36.56979
267.11        35.47766
267.56        34.22278
268.02        33.17762
268.47        32.39014
268.93        31.77697
269.38        31.17931
269.84        30.40943
270.30        29.42897
270.75        28.34619
271.21        27.31018
271.66        26.47631
272.12         25.9048
272.57        25.49936
273.03        25.21493
273.48        24.96698
273.94        24.72223
274.39        24.46888
274.85        24.16802
275.31        23.70332
275.76        23.07413
276.22         22.3606
276.67        21.66065
277.13        21.17599
277.58        20.90633
278.04        20.79716
278.49        20.74016
278.95        20.63763
279.40         20.4242
279.86        20.16277
280.31        19.83106
280.77        19.46175
281.22        19.05337
281.68        18.65696
282.13        18.28271
282.59         18.0099
283.04        17.83252
283.50         17.7402
283.95        17.73793
284.41        17.84688
284.86        18.04116
285.32        18.30953
285.77        18.55184
286.22        18.63189
286.68        18.55563
287.13        18.34083
287.59        18.14532
288.04        18.10822
288.50        18.23178
288.95        18.59811
289.41        19.14082
289.86        19.25355
290.32        18.82249
290.77        19.92272
291.22        19.16797
291.68        19.40991
292.13        19.66949
292.59        20.02707
293.04        20.47256
293.50        21.06561
293.95        21.83445
294.40        22.74415
294.86        23.77697
295.31        24.88892
295.77        26.05691
296.22        27.27054
296.68        28.52628
297.13        29.81845
297.58        31.15778
298.04        32.54288
298.49        33.97933
298.95        35.49654
299.40         37.0795
299.85        38.72877
300.31        40.40921
300.76        42.04633
301.21        43.63993
301.67        45.23582
302.12        46.87579
302.58        48.71812
303.03        50.75822
303.48        52.98628
303.94        55.32257
304.39        57.59241
304.84        59.75348
305.30        61.85749
305.75        63.91545
306.20        66.05162
306.66        68.28004
307.11        70.49841
307.57        72.67241
308.02        74.68826
308.47        76.54581
308.93        78.32287
309.38        79.99558
309.83        81.57503
310.29        83.14332
310.74         84.6144
311.19        86.05072
311.65         87.5095
312.10        88.97722
312.55         90.4426
313.00        91.83403
313.46        93.03714
313.91        94.01524
314.36        94.81818
314.82        95.53201
315.27        96.28661
315.72        97.12624
316.18        98.00964
316.63        98.89162
317.08        99.69956
317.53        100.4004
317.99        101.0148
318.44        101.5406
318.89        101.9569
319.35        102.2735
319.80        102.5122
320.25         102.715
320.70        102.9602
321.16        103.2596
321.61        103.6037
322.06         103.978
322.51        104.3613
322.97        104.7221
323.42        105.1069
323.87         105.445
324.32        105.6395
324.78        105.6615
325.23        105.5735
325.68        105.4813
326.13        105.5935
326.59        105.9322
327.04        106.4974
327.49        107.1269
327.94        107.5725
328.39        107.7699
328.85        107.7663
329.30          107.75
329.75        107.9067
330.20        108.2986
330.66        108.8079
331.11        109.4301
331.56        110.0221
332.01        110.5313
332.46        110.9979
332.92        111.3411
333.37        111.5688
333.82         111.647
334.27        111.6018
334.72        111.5642
335.17        111.7593
335.63         112.215
336.08        112.9368
336.53        113.7842
336.98         114.557
337.43        115.1771
337.88        115.6841
338.34        116.0835
338.79        116.4561
339.24        116.8048
339.69        117.1108
340.14        117.3858
340.59        117.6625
341.05        117.9576
341.50        118.2856
341.95        118.6633
342.40        119.1094
342.85        119.6173
343.30         120.173
343.75        120.7179
344.20        121.1664
344.66         121.502
345.11        121.7181
345.56        121.8708
346.01         122.052
346.46        122.2946
346.91        122.5663
347.36        122.7965
347.81        122.9495
348.26        123.0267
348.72        122.7862
349.17        122.8105
349.62        122.8992
350.07        123.2257
350.52        123.7201
350.97        124.2024
351.42        124.3727
351.87        124.1559
352.32        123.6381
352.77        123.0285
353.22        122.6489
353.67        122.5687
354.13        122.7093
354.58         122.836
355.03         122.629
355.48        122.0244
355.93        121.1411
356.38        120.2125
356.83        119.5841
357.28        119.3194
357.73        119.2932
358.18        119.2849
358.63        118.9475
359.08        118.2007
359.53        117.1741
359.98        116.0482
360.43        115.0897
360.88        114.3701
361.33        113.7991
361.78        113.2859
362.23        112.6952
362.68        111.9823
363.13        111.1975
363.58        110.3733
364.03        109.5472
364.48        108.7372
364.93        107.9341
365.38        107.1259
365.83        106.3049
366.28        105.4741
366.73        104.6335
367.18        103.8352
367.63        103.1569
368.08        102.6025
368.53         102.149
368.98        101.6747
369.43        100.9829
369.88        100.0307
370.33        98.86385
370.78        97.64004
371.23        96.65306
371.68        95.99497
372.13        95.59181
372.58        95.28538
373.03        94.80734
373.48        94.08154
373.93        93.18943
374.38        92.25023
374.83        91.46679
375.28        90.90265
375.72         90.4706
376.17        90.11086
376.62        89.66195
377.07        89.07638
377.52        88.39204
377.97        87.67799
378.42        87.06351
378.87        86.59199
379.32         86.2225
379.77        85.87864
380.22        85.43916
380.67        84.86805
381.11        84.20637
381.56        83.50347
382.01        82.86937
382.46         82.3514
382.91        81.92494
383.36        81.54605
383.81        81.14406
384.26        80.69415
384.71        80.21484
385.15        79.72569
385.60        79.31837
386.05        78.98161
386.50        78.69527
386.95        78.40253
387.40        78.02749
387.85        77.57137
388.29        77.02095
388.74        76.54829
389.19        76.19404
389.64        75.95184
390.09        75.76931
390.54        75.58633
390.98        75.29739
391.43        74.93726
391.88        74.54902
392.33         74.1513
392.78         73.8114
393.23        73.55531
393.67         73.1921
394.12        72.87453
394.57        72.95855
395.02        73.29076
395.47        73.12817
395.91        72.53007
396.36        72.21281
396.81        72.23148
397.26          72.195
397.71        72.02013
398.15          71.755
398.60        71.47173
399.05        71.01614
399.50        70.55231
399.95        70.47414
400.39        70.69241
400.84        70.77357
401.29        70.62545
401.74        70.10706
402.18        69.43024
402.63        69.38785
403.08        69.86104
403.53         69.8327
403.97        69.25208
404.42        68.77384
404.87        68.48341
405.32        68.27631
405.76        68.17027
406.21        68.11973
406.66        68.10826
407.11        68.26405
407.55        68.49841
408.00        68.46592
408.45        68.16771
408.90         67.7543
409.34        67.35953
409.79        67.25026
410.24        67.38491
410.68        67.41814
411.13        67.33184
411.58        67.36471
412.03        67.48706
412.47        67.52132
412.92        67.41988
413.37        67.25331
413.81        67.06482
414.26         66.9681
414.71        66.96813
415.15        67.05265
415.60        67.14783
416.05        67.18732
416.49        67.15252
416.94        67.05773
417.39        66.95619
417.83        66.92161
418.28        66.97005
418.73         67.0666
419.17         67.1614
419.62        67.18729
420.07        67.13158
420.51        67.02116
420.96        66.91217
421.41        66.85774
421.85        66.85498
422.30        66.86716
422.74        66.88005
423.19        67.13319
423.64        67.53307
424.08        67.72492
424.53        67.66221
424.98         67.7243
425.42        67.93343
425.87        68.05737
426.31        68.09465
426.76        68.09448
427.21        68.09163
427.65        68.24059
428.10         68.4475
428.54        68.48878
428.99        68.40086
429.44        68.25376
429.88        68.08675
430.33        68.14237
430.77        68.31491
431.22        68.33232
431.66        68.20921
432.11        68.42226
432.56         68.9176
433.00        68.87325
433.45        68.18584
433.89        68.04353
434.34        68.56977
434.78        67.97398
435.23        68.04741
435.67        68.63026
436.12        69.72362
436.57        69.81179
437.01        68.91995
437.46        68.69767
437.90        70.06563
438.35        68.99812
438.79        70.05369
439.24        69.91441
439.68        69.90436
440.13         69.7368
440.57        69.53657
441.02        69.80561
441.46        70.35811
441.91        70.38476
442.35        69.96434
442.80        70.24749
443.24        71.06349
443.69        71.30527
444.13        70.93032
444.58        70.72188
445.02        70.78294
445.47        70.85386
445.91        71.18744
446.36        71.45213
446.80         71.3323
447.24        71.26855
447.69        71.22534
448.13        71.43972
448.58        71.65564
449.02        71.69229
449.47         71.5207
449.91        71.47524
450.36        71.58972
450.80        71.58472
451.25        71.49954
451.69         71.5766
452.13        71.76196
452.58        71.68729
453.02        71.39451
453.47         71.2689
453.91        71.31645
454.36        71.35721
454.80        71.34103
455.24        71.21552
455.69        70.96479
456.13        70.71689
456.58        70.63022
457.02        70.21146
457.46        70.22728
457.91        70.64885
458.35        70.41982
458.79        70.44993
459.24        70.40034
459.68        70.24308
460.13        69.99893
460.57        69.82639
461.01        69.80851
461.46        69.45674
461.90        69.09898
462.34        69.53648
462.79        69.14758
463.23        69.11263
463.68        69.49257
464.12        69.16837
464.56        68.50603
465.01        68.58132
465.45        69.21047
465.89        69.32104
466.34        68.91929
466.78        68.77415
467.22        68.96521
467.67        68.52884
468.11        68.43538
468.55        68.33535
468.99        68.45838
469.44        68.43344
469.88        68.24857
470.32        68.05929
470.77        67.90875
471.21        67.81951
471.65        67.80097
472.10        67.84701
472.54        67.89321
472.98        67.86805
473.42        67.76176
473.87        67.59605
474.31        67.37161
474.75        67.28796
475.20        67.33333
475.64        67.23376
476.08        66.99219
476.52        67.21091
476.97        66.95184
477.41        67.12526
477.85        67.45705
478.29        67.02235
478.74        66.50348
479.18        67.21233
479.62        66.88284
480.06        67.05648
480.50         66.9875
480.95        67.07186
481.39        67.26122
481.83        67.06918
482.27        67.30604
482.72        67.14183
483.16        67.20418
483.60        67.15124
484.04        67.41253
484.48         67.2988
484.93        67.69227
485.37        66.79904
485.81        67.85914
486.25        66.72166
486.69        67.61752
487.14        67.64836
487.58        67.61236
488.02        67.00771
488.46        66.50455
488.90        67.07854
489.34         66.6797
489.79        66.12693
490.23        66.58223
490.67        66.72133
491.11         66.9842
491.55        66.93687
491.99        66.66595
492.43        66.56377
492.88        66.63976
493.32        66.68414
493.76        66.61474
494.20        66.55904
494.64        66.54698
495.08         66.1612
495.52        65.95789
495.96         66.1191
496.41        66.61632
496.85        66.49931
497.29        65.84577
497.73        65.85566
498.17        66.16171
498.61        66.38166
499.05        66.30999
499.49        66.17397
499.93        66.06076
500.37        65.99879
500.82        66.02003
501.26        66.25787
501.70        66.76451
502.14        66.38506
502.58        65.84657
503.02        65.56243
503.46         65.6883
503.90        65.79135
504.34        65.78279
504.78        65.77824
505.22        65.77557
505.66        65.68276
506.10        65.52756
506.54        65.55956
506.98        65.83067
507.42        65.39759
507.86        66.00856
508.30        65.79136
508.74        65.97409
509.18        65.93027
509.62        65.89324
510.06        65.87807
510.50        65.85893
510.94        65.76117
511.38        65.59509
511.82        65.47462
512.26        65.41454
512.70        65.35411
513.14        65.28402
513.58         65.2515
514.02        65.26556
514.46         65.1427
514.90        65.18176
515.34        65.18649
515.78        65.25874
516.22        65.28447
516.66        65.07854
517.10        65.54407
517.54        65.24036
517.98        65.30363
518.42        65.30913
518.86        65.29472
519.30        65.25943
519.74        65.16991
520.18        65.08607
520.62        65.16592
521.06        65.36944
521.50        65.44523
521.93        65.37243
522.37        65.32549
522.81        65.30827
523.25        65.20822
523.69        65.06009
524.13        64.97975
524.57         64.9826
525.01        65.03268
525.45        65.10928
525.89        65.17802
526.32        65.22147
526.76        65.25755
527.20        65.27595
527.64        65.26225
528.08        65.21746
528.52        65.14624
528.96        65.07476
529.40        65.03754
529.83        65.04006
530.27        65.10512
530.71        65.18725
531.15        65.21006
531.59        65.16025
532.03        65.06445
532.46        64.96103
532.90         64.9235
533.34        64.95699
533.78        65.04996
534.22        65.15765
534.66        65.17214
535.09        65.06291
535.53        65.03967
535.97        64.85585
536.41        64.79745
536.85        64.79879
537.28        64.84215
537.72        64.90411
538.16         64.9547
538.60        64.98077
539.04        64.99156
539.47        64.96731
539.91        64.93013
540.35        64.86936
540.79        64.79031
541.22        64.70802
541.66        64.66493
542.10        64.66234
542.54        64.68174
542.97        64.70912
543.41        64.75365
543.85         64.8053
544.29        64.88029
544.72        64.92708
545.16        64.92343
545.60         64.8563
546.04        64.65635
546.47        64.43807
546.91         64.5423
547.35        64.89816
547.79        65.12997
548.22        65.13949
548.66        64.99862
549.10        64.78472
549.53        64.69492
549.97         64.7457
550.41        64.71859
550.84        64.62847
551.28        64.61374
551.72        64.65589
552.15        64.73993
552.59        64.87715
553.03        64.63153
553.46        64.87762
553.90        64.76433
554.34        64.50703
554.77         64.7061
555.21        64.47932
555.65        64.32079
556.08        64.49122
556.52        64.58456
556.96        64.70335
557.39        64.78046
557.83        64.81842
558.27        64.77772
558.70        64.69291
559.14        64.64855
559.57        64.64007
560.01        64.73856
560.45         64.8616
560.88        64.73605
561.32        64.47871
561.75        64.39944
562.19        64.53654
562.63        64.67522
563.06        64.73763
563.50        64.67351
563.93        64.49932
564.37        64.35535
564.80        64.28266
565.24        64.40688
565.68        64.66431
566.11        64.78687
566.55        64.76501
566.98        64.79569
567.42        64.88849
567.85        64.76794
568.29        64.54814
568.72        64.57601
569.16        64.88094
569.60        64.91107
570.03        64.95558
570.47        65.05006
570.90        65.22725
571.34        65.09972
571.77        65.36778
572.21        65.15466
572.64         64.9389
573.08        65.00893
573.51        65.15682
573.95         65.6343
574.38         65.2948
574.82        65.60102
