SpectraSmart Spectrum 2.9.0.0
--------- Device Information -----------
Spectrum Name :  反射率_0
Saving Time :  2024/04/21 00:04:57
Spectro-Module Model Name : SE2030-DUVN
Spectro-Module Serial Number : OS361AC55029948
Wavelength Start : 200
Wavelength End : 1025
Wavelength Unit : Wavelength(nm)
Spectrum Unit : Reflectance(%)
-----------Spectrum Setting ------------
Integration Time : 20ms
Average : 10
Boxcar : 0
Background removal :  enabled
linearity correction :  enabled
SC :  disabled
Intensity correction :  disabled
DWT denoise :  enabled
savitzky-golay :  disabled
FFT :  disabled
Running average :  disabled
Kalman :  disabled
High pass :  disabled
---------------BEGIN--------------------
Wavelength(nm)             Reflectance(%)
200.29               0
200.75       -117.6832
201.21       -43.05567
201.67      0.02029278
202.13        20.33533
202.58        28.88585
203.04        32.64188
203.50        32.20537
203.96        27.39292
204.42        19.07586
204.88        6.553639
205.34       -5.411281
205.80       -11.00123
206.26       -8.492097
206.72        6.369214
207.18        26.24354
207.64        29.17332
208.10        7.151948
208.55       -33.45098
209.01       -60.83004
209.47       -36.67845
209.93        6.563507
210.39        42.38577
210.85        65.26009
211.31        74.73785
211.77        74.27897
212.23        65.40925
212.69        44.05907
213.14        6.255939
213.60       -56.01596
214.06       -220.6297
214.52       -557.4023
214.98       -208.4875
215.44       -23.39769
215.90        35.16012
216.36        53.20778
216.81         52.7868
217.27        35.40128
217.73       -49.81827
218.19        990.3367
218.65        458.2433
219.11       -1036.448
219.57       -46.21951
220.02        18.58795
220.48        32.10389
220.94        30.19762
221.40        14.80608
221.86       -24.43022
222.32        -49.6608
222.77       -13.58365
223.23        16.97539
223.69        31.78064
224.15        35.86868
224.61        34.17463
225.06        29.80632
225.52        23.80636
225.98        17.43605
226.44        11.70816
226.90        5.263849
227.36        1.691229
227.81        6.962868
228.27        17.17723
228.73        27.50039
229.19        33.99184
229.65        34.55556
230.10        30.03665
230.56        21.82423
231.02        11.20556
231.48        3.801765
231.93        3.885309
232.39        9.503252
232.85        16.16198
233.31        19.93162
233.77        20.96204
234.22        20.95324
234.68         20.3843
235.14        20.02798
235.60        20.51543
236.05        20.71706
236.51        20.58306
236.97        25.95997
237.43        36.83377
237.88        43.31968
238.34        41.62888
238.80        62.00018
239.26         51.2137
239.71        48.34717
240.17        39.06955
240.63        29.29203
241.08        23.18164
241.54        24.42328
242.00        33.71027
242.46        40.29403
242.91         41.6341
243.37        39.45222
243.83        35.14891
244.28        33.93167
244.74        38.31422
245.20        43.89132
245.66        48.31829
246.11        50.34472
246.57        49.68275
247.03         47.2743
247.48        42.19302
247.94        32.07703
248.40        11.35859
248.85       -43.38545
249.31       -227.6118
249.77       -434.8518
250.22       -174.3544
250.68       -47.83414
251.14       -2.399255
251.59        14.29793
252.05        20.61936
252.51        23.47209
252.96        23.18173
253.42        20.74126
253.88        18.06767
254.33         15.9158
254.79        18.46808
255.25        26.71199
255.70         36.4045
256.16        44.77056
256.62        50.82628
257.07        54.19622
257.53         56.0165
257.99        56.94795
258.44         56.9717
258.90        56.68331
259.35        55.80269
259.81        54.76758
260.27        53.72467
260.72        52.92879
261.18        52.61632
261.63        52.36689
262.09        52.03907
262.55        51.09243
263.00        49.53061
263.46         47.7821
263.91         46.0803
264.37        45.13304
264.83        44.87217
265.28         44.9733
265.74        45.16897
266.19        44.92421
266.65        44.22607
267.11        43.21015
267.56        42.02285
268.02        40.97491
268.47        40.09921
268.93        39.32177
269.38        38.56288
269.84        37.77153
270.30         36.9169
270.75        36.05371
271.21        35.19421
271.66        34.27608
272.12        33.33864
272.57        32.37583
273.03        31.50372
273.48        30.85337
273.94        30.44993
274.39         30.2076
274.85        30.01044
275.31        29.61596
275.76        28.98091
276.22        28.22828
276.67        27.47763
277.13        26.97386
277.58        26.71594
278.04        26.63785
278.49        26.59299
278.95         26.4592
279.40        26.15674
279.86        25.75889
280.31        25.28127
280.77        24.82724
281.22        24.39157
281.68        24.01113
282.13        23.61249
282.59        23.16635
283.04        22.65819
283.50        22.13653
283.95        21.71107
284.41        21.56739
284.86        21.70684
285.32         22.0649
285.77        22.44949
286.22        22.59647
286.68        22.48056
287.13        22.15665
287.59        21.83156
288.04        21.71465
288.50        21.82929
288.95        22.21655
289.41         22.7811
289.86        22.89347
290.32        22.43905
290.77         23.4225
291.22        22.62793
291.68        22.81005
292.13        23.03664
292.59        23.36946
293.04        23.79747
293.50        24.38074
293.95        25.13909
294.40        26.03977
294.86        27.03625
295.31        28.03815
295.77        29.02167
296.22        29.99525
296.68        31.00623
297.13        32.12428
297.58        33.37587
298.04        34.73466
298.49        36.16376
298.95        37.62539
299.40        39.08268
299.85        40.55293
300.31        42.01961
300.76         43.4384
301.21        44.81456
301.67        46.17637
302.12        47.55673
302.58        49.10172
303.03        50.80793
303.48        52.68664
303.94        54.65396
304.39        56.52821
304.84        58.27689
305.30        59.95253
305.75        61.62115
306.20        63.48604
306.66        65.55944
307.11        67.70839
307.57        69.79852
308.02        71.57024
308.47        72.99895
308.93        74.21423
309.38        75.29678
309.83        76.40937
310.29        77.69545
310.74        79.01865
311.19         80.3746
311.65        81.70529
312.10        82.96741
312.55        84.18192
313.00        85.34177
313.46        86.43179
313.91        87.43114
314.36        88.34743
314.82        89.17822
315.27        89.92321
315.72        90.60261
316.18        91.22469
316.63        91.83413
317.08        92.50391
317.53        93.23824
317.99        94.00545
318.44         94.7413
318.89        95.32623
319.35        95.73229
319.80        96.00804
320.25        96.20137
320.70        96.39875
321.16        96.62653
321.61        96.87595
322.06        97.15672
322.51        97.49013
322.97        97.85967
323.42        98.30196
323.87        98.74615
324.32        99.08566
324.78        99.27905
325.23        99.38346
325.68        99.46925
326.13        99.68803
326.59        100.0512
327.04         100.565
327.49         101.108
327.94        101.5094
328.39        101.7196
328.85        101.7546
329.30         101.768
329.75        101.8915
330.20         102.172
330.66        102.5329
331.11        102.9519
331.56        103.2583
332.01        103.4182
332.46        103.4869
332.92        103.5071
333.37        103.6846
333.82        104.0222
334.27        104.4758
334.72        105.0034
335.17        105.5358
335.63        106.0129
336.08        106.5145
336.53        107.0013
336.98        107.4551
337.43         107.873
337.88        108.2426
338.34         108.582
338.79        108.9852
339.24        109.4445
339.69        109.9481
340.14        110.4328
340.59         110.803
341.05        111.0423
341.50        111.1796
341.95        111.3071
342.40        111.5785
342.85        112.0265
343.30        112.6133
343.75        113.1982
344.20        113.5605
344.66        113.6672
345.11        113.5694
345.56        113.4508
346.01        113.5974
346.46        114.0662
346.91        114.7464
347.36        115.4278
347.81        115.8425
348.26        115.9342
348.72         115.619
349.17         115.393
349.62        115.2893
350.07        115.4752
350.52        115.8426
350.97        116.2297
351.42        116.3714
351.87         116.194
352.32        115.7922
352.77        115.2954
353.22        114.8934
353.67        114.6363
354.13        114.4744
354.58        114.3009
355.03        114.0061
355.48        113.5612
355.93        113.0138
356.38        112.4321
356.83        111.9082
357.28        111.4564
357.73        111.0372
358.18         110.586
358.63        110.0106
359.08        109.2981
359.53        108.4931
359.98        107.6593
360.43        106.8838
360.88        106.1887
361.33        105.5479
361.78        104.9305
362.23        104.2894
362.68        103.6121
363.13         102.917
363.58        102.2151
364.03        101.5192
364.48        100.8328
364.93        100.1477
365.38        99.46122
365.83        98.77616
366.28        98.08938
366.73        97.39149
367.18        96.68892
367.63        95.99243
368.08        95.30337
368.53        94.62917
368.98        93.92619
369.43        93.11523
369.88        92.18412
370.33        91.15287
370.78        90.11974
371.23        89.26938
371.68        88.65852
372.13        88.24102
372.58        87.90625
373.03        87.46345
373.48        86.85213
373.93        86.12055
374.38        85.34034
374.83        84.64055
375.28         84.0691
375.72        83.57462
376.17        83.13216
376.62        82.63838
377.07        82.06068
377.52         81.4142
377.97        80.76173
378.42         80.2208
378.87        79.82284
379.32         79.5332
379.77        79.24726
380.22        78.80113
380.67        78.15916
381.11        77.37566
381.56        76.55488
382.01        75.89801
382.46         75.4724
382.91        75.22334
383.36        75.05077
383.81        74.79642
384.26        74.41351
384.71          73.947
385.15         73.4473
385.60        73.05348
386.05        72.76711
386.50        72.54372
386.95        72.31632
387.40        71.99473
387.85        71.57272
388.29        71.05472
388.74        70.59483
389.19        70.21489
389.64        69.91982
390.09        69.68024
390.54        69.46629
390.98        69.22054
391.43        68.96893
391.88        68.71868
392.33        68.48606
392.78        68.27752
393.23        68.08958
393.67        67.90714
394.12        67.79189
394.57        67.55756
395.02        67.34599
395.47        67.12691
395.91        66.94252
396.36        66.69913
396.81        66.42087
397.26        66.18307
397.71        65.98178
398.15        65.77588
398.60        65.64076
399.05        65.44728
399.50        65.25389
399.95        65.33253
400.39        65.59837
400.84        65.55225
401.29        65.18865
401.74        64.86128
402.18        64.62812
402.63        64.37144
403.08        64.09332
403.53        63.80357
403.97        63.51841
404.42        63.30663
404.87         63.1618
405.32        63.06999
405.76        63.02156
406.21        62.96838
406.66        62.90036
407.11         62.9684
407.55        63.10986
408.00        62.91676
408.45        62.47115
408.90        62.24399
409.34        62.27016
409.79        62.31445
410.24        62.30477
410.68        62.23915
411.13        62.10095
411.58        61.89504
412.03        61.67775
412.47        61.56764
412.92        61.57154
413.37        61.66334
413.81        61.78159
414.26        61.88372
414.71        61.93331
415.15        61.96283
415.60        61.94803
416.05        61.90074
416.49        61.83261
416.94        61.73356
417.39        61.63106
417.83        61.56057
418.28        61.53317
418.73        61.54068
419.17        61.56094
419.62        61.56382
420.07        61.53882
420.51        61.49006
420.96        61.45268
421.41         61.4307
421.85        61.40027
422.30         61.4063
422.74        61.41973
423.19        61.45693
423.64        61.52402
424.08        61.73702
424.53        61.96656
424.98        62.06751
425.42        62.03419
425.87        61.76144
426.31        61.41864
426.76        61.59877
427.21        62.18636
427.65         62.2868
428.10        61.88715
428.54        61.80856
428.99         62.1028
429.44        62.23575
429.88        62.17516
430.33        62.31521
430.77        62.53028
431.22        62.49637
431.66        62.27343
432.11        62.41528
432.56        62.90803
433.00        62.93201
433.45        62.35117
433.89        62.28909
434.34        62.85549
434.78         62.0046
435.23        62.16631
435.67        62.50941
436.12        63.35571
436.57        63.46437
437.01        62.89187
437.46        62.69507
437.90        63.61921
438.35        63.31169
438.79        63.83644
439.24        63.78942
439.68          63.752
440.13        63.64558
440.57          63.529
441.02        63.56178
441.46        63.71813
441.91        63.82008
442.35        63.84063
442.80        64.27915
443.24         64.9626
443.69        65.17361
444.13        64.88093
444.58         64.6244
445.02        64.48866
445.47        64.50051
445.91        64.62079
446.36        64.68015
446.80        64.66033
447.24        64.65594
447.69         64.6986
448.13        64.93693
448.58         65.1255
449.02        65.11506
449.47        64.87771
449.91        64.72488
450.36        64.69703
450.80        64.53523
451.25        64.32264
451.69        64.34959
452.13        64.57727
452.58        64.65926
453.02        64.55373
453.47        64.48238
453.91        64.42953
454.36        64.26271
454.80         64.0219
455.24        63.85736
455.69        63.80955
456.13        63.79175
456.58        63.80719
457.02        63.80183
457.46        63.80879
457.91        63.65366
458.35        63.49617
458.79        63.34606
459.24        63.25126
459.68        63.19393
460.13        63.19054
460.57        63.03978
461.01        62.60976
461.46        62.91861
461.90        62.32256
462.34        62.37751
462.79        62.24379
463.23        62.47196
463.68         62.7961
464.12        62.61731
464.56        62.08096
465.01        62.11304
465.45        62.55096
465.89        62.66406
466.34        62.45367
466.78        62.21435
467.22        61.98288
467.67        62.04286
468.11        61.55556
468.55        61.56622
468.99        61.73098
469.44         61.7091
469.88        61.47029
470.32        61.20369
470.77        60.99781
471.21         60.8874
471.65        60.89521
472.10        61.00795
472.54         61.1388
472.98        61.17762
473.42        61.10407
473.87        60.94962
474.31        60.74699
474.75        60.69187
475.20        60.76258
475.64        60.74584
476.08        60.63488
476.52        60.61143
476.97        60.66801
477.41        60.71871
477.85        60.65075
478.29        60.74076
478.74        60.09396
479.18        60.04744
479.62        60.41736
480.06        60.58553
480.50        60.59843
480.95        60.61245
481.39        60.52723
481.83        61.05585
482.27        60.96516
482.72        60.61866
483.16        60.61948
483.60        60.83963
484.04        60.74415
484.48        60.51923
484.93        60.70728
485.37        60.22023
485.81        60.69978
486.25        60.37407
486.69        61.79959
487.14        61.38759
487.58        60.98582
488.02        60.41278
488.46        60.34407
488.90        60.40575
489.34        60.40525
489.79        59.91121
490.23        60.46486
490.67        60.52191
491.11        60.52566
491.55        60.31067
491.99        59.99417
492.43        59.87331
492.88        59.96985
493.32        60.15819
493.76        60.31478
494.20        60.41839
494.64        60.46415
495.08        60.10764
495.52        59.96968
495.96        59.95214
496.41        60.14324
496.85        60.03977
497.29        59.66213
497.73        59.70461
498.17        59.80933
498.61        59.86207
499.05        59.70921
499.49        59.46585
499.93        59.24641
500.37         59.1761
500.82        59.27156
501.26        59.58037
501.70        60.08365
502.14        59.83933
502.58        59.45964
503.02         59.2537
503.46        59.35598
503.90        59.39146
504.34        59.31652
504.78        59.30092
505.22        59.36201
505.66        59.37863
506.10        59.33838
506.54         59.4561
506.98        59.77114
507.42        59.23933
507.86        59.82029
508.30        59.51653
508.74        59.61632
509.18        59.49707
509.62        59.38969
510.06        59.30244
510.50        59.21566
510.94         59.0741
511.38        58.90481
511.82        58.83487
512.26        58.87134
512.70        58.94979
513.14        59.03379
513.58        59.09439
514.02        59.11525
514.46        59.08421
514.90        58.98555
515.34        58.95647
515.78        58.82727
516.22        58.70866
516.66         58.4318
517.10        58.67778
517.54        58.52047
517.98        58.67675
518.42        58.83139
518.86        58.93657
519.30        58.96898
519.74        58.91187
520.18        58.82486
520.62        58.87333
521.06         59.0292
521.50        59.05511
521.93        58.94503
522.37        58.87985
522.81        58.86617
523.25        58.79891
523.69        58.68843
524.13        58.60272
524.57        58.54966
525.01         58.5109
525.45        58.48918
525.89        58.48734
526.32        58.50113
526.76        58.53801
527.20         58.5801
527.64        58.60028
528.08        58.59261
528.52        58.56323
528.96        58.53576
529.40        58.54142
529.83         58.5831
530.27         58.6774
530.71        58.77733
531.15        58.80626
531.59        58.75243
532.03        58.64483
532.46        58.52538
532.90        58.47418
533.34         58.5027
533.78        58.58378
534.22        58.67373
534.66        58.70597
535.09        58.65642
535.53        58.56883
535.97         58.4585
536.41        58.36444
536.85        58.30138
537.28        58.25792
537.72        58.23386
538.16        58.23103
538.60         58.2451
539.04        58.27785
539.47        58.30455
539.91        58.33399
540.35        58.34829
540.79        58.35133
541.22        58.34501
541.66        58.34809
542.10        58.35925
542.54        58.36887
542.97        58.37077
543.41         58.3887
543.85        58.41407
544.29        58.44758
544.72        58.46062
545.16         58.4504
545.60        58.40957
546.04        58.31357
546.47        58.20168
546.91        58.23289
547.35        58.38142
547.79        58.40744
548.22        58.29966
548.66        58.33778
549.10         58.4749
549.53        58.38021
549.97        58.11451
550.41        58.00599
550.84        58.07827
551.28         58.1737
551.72        58.26348
552.15        58.33114
552.59        58.36443
553.03        58.48153
553.46        58.46316
553.90         58.4521
554.34        58.37124
554.77        58.31294
555.21        58.33877
555.65        58.11441
556.08        58.32003
556.52        58.39757
556.96        58.49968
557.39        58.60006
557.83        58.67014
558.27        58.57566
558.70        58.37878
559.14        58.30212
559.57        58.35445
560.01         58.5271
560.45        58.69959
560.88        58.60209
561.32        58.33009
561.75        58.11974
562.19        58.07337
562.63        58.21017
563.06        58.43325
563.50        58.44225
563.93        58.24062
564.37        58.11818
564.80        58.10423
565.24        58.22921
565.68        58.43512
566.11        58.48364
566.55        58.39334
566.98        58.43607
567.42        58.60489
567.85        58.52035
568.29        58.29161
568.72        58.34065
569.16        58.67509
569.60        58.72485
570.03         58.7404
570.47        58.74948
570.90        58.84473
571.34        58.81085
571.77        59.06173
572.21        59.17802
572.64        59.15658
573.08        58.97883
573.51        58.91527
573.95        59.25425
574.38        59.16774
574.82        59.67234
