SpectraSmart Spectrum 2.9.0.0
--------- Device Information -----------
Spectrum Name :  反射率_0
Saving Time :  2024/04/21 00:18:41
Spectro-Module Model Name : SE2030-DUVN
Spectro-Module Serial Number : OS361AC55029948
Wavelength Start : 200
Wavelength End : 1025
Wavelength Unit : Wavelength(nm)
Spectrum Unit : Reflectance(%)
-----------Spectrum Setting ------------
Integration Time : 20ms
Average : 10
Boxcar : 0
Background removal :  enabled
linearity correction :  enabled
SC :  disabled
Intensity correction :  disabled
DWT denoise :  enabled
savitzky-golay :  disabled
FFT :  disabled
Running average :  disabled
Kalman :  disabled
High pass :  disabled
---------------BEGIN--------------------
Wavelength(nm)             Reflectance(%)
200.29               0
200.75       -130.4525
201.21       -59.81468
201.67       -18.18055
202.13       0.9462759
202.58        8.110323
203.04        10.03464
203.50        9.399155
203.96        10.43126
204.42        14.07937
204.88        16.87568
205.34        18.43897
205.80        18.61256
206.26        17.45387
206.72        18.06215
207.18        15.55989
207.64       -1.516531
208.10       -33.38323
208.55       -74.93648
209.01       -94.29543
209.47       -58.80496
209.93        -7.66014
210.39        33.35123
210.85        59.12508
211.31        69.58926
211.77        68.72412
212.23        57.51605
212.69        31.26398
213.14       -12.96034
213.60       -80.20027
214.06       -245.4954
214.52       -559.4526
214.98       -208.8981
215.44       -33.39962
215.90        22.16051
216.36        39.19321
216.81        38.39115
217.27        20.88769
217.73       -66.02737
218.19        975.2008
218.65        417.1675
219.11       -842.4586
219.57       -16.82318
220.02        35.12659
220.48        43.72977
220.94        37.52089
221.40        14.81481
221.86       -39.56806
222.32       -75.62358
222.77       -27.44349
223.23        15.19137
223.69        37.22518
224.15        45.71797
224.61        47.52058
225.06        46.51548
225.52        43.78344
225.98        40.18053
226.44        36.44708
226.90        31.57283
227.36        28.30996
227.81        31.51454
228.27        38.74506
228.73        46.29578
229.19        51.22695
229.65        52.00117
230.10        49.26328
230.56        44.17435
231.02         37.5327
231.48        32.79309
231.93        32.58823
232.39        35.78841
232.85         39.6204
233.31        41.59518
233.77        41.79819
234.22        41.43531
234.68        40.59276
235.14        39.43613
235.60         38.3567
236.05        36.50092
236.51        34.42624
236.97        38.24332
237.43        48.24481
237.88        55.94842
238.34        57.78497
238.80        73.29578
239.26        63.77067
239.71        56.58752
240.17        41.63306
240.63        27.68484
241.08         22.5776
241.54        31.28252
242.00        50.51657
242.46        62.32541
242.91        61.30413
243.37        47.81468
243.83        24.41787
244.28        7.314196
244.74        8.208055
245.20        19.12917
245.66        31.46832
246.11        37.15679
246.57        34.90822
247.03        28.23881
247.48        18.13326
247.94        5.577951
248.40       -12.34667
248.85       -55.46993
249.31       -185.9198
249.77       -282.9411
250.22       -80.58215
250.68        2.006919
251.14        28.13056
251.59        35.11393
252.05        34.32491
252.51        28.74896
252.96         18.8836
253.42        11.32102
253.88        12.32089
254.33        19.90101
254.79         31.8377
255.25        43.97408
255.70         53.6039
256.16        60.89219
256.62        66.09897
257.07         69.6409
257.53        72.36542
257.99        74.09361
258.44         74.6771
258.90        74.76821
259.35        73.95645
259.81         72.9953
260.27        71.61246
260.72        69.64176
261.18        67.75468
261.63        65.79321
262.09        64.27812
262.55        63.18412
263.00        62.30344
263.46        61.71489
263.91        61.08268
264.37        60.47334
264.83        59.76048
265.28         58.9366
265.74        58.10081
266.19        57.10075
266.65        56.02426
267.11         54.8348
267.56        53.58899
268.02        52.49506
268.47         51.5275
268.93         50.6688
269.38        49.80004
269.84        48.80383
270.30        47.64408
270.75        46.38731
271.21        45.11858
271.66         43.8889
272.12        42.77424
272.57        41.73392
273.03        40.84173
273.48        40.14222
273.94        39.64474
274.39        39.27243
274.85        38.94868
275.31         38.4733
275.76        37.80317
276.22        37.05029
276.67        36.27409
277.13         35.6656
277.58        35.20784
278.04         34.8717
278.49        34.56562
278.95        34.27123
279.40        33.90678
279.86        33.52201
280.31         33.0516
280.77        32.50159
281.22        31.85083
281.68        31.19726
282.13        30.52828
282.59        29.92099
283.04         29.3686
283.50        28.87572
283.95        28.51453
284.41        28.43146
284.86        28.59815
285.32        28.97182
285.77        29.31831
286.22        29.32414
286.68        28.97104
287.13        28.32928
287.59        27.69103
288.04        27.39209
288.50        27.48635
288.95        27.96008
289.41        28.63881
289.86        28.79567
290.32        28.30417
290.77        29.06968
291.22        28.18688
291.68        28.30827
292.13        28.59687
292.59        29.08224
293.04        29.72369
293.50         30.5366
293.95        31.51752
294.40        32.64141
294.86        33.87199
295.31        35.13313
295.77        36.39634
296.22        37.65099
296.68        38.90912
297.13        40.18805
297.58        41.51374
298.04        42.88522
298.49        44.31671
298.95        45.85178
299.40        47.47514
299.85        49.18709
300.31        50.94064
300.76        52.63145
301.21        54.25179
301.67        55.84941
302.12        57.46865
302.58        59.29153
303.03        61.30811
303.48        63.50699
303.94        65.78668
304.39        67.93276
304.84        69.90359
305.30        71.76759
305.75        73.57366
306.20        75.51493
306.66        77.61954
307.11        79.75961
307.57        81.85509
308.02         83.7057
308.47        85.30435
308.93        86.75823
309.38        88.09697
309.83        89.43803
310.29        90.86086
310.74        92.26521
311.19        93.66403
311.65        95.04667
312.10         96.3778
312.55        97.66977
313.00        98.87133
313.46        99.90023
313.91        100.7312
314.36        101.4031
314.82        101.9998
315.27        102.6468
315.72        103.3869
316.18        104.1829
316.63        104.9871
317.08        105.7198
317.53        106.3473
317.99        106.8905
318.44        107.3507
318.89        107.7142
319.35        107.9879
319.80         108.184
320.25        108.3413
320.70         108.534
321.16        108.7723
321.61        109.0565
322.06        109.3542
322.51        109.6151
322.97        109.8086
323.42        109.9917
323.87        110.1538
324.32        110.2967
324.78        110.4119
325.23        110.5397
325.68        110.6948
326.13        110.9364
326.59        111.2443
327.04        111.6492
327.49        112.0815
327.94        112.4603
328.39        112.7561
328.85        112.9547
329.30        113.1318
329.75        113.2777
330.20        113.4097
330.66        113.4905
331.11        113.6211
331.56         113.822
332.01        114.1115
332.46        114.4898
332.92         114.878
333.37         115.286
333.82        115.6465
334.27        115.9695
334.72        116.2977
335.17        116.7085
335.63        117.1824
336.08        117.7524
336.53        118.3209
336.98        118.7824
337.43         119.107
337.88        119.3206
338.34        119.4656
338.79        119.6796
339.24        119.9704
339.69        120.3102
340.14        120.6512
340.59        120.9189
341.05        121.1015
341.50        121.2439
341.95        121.3904
342.40        121.6127
342.85        121.9302
343.30        122.3116
343.75        122.7212
344.20         123.112
344.66        123.4619
345.11        123.7459
345.56        123.9624
346.01        124.1109
346.46        124.2026
346.91        124.2322
347.36        124.1684
347.81        124.0408
348.26        123.8789
348.72        123.4272
349.17        123.2847
349.62        123.2396
350.07        123.4648
350.52        123.8837
350.97        124.3293
351.42        124.5173
351.87        124.3647
352.32        123.9496
352.77        123.4094
353.22        122.9622
353.67        122.6635
354.13        122.4603
354.58        122.2356
355.03         121.861
355.48        121.3127
355.93        120.6598
356.38        119.9887
356.83         119.415
357.28        118.9582
357.73        118.5632
358.18        118.1706
358.63        117.6964
359.08        117.1127
359.53        116.4483
359.98        115.7132
360.43        114.9159
360.88        114.0669
361.33        113.1678
361.78         112.247
362.23        111.3543
362.68        110.5104
363.13        109.7154
363.58        108.9546
364.03        108.1942
364.48         107.423
364.93        106.6481
365.38         105.881
365.83        105.1439
366.28        104.4362
366.73        103.7372
367.18        103.0314
367.63        102.3003
368.08        101.5395
368.53        100.7656
368.98        99.96348
369.43        99.09586
369.88        98.16215
370.33        97.17666
370.78        96.20427
371.23        95.37379
371.68         94.7249
372.13        94.21752
372.58        93.79518
373.03        93.35091
373.48        92.83845
373.93        92.28736
374.38        91.67168
374.83        90.96525
375.28         90.1902
375.72        89.34092
376.17        88.54607
376.62        87.91842
377.07         87.4613
377.52        87.12906
377.97        86.81349
378.42        86.34377
378.87        85.69485
379.32        84.94016
379.77        84.17506
380.22        83.52056
380.67        82.99341
381.11        82.54987
381.56        82.14134
382.01        81.71442
382.46         81.2628
382.91        80.82286
383.36        80.39527
383.81        79.97265
384.26         79.5534
384.71        79.12358
385.15        78.70416
385.60        78.39915
386.05        78.18637
386.50         78.0358
386.95        77.85497
387.40        77.50752
387.85        76.98513
388.29         76.3065
388.74        75.67342
389.19        75.15676
389.64         74.7771
390.09        74.50199
390.54        74.28091
390.98        74.01857
391.43        73.72778
391.88        73.41895
392.33        73.14596
392.78        72.93536
393.23        72.77736
393.67        72.74416
394.12        72.80641
394.57         72.4492
395.02        71.79104
395.47        71.57816
395.91        71.77117
396.36        71.63388
396.81        71.15746
397.26        70.79317
397.71        70.56376
398.15        70.27251
398.60        70.00741
399.05        69.74962
399.50         69.5421
399.95        69.48482
400.39        69.56752
400.84        69.62186
401.29        69.58282
401.74        69.43169
402.18        69.15567
402.63        68.72143
403.08        68.21062
403.53        67.81616
403.97        67.58109
404.42        67.44579
404.87        67.38425
405.32        67.36528
405.76        67.35213
406.21         67.4104
406.66        67.44244
407.11        67.23075
407.55        66.82314
408.00        66.36283
408.45        65.98167
408.90        65.85105
409.34        65.92045
409.79        65.88843
410.24        65.73932
410.68        65.72169
411.13        65.82171
411.58        65.85477
412.03         65.8036
412.47         65.7633
412.92        65.71153
413.37        65.62373
413.81        65.51398
414.26         65.4623
414.71        65.45755
415.15        65.50404
415.60        65.52845
416.05        65.45636
416.49        65.28044
416.94        65.03105
417.39        64.77539
417.83        64.60461
418.28        64.54192
418.73        64.54812
419.17        64.59457
419.62        64.64409
420.07        64.67918
420.51        64.71053
420.96        64.73006
421.41        64.70075
421.85         64.6032
422.30        64.41836
422.74        64.20733
423.19        64.31882
423.64        64.68324
424.08        64.91564
424.53        64.89853
424.98        64.92598
425.42        65.00111
425.87        64.82205
426.31        64.49716
426.76        64.50151
427.21        64.81839
427.65        64.93651
428.10        64.71677
428.54        64.91422
428.99        64.63201
429.44        64.39172
429.88        64.02451
430.33        64.03709
430.77        64.29662
431.22         64.4521
431.66        64.45964
432.11        64.54399
432.56         64.7205
433.00        64.66989
433.45        64.28741
433.89        64.27678
434.34        64.67645
434.78        64.08868
435.23        63.67305
435.67        64.38502
436.12        64.48025
436.57        64.64692
437.01        64.39863
437.46        64.18697
437.90        64.69364
438.35        64.94683
438.79        65.05614
439.24        65.09522
439.68        65.05841
440.13        64.91954
440.57        64.71671
441.02        64.68645
441.46        64.80802
441.91        64.73485
442.35        64.50493
442.80        64.87007
443.24        65.60514
443.69        65.67227
444.13        65.10661
444.58        64.79282
445.02         64.8136
445.47        64.99298
445.91        65.22363
446.36        65.32705
446.80        65.26491
447.24        65.13322
447.69        65.00587
448.13        65.10895
448.58        65.21935
449.02        65.16452
449.47        64.92497
449.91        64.82156
450.36        64.88873
450.80        64.87052
451.25        64.79801
451.69        64.88147
452.13        65.06548
452.58        65.01183
453.02        64.75631
453.47        64.64768
453.91        64.69492
454.36           64.73
454.80        64.67934
455.24        64.55116
455.69        64.36632
456.13        64.01216
456.58        63.62508
457.02        63.67906
457.46        63.77914
457.91        63.85299
458.35        63.85563
458.79        63.84429
459.24        63.83254
459.68        63.73774
460.13        63.65733
460.57        63.43742
461.01        63.07356
461.46        63.38603
461.90        63.29267
462.34        62.73602
462.79          62.866
463.23        62.65227
463.68        63.21812
464.12        63.08282
464.56        62.61318
465.01        62.75679
465.45        63.27375
465.89        63.35731
466.34        63.05597
466.78        62.67586
467.22        62.32588
467.67        62.72606
468.11        62.74739
468.55        62.69456
468.99         62.2807
469.44        62.07851
469.88        62.10152
470.32         62.0156
470.77        61.84334
471.21        61.76336
471.65        61.78583
472.10        61.86133
472.54        61.93254
472.98        61.95278
473.42        61.91382
473.87        61.78994
474.31        61.61116
474.75        61.65039
475.20        61.81596
475.64        61.75132
476.08         61.5403
476.52          61.369
476.97        61.17363
477.41        61.69078
477.85        61.87661
478.29        61.28159
478.74        61.26806
479.18        61.63852
479.62        61.97737
480.06        62.22838
480.50         62.1822
480.95        62.01015
481.39        61.66613
481.83        62.01489
482.27        62.14997
482.72        61.58076
483.16        61.96767
483.60        62.25172
484.04        62.14284
484.48        61.89268
484.93        62.09481
485.37         61.5363
485.81        62.25066
486.25        62.33643
486.69        62.61789
487.14        63.11708
487.58        62.24067
488.02         62.3643
488.46        62.13357
488.90        62.15635
489.34        62.23755
489.79         61.6298
490.23         62.0977
490.67        62.13369
491.11        62.20369
491.55        62.01692
491.99        61.68711
492.43        61.59537
492.88        61.76316
493.32        62.02135
493.76        62.22142
494.20        62.35071
494.64         62.4011
495.08        61.97176
495.52        61.73205
495.96        61.83123
496.41        62.29783
496.85        62.37403
497.29         62.0206
497.73         61.9296
498.17        61.82244
498.61        61.94931
499.05        62.12408
499.49        62.00193
499.93        61.67567
500.37        61.62926
500.82        61.83674
501.26        62.03825
501.70         62.1515
502.14        61.79839
502.58        61.56736
503.02        61.41183
503.46        61.46083
503.90        61.54313
504.34        61.60103
504.78        61.67461
505.22        61.76292
505.66        61.77644
506.10         61.7131
506.54        61.76812
506.98         61.9844
507.42        61.37693
507.86         62.0167
508.30         61.4305
508.74        61.70914
509.18        61.59168
509.62        61.54536
510.06        61.56646
510.50        61.62494
510.94        61.64491
511.38          61.592
511.82        61.52277
512.26        61.43677
512.70        61.30475
513.14        61.16133
513.58        61.08329
514.02        61.08509
514.46        61.14048
514.90        61.22059
515.34        61.31316
515.78        61.40646
516.22        61.47992
516.66        61.36095
517.10        61.60576
517.54        61.33929
517.98        61.24587
518.42        61.12135
518.86        61.06441
519.30        61.08778
519.74        61.17921
520.18        61.29931
520.62        61.35382
521.06        61.32701
521.50        61.25914
521.93        61.17406
522.37        61.09272
522.81        61.03248
523.25         60.9981
523.69        60.97163
524.13         60.9198
524.57        60.84063
525.01        60.74718
525.45        60.67706
525.89        60.68686
526.32        60.77928
526.76        60.93344
527.20        61.08977
527.64        61.15895
528.08        61.11945
528.52        61.00218
528.96          60.854
529.40        60.74117
529.83        60.68366
530.27        60.69172
530.71        60.73067
531.15        60.74294
531.59        60.71628
532.03        60.67445
532.46        60.63342
532.90        60.62938
533.34        60.66233
533.78        60.71667
534.22        60.76584
534.66        60.77161
535.09        60.71976
535.53        60.64737
535.97        60.56489
536.41        60.50582
536.85        60.47935
537.28        60.47049
537.72        60.48035
538.16        60.51151
538.60        60.55638
539.04        60.61736
539.47        60.64841
539.91        60.62913
540.35        60.54295
540.79        60.40759
541.22        60.27074
541.66        60.22514
542.10        60.28298
542.54        60.40988
542.97        60.55367
543.41        60.66335
543.85        60.71597
544.29        60.74381
544.72        60.73782
545.16        60.73925
545.60        60.75046
546.04        60.68577
546.47        60.61019
546.91        60.79037
547.35        61.14741
547.79        61.30792
548.22         61.2247
548.66        61.12622
549.10        61.05169
549.53        60.95898
549.97        60.88581
550.41        60.83179
550.84        60.81577
551.28        60.87609
551.72        60.98796
552.15        60.99978
552.59        61.16359
553.03        60.89346
553.46        61.15006
553.90        60.85567
554.34        60.94435
554.77        60.83775
555.21        60.78418
555.65        60.81936
556.08         60.9277
556.52        61.10411
556.96        61.27379
557.39        61.33884
557.83        61.30811
558.27        61.24257
558.70         61.1743
559.14        61.12066
559.57        61.08692
560.01        61.13299
560.45        61.20868
560.88        61.19923
561.32        61.14922
561.75        61.06727
562.19        61.02637
562.63        61.10818
563.06        61.25507
563.50        61.26786
563.93        61.13616
564.37        61.01444
564.80        60.93863
565.24        61.03275
565.68         61.2471
566.11        61.34876
566.55        61.33482
566.98        61.36028
567.42        61.44461
567.85        61.39772
568.29        61.30061
568.72        61.35648
569.16        61.58564
569.60        61.59883
570.03        61.66882
570.47        61.68577
570.90        61.73931
571.34        61.78564
571.77        61.90667
572.21        62.00519
572.64         62.1114
573.08        61.59974
573.51        61.87996
573.95        62.25655
574.38        62.04401
574.82        62.98392
