SpectraSmart Spectrum 2.9.0.0
--------- Device Information -----------
Spectrum Name :  反射率_0
Saving Time :  2024/04/21 00:47:07
Spectro-Module Model Name : SE2030-DUVN
Spectro-Module Serial Number : OS361AC55029948
Wavelength Start : 200
Wavelength End : 1025
Wavelength Unit : Wavelength(nm)
Spectrum Unit : Reflectance(%)
-----------Spectrum Setting ------------
Integration Time : 20ms
Average : 10
Boxcar : 0
Background removal :  enabled
linearity correction :  enabled
SC :  disabled
Intensity correction :  disabled
DWT denoise :  enabled
savitzky-golay :  disabled
FFT :  disabled
Running average :  disabled
Kalman :  disabled
High pass :  disabled
---------------BEGIN--------------------
Wavelength(nm)             Reflectance(%)
200.29               0
200.75       -64.62772
201.21       -35.25034
201.67       -19.81962
202.13        -13.3166
202.58       -11.40393
203.04       -11.63366
203.50       -11.66324
203.96       -7.203708
204.42        1.710469
204.88        11.43415
205.34        19.63009
205.80        23.60178
206.26        23.02311
206.72        20.57834
207.18        11.83805
207.64       -11.35871
208.10       -46.80716
208.55       -90.10617
209.01       -107.7604
209.47       -67.15123
209.93       -11.30812
210.39         33.1412
210.85        60.73288
211.31        71.13339
211.77        68.44772
212.23        53.07607
212.69        18.95551
213.14       -37.30214
213.60       -119.7459
214.06        -313.687
214.52       -656.4065
214.98       -234.9446
215.44       -38.81216
215.90        20.34175
216.36        37.63264
216.81        35.90305
217.27        15.64456
217.73        -83.0704
218.19        1114.218
218.65        493.0696
219.11       -1148.185
219.57       -63.35504
220.02        6.713895
220.48        19.46886
220.94         13.5774
221.40       -11.33863
221.86       -71.22021
222.32       -107.6318
222.77       -50.87872
223.23       -3.391488
223.69        20.21072
224.15        28.32609
224.61        28.53638
225.06        25.32762
225.52        19.55205
225.98        11.87025
226.44        3.307452
226.90       -7.560962
227.36       -15.17022
227.81       -9.486444
228.27         4.58502
228.73         19.4325
229.19        29.17531
229.65        30.95183
230.10        26.06328
230.56        16.34299
231.02        3.486353
231.48       -5.238193
231.93       -4.605419
232.39        2.497798
232.85        10.76362
233.31        15.73191
233.77        17.56055
234.22         18.2599
234.68        18.01603
235.14        16.95333
235.60        15.61084
236.05        12.92556
236.51        9.517788
236.97        13.61889
237.43        25.97786
237.88        34.55889
238.34        34.80809
238.80        59.00266
239.26        48.49882
239.71        45.91388
240.17        36.03841
240.63        25.60538
241.08         19.4366
241.54        21.15048
242.00        31.03759
242.46        37.38197
242.91        37.18001
243.37        32.03231
243.83         24.1772
244.28        21.85118
244.74        28.84902
245.20        38.97701
245.66        46.92123
246.11         48.2216
246.57        42.49178
247.03        31.91888
247.48        16.59969
247.94       -4.485614
248.40       -38.39824
248.85       -120.7348
249.31       -377.1525
249.77       -598.3196
250.22       -211.6569
250.68       -44.96566
251.14        9.913711
251.59        26.22581
252.05        27.27833
252.51        19.71758
252.96        4.768813
253.42       -7.387593
253.88       -7.293648
254.33        1.217442
254.79        15.50554
255.25        30.99144
255.70        43.51997
256.16        52.83812
256.62        58.64666
257.07        60.91482
257.53         61.2776
257.99        60.53073
258.44        59.17731
258.90        58.33396
259.35        57.53491
259.81        56.90804
260.27        56.18871
260.72        55.21458
261.18        54.33468
261.63        53.37891
262.09        52.45002
262.55        51.21096
263.00        49.62815
263.46        48.00069
263.91        46.42435
264.37        45.44596
264.83        44.97926
265.28        44.76551
265.74        44.62623
266.19        44.13519
266.65        43.28868
267.11         42.1853
267.56        40.89743
268.02        39.62439
268.47        38.39738
268.93        37.20411
269.38        36.06718
269.84        35.08475
270.30        34.25853
270.75        33.58413
271.21        33.00499
271.66        32.35405
272.12        31.62252
272.57        30.82477
273.03        30.06021
273.48        29.44484
273.94        29.00829
274.39        28.66635
274.85        28.34733
275.31        27.88227
275.76        27.24709
276.22        26.55289
276.67         25.8772
277.13        25.39644
277.58        25.10135
278.04        24.94182
278.49        24.83027
278.95        24.71936
279.40        24.53945
279.86        24.33932
280.31        24.05576
280.77        23.67398
281.22        23.18184
281.68        22.65878
282.13        22.14274
282.59        21.76253
283.04         21.5193
283.50        21.39147
283.95         21.3673
284.41        21.45076
284.86        21.60696
285.32        21.83674
285.77        22.03812
286.22        22.07772
286.68        21.96327
287.13        21.70653
287.59        21.47173
288.04        21.40607
288.50        21.51608
288.95        21.87197
289.41        22.40117
289.86        22.49953
290.32        22.06162
290.77        23.09382
291.22        22.35565
291.68        22.60046
292.13        22.89254
292.59        23.30237
293.04        23.83597
293.50        24.57774
293.95        25.54941
294.40        26.70572
294.86          27.978
295.31         29.2412
295.77        30.45948
296.22        31.64781
296.68        32.86426
297.13        34.19646
297.58        35.68087
298.04        37.28946
298.49        38.98082
298.95        40.71194
299.40        42.43818
299.85        44.16938
300.31        45.90089
300.76        47.60123
301.21        49.27671
301.67        50.95965
302.12        52.63669
302.58         54.3945
303.03        56.22601
303.48        58.16356
303.94        60.21298
304.39        62.32459
304.84        64.47855
305.30        66.67559
305.75        68.85309
306.20        71.03085
306.66        73.19286
307.11        75.26817
307.57        77.24087
308.02        79.01472
308.47        80.61119
308.93        82.10806
309.38        83.50992
309.83          84.885
310.29        86.31689
310.74        87.71455
311.19        89.11709
311.65        90.54425
312.10        91.96215
312.55        93.36026
313.00        94.65702
313.46        95.72631
313.91        96.53169
314.36         97.1296
314.82        97.61681
315.27        98.13942
315.72        98.75568
316.18        99.43249
316.63        100.1441
317.08        100.8436
317.53        101.5048
317.99        102.1415
318.44        102.7332
318.89         103.229
319.35        103.6178
319.80        103.9081
320.25        104.1413
320.70        104.3994
321.16        104.6936
321.61        105.0227
322.06        105.3377
322.51        105.5638
322.97        105.6744
323.42        105.7384
323.87        105.7937
324.32          105.92
324.78        106.1228
325.23        106.4117
325.68        106.7443
326.13         107.084
326.59        107.3817
327.04        107.6944
327.49        107.9796
327.94        108.2026
328.39        108.3631
328.85        108.4472
329.30        108.5456
329.75        108.6791
330.20        108.8677
330.66        109.0603
331.11        109.3473
331.56        109.7323
332.01        110.2105
332.46        110.7774
332.92        111.2935
333.37        111.6667
333.82        111.8251
334.27        111.8248
334.72        111.8128
335.17        112.0441
335.63         112.551
336.08        113.3036
336.53        114.1633
336.98        114.9451
337.43         115.564
337.88        116.0625
338.34        116.3917
338.79        116.5378
339.24        116.5068
339.69        116.3345
340.14        116.1426
340.59        116.1316
341.05        116.3547
341.50        116.7656
341.95        117.3171
342.40        117.9158
342.85        118.5062
343.30         119.109
343.75        119.6303
344.20        119.9313
344.66        120.0069
345.11        119.8659
345.56        119.6786
346.01        119.7266
346.46        120.0675
346.91        120.5983
347.36        121.1238
347.81        121.4024
348.26        121.3875
348.72        120.9368
349.17        120.6394
349.62        120.4006
350.07        120.4171
350.52        120.5789
350.97        120.7847
351.42        120.8684
351.87         120.763
352.32        120.5259
352.77        120.1724
353.22        119.7178
353.67        119.1842
354.13        118.5858
354.58        117.9397
355.03        117.3366
355.48        116.8061
355.93        116.3388
356.38        115.9205
356.83        115.5139
357.28        115.0927
357.73        114.6529
358.18        114.1699
358.63        113.6132
359.08        112.9809
359.53        112.2832
359.98        111.5375
360.43        110.7686
360.88        109.9873
361.33         109.193
361.78        108.3995
362.23        107.6287
362.68        106.8852
363.13        106.1629
363.58        105.4422
364.03         104.687
364.48        103.8845
364.93        103.0434
365.38        102.1698
365.83          101.28
366.28        100.3822
366.73        99.46923
367.18        98.56275
367.63        97.69555
368.08        96.88135
368.53        96.13515
368.98         95.4043
369.43        94.59134
369.88         93.6757
370.33        92.66846
370.78        91.68754
371.23        90.95264
371.68        90.51275
372.13        90.29904
372.58        90.12602
373.03        89.69205
373.48        88.92227
373.93        87.90565
374.38        86.80759
374.83        85.91402
375.28        85.31567
375.72        84.91135
376.17        84.61008
376.62        84.20679
377.07        83.63522
377.52        82.93793
377.97        82.19171
378.42        81.53788
378.87        81.02486
379.32        80.61538
379.77        80.20686
380.22        79.63855
380.67        78.87816
381.11         77.9842
381.56        77.08422
382.01         76.4139
382.46        76.04289
382.91        75.90098
383.36        75.84196
383.81        75.63937
384.26        75.22953
384.71        74.67173
385.15        74.05647
385.60        73.58829
386.05        73.28485
386.50        73.08527
386.95        72.88522
387.40        72.53507
387.85        72.02325
388.29        71.38223
388.74        70.81067
389.19        70.39111
389.64        70.13023
390.09        69.96268
390.54        69.82696
390.98        69.61774
391.43        69.35189
391.88        69.06239
392.33        68.75239
392.78        68.45242
393.23        68.18175
393.67        67.80877
394.12        67.47102
394.57        67.41451
395.02        67.53884
395.47        67.33907
395.91        66.85997
396.36        66.58041
396.81        66.53999
397.26        66.48503
397.71        66.33768
398.15        66.08789
398.60        65.80453
399.05        65.37437
399.50        64.94751
399.95        64.87881
400.39         65.1139
400.84        65.23878
401.29        65.14848
401.74        64.84431
402.18        64.39198
402.63        64.02361
403.08        63.77927
403.53        63.47949
403.97        63.15341
404.42        62.99093
404.87        62.95666
405.32        62.93587
405.76        62.90355
406.21        62.81881
406.66        62.68924
407.11        62.73851
407.55        62.88925
408.00        62.61769
408.45        62.01549
408.90        61.67526
409.34        61.65427
409.79        61.67019
410.24        61.65506
410.68        61.62598
411.13        61.56005
411.58        61.45549
412.03        61.34601
412.47        61.30154
412.92        61.31386
413.37        61.37403
413.81        61.42929
414.26         61.4505
414.71        61.41115
415.15        61.33828
415.60        61.23698
416.05        61.17019
416.49        61.15413
416.94        61.16012
417.39        61.16199
417.83        61.10842
418.28        60.99602
418.73        60.85201
419.17        60.69195
419.62         60.5505
420.07         60.4378
420.51        60.33147
420.96        60.28311
421.41        60.29819
421.85        60.33842
422.30        60.51234
422.74         60.7047
423.19        60.65445
423.64        60.41649
424.08        60.48365
424.53        60.77056
424.98        60.85637
425.42        60.73759
425.87         60.5488
426.31        60.40026
426.76        60.58479
427.21        61.00391
427.65        61.06492
428.10        60.75956
428.54        60.64671
428.99        60.77745
429.44        60.85075
429.88        60.79856
430.33        60.72015
430.77         60.5832
431.22        60.46036
431.66        60.40166
432.11        60.55877
432.56        60.91386
433.00        61.16242
433.45        61.03342
433.89        60.83839
434.34        60.82988
434.78        59.95016
435.23        60.04791
435.67        61.12847
436.12        61.10101
436.57        61.21995
437.01        60.83516
437.46        60.69906
437.90        61.52155
438.35        61.00761
438.79        61.53285
439.24        61.45945
439.68        61.45981
440.13        61.40296
440.57        61.32263
441.02        61.43851
441.46        61.67694
441.91        61.64112
442.35        61.38784
442.80        61.75109
443.24        62.51301
443.69        62.58689
444.13        62.00507
444.58        61.66468
445.02        61.65447
445.47        61.81929
445.91        62.04372
446.36        62.11369
446.80        61.99385
447.24        61.80511
447.69        61.64748
448.13        61.77007
448.58        61.96617
449.02        62.05213
449.47        61.97406
449.91        61.98361
450.36        62.09289
450.80        62.06662
451.25        61.94553
451.69        61.94559
452.13        62.03071
452.58        61.89346
453.02        61.56649
453.47        61.37493
453.91        61.32196
454.36        61.24809
454.80        61.16094
455.24        61.06553
455.69        60.95792
456.13        60.97852
456.58        61.12971
457.02        60.67348
457.46        60.53246
457.91        60.37593
458.35        60.52795
458.79        60.51584
459.24        60.38007
459.68        60.29964
460.13        60.31797
460.57        60.21357
461.01        59.97783
461.46         59.9805
461.90        60.04656
462.34        59.43746
462.79        59.30714
463.23        59.28744
463.68        59.64896
464.12        59.55961
464.56        59.10835
465.01        59.20333
465.45        59.62696
465.89        59.69249
466.34        59.13837
466.78        59.03314
467.22        59.22332
467.67        59.36383
468.11         58.7134
468.55         58.5808
468.99          58.732
469.44        58.72176
469.88        58.53468
470.32        58.40139
470.77        58.34692
471.21        58.29073
471.65         58.2324
472.10        58.19191
472.54          58.146
472.98        58.07589
473.42        57.98183
473.87        57.89033
474.31         57.7886
474.75        57.72856
475.20        57.70649
475.64        57.70761
476.08        57.72169
476.52        57.70594
476.97        57.63735
477.41        57.66046
477.85        57.75061
478.29        57.48752
478.74        57.30872
479.18        57.32907
479.62         57.8907
480.06        58.04366
480.50        57.86037
480.95        57.70878
481.39        57.61827
481.83        57.46628
482.27        57.82401
482.72        57.48594
483.16        57.69497
483.60        58.00446
484.04        57.97236
484.48        57.67867
484.93        57.64688
485.37        57.34008
485.81         58.0684
486.25        57.58036
486.69        58.48772
487.14        58.53791
487.58        57.78439
488.02        57.82289
488.46        57.42176
488.90        57.67464
489.34        57.31324
489.79        56.83275
490.23         57.2758
490.67        57.43968
491.11         57.6347
491.55        57.57347
491.99        57.32491
492.43        57.21904
492.88        57.26861
493.32        57.28393
493.76        57.20075
494.20        57.14868
494.64        57.15119
495.08        56.79767
495.52        56.74566
495.96        56.80652
496.41         57.0738
496.85        57.17072
497.29        57.03442
497.73        57.04649
498.17        56.92609
498.61        56.93741
499.05        56.95691
499.49        56.84286
499.93        56.65716
500.37        56.59344
500.82        56.65033
501.26        56.83564
501.70        57.07981
502.14        56.85724
502.58        56.67123
503.02        56.55878
503.46        56.64322
503.90        56.53022
504.34        56.57286
504.78        56.55249
505.22        56.59678
505.66        56.59815
506.10        56.55036
506.54        56.63301
506.98        56.87643
507.42        56.34827
507.86        56.91927
508.30        56.44547
508.74        56.56226
509.18        56.35221
509.62         56.1889
510.06        56.12382
510.50         56.1446
510.94        56.17204
511.38         56.1691
511.82        56.16972
512.26        56.16072
512.70        56.11194
513.14        56.03867
513.58        55.98537
514.02        55.95993
514.46        55.94594
514.90        55.91942
515.34         55.8901
515.78        55.86106
516.22        55.78883
516.66        55.54122
517.10        55.78587
517.54        55.53353
517.98        55.56173
518.42        55.57249
518.86         55.5869
519.30        55.59907
519.74        55.57796
520.18        55.55917
520.62        55.66026
521.06        55.84307
521.50        55.89613
521.93        55.81544
522.37        55.77436
522.81         55.7818
523.25        55.73272
523.69        55.64645
524.13         55.6058
524.57        55.61885
525.01        55.66092
525.45        55.71502
525.89        55.75303
526.32        55.76178
526.76        55.75486
527.20        55.73178
527.64        55.69366
528.08        55.64493
528.52        55.59019
528.96        55.53795
529.40        55.49463
529.83        55.46231
530.27          55.467
530.71        55.49442
531.15         55.5185
531.59        55.53303
532.03        55.54524
532.46        55.55367
532.90        55.56916
533.34        55.58766
533.78        55.60656
534.22        55.61276
534.66        55.58759
535.09        55.52288
535.53        55.44478
535.97         55.3662
536.41        55.32224
536.85         55.3203
537.28         55.3499
537.72        55.39114
538.16        55.41173
538.60        55.40163
539.04        55.37249
539.47        55.32303
539.91        55.29762
540.35        55.28831
540.79        55.28777
541.22        55.28865
541.66        55.29331
542.10        55.29506
542.54        55.29348
542.97         55.2824
543.41        55.28032
543.85        55.28591
544.29        55.30659
544.72        55.32132
545.16        55.34792
545.60         55.3753
546.04        55.33334
546.47        55.26902
546.91        55.38881
547.35        55.61824
547.79        55.67075
548.22        55.52353
548.66        55.31925
549.10        55.14848
549.53        55.17271
549.97        55.36449
550.41        55.43304
550.84        55.34922
551.28        55.32205
551.72        55.36287
552.15        55.33284
552.59        55.23191
553.03        55.31971
553.46        55.17691
553.90        55.14801
554.34        55.10669
554.77        55.06219
555.21        55.03568
555.65        55.05744
556.08        55.12611
556.52        55.22014
556.96        55.31268
557.39        55.42485
557.83        55.53046
558.27        55.49948
558.70        55.36579
559.14        55.29173
559.57         55.2833
560.01        55.33214
560.45        55.37085
560.88        55.26357
561.32        55.09066
561.75        54.94058
562.19        54.89509
562.63        55.05965
563.06        55.32162
563.50          55.287
563.93        54.98419
564.37        54.81683
564.80        54.82414
565.24        54.95464
565.68         55.1517
566.11        55.25702
566.55        55.26566
566.98        55.31477
567.42        55.39365
567.85        55.30957
568.29         55.1492
568.72        55.07492
569.16        55.15561
569.60        55.35381
570.03        55.30091
570.47        55.57441
570.90        56.03299
571.34        55.65194
571.77        55.96503
572.21        55.82792
572.64        55.77248
573.08        55.20916
573.51        55.52985
573.95        55.61035
574.38        55.71255
574.82        56.34042
