SpectraSmart Spectrum 2.9.0.0
--------- Device Information -----------
Spectrum Name :  反射率_0
Saving Time :  2024/04/21 00:34:21
Spectro-Module Model Name : SE2030-DUVN
Spectro-Module Serial Number : OS361AC55029948
Wavelength Start : 200
Wavelength End : 1025
Wavelength Unit : Wavelength(nm)
Spectrum Unit : Reflectance(%)
-----------Spectrum Setting ------------
Integration Time : 20ms
Average : 10
Boxcar : 0
Background removal :  enabled
linearity correction :  enabled
SC :  disabled
Intensity correction :  disabled
DWT denoise :  enabled
savitzky-golay :  disabled
FFT :  disabled
Running average :  disabled
Kalman :  disabled
High pass :  disabled
---------------BEGIN--------------------
Wavelength(nm)             Reflectance(%)
200.29               0
200.75       -99.00379
201.21       -24.10766
201.67        15.63826
202.13        27.59533
202.58        22.54084
203.04        5.670927
203.50       -18.62652
203.96       -35.80577
204.42        -37.8006
204.88       -29.91324
205.34       -19.31037
205.80       -16.51799
206.26       -24.24365
206.72       -37.17765
207.18       -53.31935
207.64       -67.43215
208.10       -72.36177
208.55       -71.51819
209.01       -52.45388
209.47       -10.47968
209.93        27.13371
210.39        52.45996
210.85        66.59445
211.31        71.19479
211.77        68.51956
212.23        57.90937
212.69        34.34379
213.14       -8.165418
213.60       -81.17057
214.06       -272.3499
214.52       -670.1573
214.98       -281.1691
215.44       -65.46571
215.90          5.2103
216.36        28.52708
216.81        31.80683
217.27        19.69066
217.73       -49.59253
218.19        793.7861
218.65        341.2491
219.11        -671.479
219.57        -7.77421
220.02        32.93792
220.48        36.81192
220.94        25.78834
221.40       -5.551524
221.86         -76.966
222.32       -120.9093
222.77       -54.94976
223.23        1.692691
223.69        30.33937
224.15        40.55114
224.61        41.39119
225.06        38.02172
225.52        31.61682
225.98        23.32611
226.44        14.39447
226.90        3.239172
227.36       -4.553147
227.81        1.143189
228.27         15.3931
228.73        30.41634
229.19        40.32406
229.65        42.35444
230.10        37.79586
230.56        28.30905
231.02        15.42918
231.48        6.299697
231.93        6.192101
232.39        12.45107
232.85        20.01249
233.31         24.5494
233.77          26.139
234.22        26.67788
234.68        26.41722
235.14        25.60394
235.60          24.745
236.05        22.82832
236.51        20.21405
236.97        23.84355
237.43        34.31927
237.88        41.14004
238.34        40.15917
238.80        61.66175
239.26        51.37537
239.71        48.97325
240.17        40.03043
240.63        30.24091
241.08        23.51857
241.54          23.182
242.00        30.10466
242.46        33.76651
242.91         31.2006
243.37          23.626
243.83         12.9625
244.28        7.374183
244.74         11.5396
245.20        19.82236
245.66        26.70914
246.11        27.35265
246.57        21.05612
247.03        9.848063
247.48       -6.019534
247.94       -26.98408
248.40       -59.71339
248.85       -138.4568
249.31       -383.0618
249.77       -600.1566
250.22       -233.3382
250.68          -73.12
251.14       -19.64622
251.59       -2.969833
252.05      -0.5483693
252.51       -5.453492
252.96       -15.63206
253.42       -20.81758
253.88       -14.02804
254.33      -0.6772398
254.79        15.00975
255.25        28.48988
255.70        37.83989
256.16        44.12144
256.62        47.90632
257.07         49.6201
257.53        50.36377
257.99        50.47596
258.44        50.11914
258.90        50.02313
259.35        49.77798
259.81        49.60242
260.27        49.30376
260.72        48.77012
261.18        48.29012
261.63        47.67928
262.09        47.04202
262.55        46.11208
263.00        44.87098
263.46        43.60843
263.91        42.37025
264.37        41.59047
264.83        41.20893
265.28        41.03296
265.74        40.98562
266.19        40.80171
266.65        40.47095
267.11        40.00603
267.56         39.3882
268.02         38.6732
268.47        37.84396
268.93        36.93772
269.38        35.95279
269.84        34.95645
270.30        33.97039
270.75        32.99467
271.21        32.11439
271.66        31.38513
272.12        30.82894
272.57         30.4016
273.03        30.01181
273.48         29.4838
273.94         28.8112
274.39        28.02439
274.85        27.25043
275.31        26.61688
275.76        26.15176
276.22        25.84187
276.67        25.61249
277.13        25.42799
277.58        25.22819
278.04        25.03773
278.49        24.83268
278.95        24.65134
279.40        24.44978
279.86          24.244
280.31        23.95594
280.77        23.55604
281.22        23.02827
281.68        22.46341
282.13        21.90694
282.59         21.4933
283.04        21.22167
283.50        21.06314
283.95        20.99737
284.41        21.01465
284.86         21.0843
285.32        21.22326
285.77        21.33385
286.22        21.28761
286.68        21.09483
287.13        20.75786
287.59        20.47047
288.04        20.42477
288.50        20.62341
288.95        21.12423
289.41        21.77373
289.86         21.8471
290.32         21.2227
290.77        21.96615
291.22        20.89959
291.68        20.97845
292.13         21.2772
292.59        21.80953
293.04        22.46131
293.50        23.13001
293.95        23.79315
294.40        24.46076
294.86        25.17213
295.31        25.97548
295.77        26.88086
296.22        27.85523
296.68        28.86504
297.13         29.8573
297.58        30.83869
298.04        31.83634
298.49        32.90549
298.95        34.14669
299.40        35.55726
299.85        37.10469
300.31        38.69678
300.76        40.17878
301.21        41.52023
301.67        42.77691
302.12        44.02016
302.58        45.44893
303.03        47.07414
303.48        48.88403
303.94        50.76654
304.39        52.50434
304.84        54.06527
305.30        55.52903
305.75        57.00228
306.20        58.73739
306.66        60.75668
307.11        62.91301
307.57        65.05231
308.02        66.89094
308.47         68.3931
308.93        69.69987
309.38        70.88007
309.83        72.06919
310.29        73.41509
310.74        74.75672
311.19        76.12914
311.65        77.53389
312.10        78.93496
312.55        80.34595
313.00        81.66464
313.46        82.72562
313.91         83.4908
314.36         84.0126
314.82         84.4554
315.27        85.07993
315.72        85.95094
316.18        86.99924
316.63        88.06519
317.08        88.88656
317.53        89.39565
317.99        89.67319
318.44        89.85961
318.89        90.16701
319.35        90.64941
319.80        91.23468
320.25        91.82495
320.70         92.2724
321.16        92.52501
321.61        92.65608
322.06        92.71604
322.51        92.78493
322.97        92.88808
323.42        93.04125
323.87         93.2295
324.32        93.44729
324.78        93.67348
325.23        93.94302
325.68        94.25367
326.13        94.62517
326.59        95.02254
327.04        95.46897
327.49         95.8781
327.94        96.14526
328.39        96.24924
328.85        96.20035
329.30        96.12279
329.75        96.10829
330.20        96.20416
330.66        96.35564
331.11        96.61938
331.56        96.95641
332.01        97.35016
332.46        97.80732
332.92        98.23497
333.37        98.60178
333.82        98.84673
334.27        98.99128
334.72        99.10954
335.17        99.33569
335.63        99.68421
336.08        100.1788
336.53        100.7465
336.98        101.3038
337.43        101.8174
337.88        102.3057
338.34        102.7657
338.79        103.2443
339.24        103.7233
339.69        104.1821
340.14        104.6014
340.59        104.9652
341.05        105.2772
341.50        105.5582
341.95        105.8333
342.40        106.1435
342.85        106.5023
343.30        106.9019
343.75        107.3167
344.20        107.7082
344.66        108.0687
345.11        108.3816
345.56        108.6693
346.01        108.9661
346.46         109.276
346.91         109.581
347.36        109.8263
347.81        109.9615
348.26        109.9928
348.72         109.847
349.17        109.7991
349.62        109.8321
350.07         110.033
350.52        110.3387
350.97        110.6657
351.42        110.8708
351.87        110.9023
352.32        110.8064
352.77        110.6002
353.22        110.3101
353.67        109.9644
354.13        109.5754
354.58        109.1728
355.03        108.8624
355.48        108.6585
355.93        108.5254
356.38        108.4083
356.83        108.2135
357.28        107.9051
357.73        107.5063
358.18        107.0033
358.63        106.3846
359.08        105.6742
359.53        104.8903
359.98        104.1091
360.43        103.4428
360.88        102.9099
361.33        102.4779
361.78        102.0808
362.23        101.6084
362.68        101.0275
363.13        100.3675
363.58        99.65411
364.03        98.92916
364.48        98.20959
364.93        97.48359
365.38         96.7536
365.83        96.02999
366.28        95.31634
366.73        94.61262
367.18        93.93089
367.63        93.28406
368.08        92.67362
368.53        92.10421
368.98        91.52797
369.43        90.86195
369.88        90.08881
370.33        89.22171
370.78        88.35045
371.23        87.64666
371.68        87.15661
372.13        86.83141
372.58        86.55606
373.03        86.13631
373.48        85.51898
373.93          84.764
374.38        83.95642
374.83        83.24614
375.28        82.68845
375.72        82.22316
376.17        81.83412
376.62        81.43239
377.07        80.97993
377.52        80.48631
377.97        79.96628
378.42        79.45652
378.87        78.97721
379.32        78.52555
379.77        78.06654
380.22        77.53687
380.67        76.92289
381.11        76.25098
381.56        75.58143
382.01        75.03752
382.46        74.66041
382.91        74.41821
383.36        74.23735
383.81         73.9996
384.26        73.66915
384.71        73.27478
385.15         72.8477
385.60        72.50182
386.05        72.23161
386.50        71.99986
386.95        71.76018
387.40        71.45112
387.85        71.07239
388.29        70.62309
388.74        70.22495
389.19        69.85688
389.64        69.52005
390.09        69.19521
390.54        68.89906
390.98        68.65107
391.43        68.48013
391.88        68.35743
392.33        68.23077
392.78        68.00081
393.23        67.65504
393.67        67.26743
394.12        66.94955
394.57        66.53828
395.02        66.12656
395.47        66.08214
395.91        66.33217
396.36         66.3717
396.81        66.16437
397.26        65.98895
397.71        65.84522
398.15        65.61106
398.60        65.37492
399.05        65.05127
399.50        64.72072
399.95        64.64727
400.39        64.77242
400.84        64.68485
401.29        64.37377
401.74        64.08017
402.18        63.85535
402.63        63.66875
403.08         63.4975
403.53        63.25464
403.97        62.94355
404.42         62.6644
404.87        62.45299
405.32        62.34098
405.76        62.32077
406.21        62.37029
406.66         62.4289
407.11        62.42669
407.55        62.33131
408.00        62.11266
408.45         61.8202
408.90        61.43609
409.34        61.07249
409.79        61.04375
410.24        61.25174
410.68        61.27419
411.13        61.07729
411.58         60.8862
412.03        60.76207
412.47         60.7246
412.92        60.77281
413.37         60.9035
413.81        61.04708
414.26        61.15496
414.71        61.19262
415.15        61.18463
415.60        61.13403
416.05        61.10324
416.49        61.10863
416.94         61.1221
417.39        61.11647
417.83        61.04387
418.28        60.90154
418.73        60.71023
419.17        60.50852
419.62        60.36691
420.07        60.30509
420.51        60.29929
420.96        60.34394
421.41        60.38107
421.85        60.37146
422.30        60.37263
422.74        60.37245
423.19        60.43578
423.64        60.55713
424.08        60.77029
424.53        60.96523
424.98        61.06036
425.42        61.04448
425.87        60.87821
426.31        60.67324
426.76        60.69259
427.21        60.92181
427.65         61.1055
428.10        61.13487
428.54        61.12075
428.99         61.0906
429.44        60.90129
429.88        60.61903
430.33        60.61924
430.77        60.79262
431.22        60.83212
431.66        60.73559
432.11        60.83294
432.56        61.15366
433.00        61.20567
433.45        60.76542
433.89        60.68031
434.34        61.22454
434.78        59.79946
435.23        60.34174
435.67        61.36635
436.12        61.38326
436.57        61.51868
437.01        61.13251
437.46        60.90638
437.90        61.51792
438.35        61.10346
438.79        61.31348
439.24        61.29869
439.68        61.47306
440.13        61.48454
440.57        61.34203
441.02         61.4797
441.46        61.78773
441.91        61.61339
442.35        61.09976
442.80        61.33162
443.24        62.12136
443.69         62.3105
444.13        61.87733
444.58        61.70633
445.02        61.82294
445.47        61.91351
445.91         61.9323
446.36        61.93855
446.80        61.92017
447.24        61.85333
447.69        61.77789
448.13        61.90524
448.58        62.01257
449.02        61.93975
449.47        61.68423
449.91        61.57471
450.36        61.64579
450.80        61.63949
451.25        61.57364
451.69        61.62787
452.13        61.74946
452.58        61.63942
453.02        61.32608
453.47        61.12702
453.91        61.05273
454.36        60.94299
454.80        60.79041
455.24        60.67789
455.69        60.62607
456.13        60.56499
456.58        60.49556
457.02         60.5317
457.46        60.34794
457.91        60.27665
458.35        60.30084
458.79        60.26893
459.24        60.22009
459.68        60.15145
460.13        60.08239
460.57          60.222
461.01        59.63897
461.46        60.02662
461.90        59.59622
462.34        59.38893
462.79        59.62187
463.23        59.48628
463.68        59.84424
464.12        59.56566
464.56        59.04136
465.01        58.96791
465.45        59.22021
465.89        59.36798
466.34        59.33926
466.78        59.03124
467.22        58.56243
467.67        58.57526
468.11        58.56884
468.55        58.64505
468.99        58.57179
469.44        58.44767
469.88        58.25617
470.32        57.94569
470.77        57.60328
471.21        57.38401
471.65        57.32198
472.10        57.37906
472.54        57.49077
472.98        57.55849
473.42        57.55328
473.87        57.54568
474.31        57.52367
474.75        57.49001
475.20        57.46348
475.64        57.52723
476.08        57.65409
476.52        57.64737
476.97        57.46804
477.41        57.41653
477.85         57.5289
478.29        56.90487
478.74        56.83953
479.18         56.7012
479.62        57.06914
480.06        56.88487
480.50         57.0982
480.95        57.13684
481.39        57.18156
481.83         57.3521
482.27        57.64913
482.72        57.24522
483.16        57.41561
483.60        57.61046
484.04        57.43986
484.48        57.16414
484.93         57.3065
485.37        56.74574
485.81        57.31516
486.25        57.27341
486.69        59.53831
487.14        59.52801
487.58        58.22314
488.02        57.59585
488.46        57.17406
488.90        57.14574
489.34        57.15303
489.79        56.53695
490.23        56.79083
490.67         56.8507
491.11        57.08576
491.55        56.94189
491.99         56.5117
492.43        56.32524
492.88        56.41332
493.32        56.53583
493.76        56.58373
494.20        56.61032
494.64        56.61549
495.08        56.21882
495.52        56.11758
495.96        56.12664
496.41        56.35607
496.85        56.50816
497.29        56.47152
497.73        56.39852
498.17        56.05062
498.61        56.02774
499.05        56.19318
499.49        56.06994
499.93        55.73808
500.37        55.63324
500.82        55.75813
501.26        56.02865
501.70        56.32541
502.14          56.044
502.58        55.72234
503.02        55.53763
503.46        55.61284
503.90        55.66452
504.34        55.64173
504.78        55.64781
505.22        55.69026
505.66        55.66988
506.10        55.57834
506.54        55.62291
506.98        55.84795
507.42        55.28076
507.86        55.75933
508.30        55.43882
508.74        55.51631
509.18        55.40877
509.62        55.33308
510.06        55.30132
510.50        55.28825
510.94        55.23862
511.38        55.14288
511.82        55.06627
512.26         55.0103
512.70        54.93446
513.14        54.85963
513.58        54.83844
514.02        54.87379
514.46        54.94625
514.90        55.00252
515.34        55.00384
515.78        54.94566
516.22        54.79826
516.66        54.46181
517.10        54.66846
517.54        54.41949
517.98        54.49221
518.42        54.57185
518.86        54.66296
519.30        54.74684
519.74         54.7979
520.18        54.82769
520.62         54.9156
521.06        55.01989
521.50        54.93909
521.93        54.71152
522.37        54.57824
522.81        54.56434
523.25        54.55021
523.69        54.51123
524.13        54.45613
524.57        54.38126
525.01        54.29344
525.45        54.21951
525.89        54.19928
526.32        54.23754
526.76        54.32058
527.20        54.42515
527.64        54.51725
528.08        54.58207
528.52        54.62963
528.96        54.65469
529.40         54.6445
529.83        54.59979
530.27        54.54823
530.71         54.4991
531.15        54.46685
531.59         54.4575
532.03        54.47358
532.46        54.49444
532.90        54.49677
533.34          54.471
533.78        54.42711
534.22        54.37822
534.66        54.34443
535.09        54.32298
535.53        54.32379
535.97        54.32897
536.41        54.32601
536.85        54.31198
537.28        54.29277
537.72        54.27354
538.16        54.26363
538.60        54.26332
539.04        54.26649
539.47        54.25955
539.91        54.26797
540.35        54.27694
540.79        54.28825
541.22        54.28584
541.66        54.25705
542.10        54.19714
542.54        54.11073
542.97        54.02096
543.41        53.99087
543.85        54.02813
544.29        54.12996
544.72        54.23941
545.16        54.31475
545.60        54.32987
546.04        54.23245
546.47        54.10796
546.91        54.20626
547.35        54.46843
547.79        54.63413
548.22        54.61933
548.66        54.40586
549.10        54.09313
549.53        53.99333
549.97        54.11959
550.41        54.12329
550.84        53.99398
551.28        54.02066
551.72        54.21346
552.15         54.1148
552.59        54.34723
553.03        54.29107
553.46        54.40181
553.90        54.35082
554.34        54.19567
554.77         54.1113
555.21        54.20439
555.65        53.69031
556.08        54.07253
556.52         54.1696
556.96        54.33463
557.39        54.34145
557.83        54.21317
558.27        54.08615
558.70              54
559.14        53.94502
559.57        53.92344
560.01        54.05043
560.45        54.23727
560.88         54.2049
561.32         54.0293
561.75        53.95008
562.19        54.01957
562.63        54.11502
563.06        54.18549
563.50        54.17186
563.93        54.06494
564.37        53.96004
564.80         53.8801
565.24        53.90442
565.68         54.0089
566.11        54.08765
566.55        54.15165
566.98        54.22232
567.42        54.31695
567.85        54.44986
568.29        54.60452
568.72         54.5962
569.16        54.53286
569.60        54.51583
570.03        54.73072
570.47        54.95597
570.90        55.17769
571.34        55.12086
571.77        55.72237
572.21        55.41194
572.64        55.34829
573.08        55.51677
573.51        55.14017
573.95        55.47838
574.38        55.44219
574.82        56.30867
