SpectraSmart Spectrum 2.9.0.0
--------- Device Information -----------
Spectrum Name :  反射率_0
Saving Time :  2024/04/21 00:44:41
Spectro-Module Model Name : SE2030-DUVN
Spectro-Module Serial Number : OS361AC55029948
Wavelength Start : 200
Wavelength End : 1025
Wavelength Unit : Wavelength(nm)
Spectrum Unit : Reflectance(%)
-----------Spectrum Setting ------------
Integration Time : 20ms
Average : 10
Boxcar : 0
Background removal :  enabled
linearity correction :  enabled
SC :  disabled
Intensity correction :  disabled
DWT denoise :  enabled
savitzky-golay :  disabled
FFT :  disabled
Running average :  disabled
Kalman :  disabled
High pass :  disabled
---------------BEGIN--------------------
Wavelength(nm)             Reflectance(%)
200.29               0
200.75        -62.2708
201.21       -4.691639
201.67        25.21382
202.13        34.79866
202.58        32.27414
203.04        21.45239
203.50        6.249467
203.96       -2.182688
204.42        1.314779
204.88         12.4615
205.34        23.80277
205.80        24.77698
206.26        12.04088
206.72       -12.31748
207.18       -44.35396
207.64       -71.08801
208.10       -80.91197
208.55       -77.18477
209.01       -54.59957
209.47       -18.07037
209.93        10.47005
210.39        28.26707
210.85        37.54296
211.31        39.89089
211.77        36.87962
212.23        27.93568
212.69         7.65318
213.14       -33.81616
213.60       -115.9419
214.06       -359.2326
214.52        -907.366
214.98       -399.6884
215.44       -103.8601
215.90       -7.272965
216.36        23.87897
216.81         26.4233
217.27        5.348688
217.73       -103.4565
218.19        1212.438
218.65        516.3172
219.11       -1156.803
219.57       -57.22145
220.02        13.44356
220.48        27.76741
220.94         25.0419
221.40        6.912481
221.86       -39.67123
222.32       -73.18208
222.77       -34.15901
223.23         1.00167
223.69        19.06694
224.15        25.57063
224.61        26.17069
225.06        24.46719
225.52        21.06526
225.98        16.15007
226.44         10.3513
226.90        2.608989
227.36        -2.94557
227.81        1.172408
228.27        11.45483
228.73        22.37635
229.19        29.53117
229.65         30.6339
230.10        26.63924
230.56        19.17428
231.02        9.573503
231.48        3.111076
231.93        3.658609
232.39        9.245372
232.85        15.58993
233.31          18.979
233.77        19.61331
234.22         19.2007
234.68         18.1907
235.14        17.33157
235.60        17.32757
236.05         17.0587
236.51        16.75451
236.97        23.01697
237.43        35.72882
237.88         44.4724
238.34        45.69464
238.80        66.26617
239.26        57.74001
239.71        55.13402
240.17        45.85696
240.63        35.90755
241.08        29.81587
241.54        30.91434
242.00        39.65578
242.46        45.49662
242.91         45.6411
243.37        41.54727
243.83        34.73336
244.28         31.1515
244.74        34.29679
245.20        40.07612
245.66        44.57412
246.11        44.51846
246.57        39.51268
247.03        30.89231
247.48        19.80289
247.94        8.207946
248.40       -5.627796
248.85       -34.05317
249.31       -113.5371
249.77       -171.5727
250.22       -49.43311
250.68       0.1365235
251.14        16.27068
251.59        21.71098
252.05        23.53798
252.51         24.5331
252.96        24.71189
253.42        25.16253
253.88        27.09521
254.33        30.38723
254.79        37.63615
255.25        48.64474
255.70        59.30358
256.16        67.66711
256.62        72.99749
257.07        75.11947
257.53        75.54984
257.99        74.94886
258.44        73.49422
258.90        72.11951
259.35        70.36755
259.81        68.62177
260.27        66.85471
260.72        65.17723
261.18        63.96759
261.63         62.8576
262.09        61.78722
262.55        60.16244
263.00        57.96717
263.46        55.65033
263.91        53.47263
264.37        52.25596
264.83         51.9033
265.28        52.01129
265.74        52.24141
266.19        51.93028
266.65        51.05198
267.11        49.77398
267.56        48.26479
268.02        46.87803
268.47        45.67249
268.93          44.583
269.38        43.55134
269.84        42.56673
270.30        41.60281
270.75        40.69318
271.21        39.85313
271.66        39.01424
272.12        38.19321
272.57        37.36611
273.03        36.57301
273.48        35.82737
273.94        35.15576
274.39        34.51801
274.85        33.91242
275.31        33.26293
275.76        32.55794
276.22        31.86313
276.67         31.2176
277.13        30.76176
277.58        30.45605
278.04        30.27112
278.49        30.07552
278.95        29.77733
279.40         29.3072
279.86        28.74322
280.31        28.09727
280.77        27.47811
281.22        26.88978
281.68        26.38388
282.13         25.9149
282.59        25.49692
283.04        25.10806
283.50        24.77047
283.95         24.5483
284.41        24.56418
284.86        24.79922
285.32        25.21333
285.77        25.61749
286.22        25.76258
286.68        25.63438
287.13        25.27595
287.59        24.93116
288.04        24.86383
288.50        25.10258
288.95        25.66247
289.41        26.38196
289.86        26.54635
290.32        26.03862
290.77        26.81674
291.22        25.89407
291.68        26.02688
292.13        26.35335
292.59         26.8987
293.04        27.60229
293.50        28.44343
293.95        29.41283
294.40         30.4996
294.86        31.67907
295.31        32.89497
295.77        34.12646
296.22        35.35409
296.68        36.59908
297.13         37.8958
297.58        39.26477
298.04        40.69553
298.49        42.16769
298.95         43.6689
299.40        45.17411
299.85        46.70137
300.31         48.2358
300.76          49.728
301.21         51.1817
301.67        52.62196
302.12        54.07887
302.58        55.70781
303.03        57.48888
303.48        59.41722
303.94        61.38364
304.39        63.16494
304.84        64.72865
305.30        66.15864
305.75        67.53384
306.20         69.0822
306.66        70.84366
307.11        72.69046
307.57        74.53456
308.02        76.17293
308.47        77.58067
308.93        78.85268
309.38        80.00866
309.83        81.12995
310.29        82.31442
310.74        83.45552
311.19        84.55706
311.65        85.58488
312.10        86.51575
312.55        87.37588
313.00        88.18642
313.46        88.97726
313.91        89.74189
314.36        90.48126
314.82        91.18512
315.27        91.83243
315.72        92.42706
316.18        92.97415
316.63        93.49224
317.08        94.01495
317.53         94.5421
317.99        95.05643
318.44        95.52289
318.89        95.87221
319.35        96.09366
319.80        96.22285
320.25        96.31013
320.70        96.44106
321.16        96.63556
321.61        96.88828
322.06          97.173
322.51        97.45297
322.97        97.69799
323.42        97.94939
323.87        98.19048
324.32        98.41042
324.78        98.58981
325.23         98.7627
325.68        98.92049
326.13        99.08427
326.59        99.23621
327.04        99.41971
327.49        99.61543
327.94        99.82201
328.39        100.0401
328.85        100.2501
329.30        100.4965
329.75        100.7251
330.20        100.9327
330.66          101.09
331.11        101.2997
331.56        101.6045
332.01        102.0171
332.46        102.5164
332.92        102.9888
333.37        103.3785
333.82        103.6124
334.27        103.7261
334.72        103.8062
335.17        104.0011
335.63        104.3254
336.08        104.7946
336.53        105.3156
336.98         105.776
337.43        106.1369
337.88        106.4292
338.34        106.6701
338.79         106.943
339.24        107.2466
339.69        107.5601
340.14        107.8634
340.59        108.1336
341.05         108.371
341.50        108.5994
341.95        108.8427
342.40        109.1398
342.85        109.4967
343.30        109.8936
343.75        110.2964
344.20        110.6584
344.66        110.9653
345.11        111.2008
345.56        111.3781
346.01         111.518
346.46        111.6335
346.91        111.7213
347.36        111.7531
347.81         111.723
348.26        111.6445
348.72        111.4056
349.17        111.3106
349.62        111.3039
350.07        111.4721
350.52        111.7579
350.97         112.033
351.42        112.0873
351.87        111.8601
352.32        111.4075
352.77        110.8413
353.22        110.3322
353.67        109.9323
354.13        109.6245
354.58        109.3046
355.03        108.8588
355.48        108.2738
355.93        107.5986
356.38         106.963
356.83        106.5545
357.28        106.3839
357.73        106.3642
358.18         106.311
358.63        105.9381
359.08        105.1839
359.53         104.153
359.98        103.0041
360.43        101.9759
360.88        101.1437
361.33        100.4462
361.78        99.82895
362.23        99.20575
362.68         98.5437
363.13         97.8709
363.58        97.20248
364.03        96.54951
364.48        95.91042
364.93        95.27483
365.38        94.60076
365.83        93.83586
366.28        92.97778
366.73        92.03947
367.18        91.11604
367.63        90.35806
368.08        89.79089
368.53        89.37598
368.98        88.96805
369.43        88.32689
369.88        87.40151
370.33        86.26076
370.78        85.07293
371.23        84.14693
371.68        83.57796
372.13        83.27232
372.58        83.08419
373.03        82.77123
373.48        82.25198
373.93        81.59821
374.38        80.86543
374.83         80.1526
375.28        79.51054
375.72        78.89594
376.17         78.3339
376.62        77.80445
377.07        77.28807
377.52        76.78013
377.97        76.28468
378.42          75.814
378.87        75.37923
379.32         74.9888
379.77        74.59863
380.22        74.13324
380.67        73.57544
381.11         72.9413
381.56        72.31029
382.01        71.83936
382.46        71.56883
382.91        71.45531
383.36        71.37235
383.81        71.12265
384.26        70.66257
384.71        70.05006
385.15        69.39484
385.60        68.92939
386.05        68.67577
386.50        68.56354
386.95        68.47386
387.40        68.22765
387.85        67.79803
388.29        67.22709
388.74        66.69701
389.19         66.2757
389.64        65.97984
390.09        65.76206
390.54        65.58604
390.98        65.38557
391.43        65.17099
391.88        64.95242
392.33        64.73473
392.78        64.48391
393.23        64.19537
393.67        63.94528
394.12        63.78903
394.57        63.41706
395.02        62.93652
395.47        62.90358
395.91        63.21121
396.36        63.15354
396.81        62.69796
397.26        62.24291
397.71        61.87168
398.15        61.54918
398.60        61.37759
399.05        61.21643
399.50        61.07553
399.95         61.1918
400.39        61.46085
400.84        61.31594
401.29        60.80882
401.74        60.53853
402.18        60.53083
402.63        60.36457
403.08        60.03106
403.53        59.75397
403.97        59.55105
404.42        59.36676
404.87        59.18377
405.32        59.03749
405.76        58.92155
406.21        58.75474
406.66        58.57933
407.11        58.64135
407.55        58.86879
408.00        58.83153
408.45        58.53524
408.90        58.23501
409.34        58.02398
409.79        58.00959
410.24        58.13571
410.68        58.14987
411.13        58.03442
411.58        57.96494
412.03        57.94712
412.47        57.90669
412.92        57.82505
413.37        57.74047
413.81        57.66365
414.26        57.65334
414.71          57.696
415.15        57.78142
415.60        57.84909
416.05        57.84642
416.49        57.75915
416.94        57.60234
417.39        57.40028
417.83        57.18063
418.28        56.96301
418.73        56.74269
419.17         56.5467
419.62        56.42886
420.07        56.39654
420.51        56.43094
420.96        56.50885
421.41        56.54878
421.85        56.50653
422.30        56.43621
422.74        56.34886
423.19        56.33821
423.64        56.41063
424.08        56.60229
424.53        56.78333
424.98        56.84729
425.42        56.78461
425.87        56.50818
426.31        56.19291
426.76        56.34084
427.21        56.87839
427.65        57.15915
428.10        57.06601
428.54        56.99665
428.99        56.97451
429.44        56.76655
429.88        56.41055
430.33         56.1648
430.77        56.04231
431.22        56.03356
431.66        56.11981
432.11        56.41706
432.56        56.85133
433.00        56.93775
433.45        56.53298
433.89         56.3839
434.34        56.62788
434.78        55.81149
435.23        55.89717
435.67         56.1381
436.12        56.70937
436.57        56.85339
437.01        56.54473
437.46        56.37475
437.90        56.98443
438.35        56.64001
438.79        56.85042
439.24        56.69309
439.68        56.59571
440.13        56.39017
440.57        56.16823
441.02        56.33955
441.46        56.77805
441.91        56.86881
442.35         56.5948
442.80        56.77573
443.24        57.31967
443.69        57.35751
444.13        56.81321
444.58        57.16059
445.02        56.58788
445.47         56.7234
445.91        56.95305
446.36        57.04786
446.80        56.96201
447.24        56.88685
447.69         56.9002
448.13        56.91505
448.58        57.09975
449.02        57.05675
449.47        56.86054
449.91        56.73028
450.36        56.69831
450.80        56.56175
451.25        56.37815
451.69        56.37645
452.13        56.52026
452.58        56.50927
453.02        56.34113
453.47        56.26252
453.91         56.2686
454.36        56.23266
454.80        56.14348
455.24        56.03843
455.69        55.92422
456.13        55.79688
456.58        55.74733
457.02        55.60089
457.46        55.72669
457.91        55.87002
458.35        55.57011
458.79        55.48436
459.24         55.4421
459.68        55.36195
460.13        55.30145
460.57        55.13258
461.01        54.83616
461.46        55.21544
461.90        54.98078
462.34        54.77023
462.79        54.44204
463.23        54.50209
463.68        54.89037
464.12        54.68989
464.56        54.05132
465.01         54.0554
465.45        54.50954
465.89        54.60219
466.34        54.38056
466.78        54.14484
467.22        53.88348
467.67        54.43033
468.11        53.84831
468.55          53.844
468.99        53.83019
469.44        53.78598
469.88        53.69851
470.32        53.61024
470.77        53.54277
471.21         53.4665
471.65        53.38505
472.10        53.30707
472.54        53.23618
472.98        53.18635
473.42        53.16158
473.87        53.18923
474.31        53.22219
474.75        53.22916
475.20        53.20388
475.64         53.2006
476.08        53.24137
476.52        53.22989
476.97        53.11087
477.41         53.2155
477.85        53.53913
478.29        52.95346
478.74        52.48375
479.18        52.98488
479.62        52.69674
480.06        52.83728
480.50         52.7844
480.95        52.89557
481.39        53.11292
481.83         53.0158
482.27        53.23909
482.72        53.14874
483.16        53.10784
483.60        53.13198
484.04        53.30786
484.48        53.02713
484.93        52.92769
485.37        52.87757
485.81        53.07991
486.25        52.68744
486.69        53.54334
487.14        53.28315
487.58        53.31934
488.02        52.81431
488.46        52.73288
488.90        53.02321
489.34        52.70937
489.79        52.58968
490.23         52.8581
490.67        52.88999
491.11        52.82584
491.55        52.65501
491.99        52.46299
492.43        52.37476
492.88        52.41183
493.32        52.52689
493.76        52.60832
494.20        52.63255
494.64        52.60746
495.08        52.11816
495.52        51.93443
495.96         51.9539
496.41        52.29247
496.85        52.39304
497.29        52.20642
497.73        52.27806
498.17        52.29388
498.61        52.30202
499.05        52.20902
499.49        51.89602
499.93        51.53992
500.37        51.75452
500.82        52.41382
501.26        52.60081
501.70        52.68073
502.14        52.16725
502.58        51.78998
503.02        51.53426
503.46        51.54468
503.90        51.66191
504.34        51.79214
504.78        51.90732
505.22        51.98236
505.66        51.96311
506.10        51.87353
506.54         51.9034
506.98        52.09196
507.42        51.66079
507.86         52.1834
508.30        51.67876
508.74        51.78526
509.18        51.53019
509.62        51.32825
510.06        51.25047
510.50        51.29369
510.94         51.3718
511.38        51.42781
511.82          51.462
512.26        51.45364
512.70        51.38512
513.14        51.28597
513.58        51.22195
514.02        51.20962
514.46         51.2271
514.90        51.24207
515.34        51.25887
515.78        51.27678
516.22        51.23387
516.66        51.01078
517.10        51.33373
517.54        51.11664
517.98        51.20782
518.42        51.26076
518.86        51.26723
519.30         51.2178
519.74        51.10129
520.18        50.97928
520.62        50.99886
521.06        51.13585
521.50        51.18301
521.93        51.12737
522.37        51.11061
522.81        51.13197
523.25        51.10179
523.69        51.02464
524.13         50.9549
524.57        50.90125
525.01        50.84939
525.45        50.81341
525.89        50.81603
526.32        50.85586
526.76        50.93007
527.20        51.01203
527.64        51.05968
528.08        51.06163
528.52        51.03141
528.96        50.98631
529.40        50.94778
529.83        50.92402
530.27         50.9349
530.71        50.96172
531.15         50.9742
531.59        50.96555
532.03        50.94322
532.46        50.92181
532.90         50.9343
533.34        50.97895
533.78        51.04745
534.22        51.09505
534.66        51.05434
535.09        50.91229
535.53        50.71078
535.97        50.50898
536.41        50.41269
536.85        50.44523
537.28        50.57581
537.72         50.7392
538.16        50.82922
538.60        50.81539
539.04         50.7285
539.47        50.60912
539.91        50.56138
540.35        50.59088
540.79        50.67025
541.22        50.74926
541.66        50.76301
542.10        50.69308
542.54        50.56461
542.97        50.42373
543.41         50.3662
543.85        50.40728
544.29        50.52648
544.72        50.65749
545.16        50.74529
545.60        50.76302
546.04        50.66789
546.47        50.53579
546.91        50.62174
547.35         50.8739
547.79        50.96566
548.22        50.85471
548.66        50.73957
549.10        50.64783
549.53        50.52457
549.97        50.41199
550.41        50.35604
550.84        50.37444
551.28        50.46375
551.72         50.5726
552.15        50.65087
552.59        50.70143
553.03        50.50996
553.46        50.51482
553.90        50.43014
554.34        50.38541
554.77        50.35635
555.21        50.36591
555.65        50.41687
556.08        50.52083
556.52        50.65076
556.96        50.76923
557.39        50.86393
557.83        50.90754
558.27        50.78707
558.70        50.56888
559.14        50.45861
559.57        50.47436
560.01         50.5971
560.45        50.72138
560.88        50.65455
561.32        50.46895
561.75        50.25648
562.19        50.13012
562.63        50.32121
563.06        50.69711
563.50        50.65174
563.93        50.23831
564.37        50.10338
564.80        50.24101
565.24        50.33607
565.68        50.37576
566.11        50.31775
566.55        50.44378
566.98        50.53459
567.42        50.65182
567.85        50.59054
568.29        50.43179
568.72        50.42741
569.16        50.60898
569.60        50.63111
570.03        50.72437
570.47        50.79487
570.90        50.86496
571.34        51.00946
571.77        51.01296
572.21        50.99174
572.64        50.84153
573.08        50.54718
573.51        50.83543
573.95        51.01047
574.38         50.5799
574.82        51.05548
