SpectraSmart Spectrum 2.9.0.0
--------- Device Information -----------
Spectrum Name :  反射率_0
Saving Time :  2024/04/21 00:50:40
Spectro-Module Model Name : SE2030-DUVN
Spectro-Module Serial Number : OS361AC55029948
Wavelength Start : 200
Wavelength End : 1025
Wavelength Unit : Wavelength(nm)
Spectrum Unit : Reflectance(%)
-----------Spectrum Setting ------------
Integration Time : 20ms
Average : 10
Boxcar : 0
Background removal :  enabled
linearity correction :  enabled
SC :  disabled
Intensity correction :  disabled
DWT denoise :  enabled
savitzky-golay :  disabled
FFT :  disabled
Running average :  disabled
Kalman :  disabled
High pass :  disabled
---------------BEGIN--------------------
Wavelength(nm)             Reflectance(%)
200.29               0
200.75       -26.73055
201.21         11.9881
201.67        30.72408
202.13        34.33996
202.58        28.38404
203.04        15.59387
203.50      -0.5599782
203.96       -9.005411
204.42       -4.766805
204.88        6.931285
205.34        20.15802
205.80        27.07642
206.26        25.52238
206.72        18.69584
207.18         4.16981
207.64       -21.13805
208.10       -52.38327
208.55       -86.57774
209.01       -97.16307
209.47       -59.73764
209.93       -11.50984
210.39        26.09347
210.85        49.89934
211.31        60.81911
211.77        63.00893
212.23        58.49847
212.69        44.36034
213.14        17.01953
213.60        -32.3625
214.06        -173.763
214.52       -484.9954
214.98       -188.2765
215.44         -19.786
215.90        34.93352
216.36        52.39199
216.81        53.08306
217.27        39.10314
217.73       -31.74382
218.19        839.8654
218.65        398.0486
219.11       -893.3723
219.57       -36.35263
220.02        19.24235
220.48        29.00934
220.94        23.35359
221.40        1.328746
221.86       -51.55873
222.32       -85.75253
222.77       -38.01867
223.23        3.237243
223.69        23.78946
224.15        30.36429
224.61        29.62369
225.06        25.57626
225.52         19.4374
225.98        12.65459
226.44        6.338704
226.90       -1.099953
227.36       -5.553783
227.81    -0.002404478
228.27        11.32027
228.73         22.9557
229.19        30.31304
229.65        30.93284
230.10        25.78489
230.56         16.3823
231.02        4.397471
231.48       -3.275909
231.93       -1.875471
232.39        5.785766
232.85        14.29768
233.31         19.1801
233.77        20.68095
234.22        20.74664
234.68        19.89109
235.14        18.93873
235.60        18.58688
236.05        17.62388
236.51        16.18335
236.97         20.8776
237.43        32.02369
237.88        39.04426
238.34        37.66096
238.80          59.591
239.26        47.96256
239.71        44.26793
240.17        33.75768
240.63        24.64256
241.08        22.92102
241.54        32.58017
242.00        50.32745
242.46        60.39359
242.91        58.31227
243.37        43.88548
243.83        19.55988
244.28        1.518666
244.74        1.627539
245.20        12.29555
245.66        25.11868
246.11        31.98033
246.57        31.48673
247.03        27.31064
247.48        19.41055
247.94         6.69407
248.40       -15.54491
248.85       -73.29501
249.31       -253.8134
249.77       -390.8968
250.22       -110.6151
250.68        3.338791
251.14        39.93403
251.59        51.41783
252.05        53.48358
252.51        50.53215
252.96        41.18691
253.42        26.71538
253.88        13.02665
254.33        3.263964
254.79        3.671723
255.25        14.66946
255.70        28.90959
256.16         41.8977
256.62        50.83893
257.07        54.36655
257.53        54.60056
257.99        53.16912
258.44         51.3959
258.90        51.05214
259.35        51.45886
259.81        52.18663
260.27        52.41196
260.72         51.4129
261.18        49.73772
261.63        47.71935
262.09        45.82889
262.55        44.09569
263.00        42.45998
263.46        40.99089
263.91        39.66543
264.37        38.83637
264.83        38.39777
265.28        38.18985
265.74         38.0272
266.19        37.50017
266.65        36.60969
267.11           35.44
267.56        34.14393
268.02        33.04313
268.47        32.17288
268.93        31.46763
269.38        30.80192
269.84        30.03501
270.30        29.12903
270.75         28.1638
271.21        27.23287
271.66        26.41189
272.12          25.747
272.57        25.17393
273.03        24.69778
273.48        24.30638
273.94        23.98847
274.39        23.71804
274.85        23.43639
275.31        22.99633
275.76        22.39009
276.22        21.70755
276.67        21.05997
277.13        20.66529
277.58        20.51727
278.04        20.53914
278.49        20.59953
278.95        20.57187
279.40        20.38458
279.86         20.1123
280.31        19.73849
280.77        19.30425
281.22        18.81774
281.68         18.3322
282.13        17.87466
282.59        17.54825
283.04        17.34854
283.50        17.25662
283.95        17.26577
284.41        17.37236
284.86        17.55386
285.32         17.8239
285.77        18.08046
286.22        18.18424
286.68        18.14438
287.13        17.96412
287.59        17.85209
288.04        18.02724
288.50        18.48104
288.95        19.25516
289.41        20.15447
289.86        20.39064
290.32        19.83465
290.77        20.61507
291.22        19.52617
291.68        19.61658
292.13         19.9674
292.59        20.59082
293.04        21.38988
293.50        22.28168
293.95        23.25039
294.40        24.31286
294.86        25.48104
295.31        26.75309
295.77        28.12369
296.22        29.55701
296.68         31.0584
297.13        32.64508
297.58        34.32606
298.04        36.09229
298.49        37.91737
298.95        39.77608
299.40        41.63723
299.85        43.51663
300.31        45.39893
300.76        47.23866
301.21        49.04844
301.67        50.86613
302.12        52.73368
302.58        54.81982
303.03        57.11429
303.48        59.60657
303.94        62.19828
304.39        64.67992
304.84         66.9969
305.30        69.20061
305.75        71.31386
306.20        73.49057
306.66        75.75576
307.11        78.00385
307.57        80.17273
308.02        82.09471
308.47        83.77231
308.93        85.29646
309.38        86.71761
309.83        88.18001
310.29         89.7617
310.74        91.35323
311.19        92.89582
311.65        94.26415
312.10        95.40866
312.55        96.37852
313.00        97.23351
313.46        98.06943
313.91        98.90305
314.36        99.72482
314.82        100.5112
315.27         101.215
315.72        101.8399
316.18        102.4051
316.63        102.9553
317.08        103.5615
317.53        104.2236
317.99        104.9012
318.44        105.5205
318.89        105.9521
319.35        106.1701
319.80        106.2354
320.25        106.2141
320.70        106.2219
321.16        106.2949
321.61        106.4183
322.06        106.5989
322.51        106.8514
322.97         107.149
323.42        107.5305
323.87        107.9044
324.32        108.1317
324.78        108.1658
325.23        108.0774
325.68        107.9606
326.13        108.0111
326.59        108.2503
327.04        108.6744
327.49        109.1535
327.94        109.5005
328.39        109.6617
328.85         109.668
329.30        109.6568
329.75        109.7215
330.20        109.9043
330.66        110.1219
331.11        110.4242
331.56         110.757
332.01        111.0998
332.46        111.4674
332.92        111.7671
333.37         111.984
333.82        112.0667
334.27        112.0496
334.72         112.031
335.17        112.1792
335.63        112.5114
336.08        113.0409
336.53        113.6761
336.98        114.3063
337.43        114.8757
337.88        115.3981
338.34        115.8324
338.79        116.1775
339.24        116.4134
339.69        116.5497
340.14        116.6234
340.59        116.7077
341.05        116.8295
341.50        116.9796
341.95        117.1792
342.40        117.4559
342.85        117.8051
343.30        118.2282
343.75        118.6282
344.20        118.8522
344.66        118.8833
345.11        118.7376
345.56        118.5658
346.01        118.6117
346.46        118.9191
346.91        119.3866
347.36        119.8199
347.81        119.9841
348.26        119.8345
348.72        119.2433
349.17        118.7795
349.62        118.3994
350.07        118.2984
350.52        118.3778
350.97        118.5124
351.42        118.4954
351.87        118.2558
352.32        117.8551
352.77        117.3762
353.22        116.9346
353.67        116.5625
354.13        116.2467
354.58        115.8767
355.03        115.3418
355.48        114.6338
355.93        113.7979
356.38        112.9912
356.83        112.4445
357.28        112.1752
357.73        112.0898
358.18        111.9691
358.63        111.4654
359.08        110.5124
359.53        109.2443
359.98        107.8638
360.43        106.6774
360.88        105.7701
361.33        105.0435
361.78        104.4243
362.23        103.7954
362.68        103.1087
363.13        102.4127
363.58        101.6755
364.03        100.8345
364.48        99.88799
364.93        98.84193
365.38        97.78158
365.83        96.86092
366.28        96.11157
366.73        95.48524
367.18        94.89967
367.63        94.21773
368.08        93.40533
368.53        92.51855
368.98        91.58595
369.43        90.63901
369.88        89.69302
370.33        88.72824
370.78        87.79301
371.23        86.99122
371.68        86.35213
372.13        85.85649
372.58        85.42559
373.03        84.91454
373.48         84.2784
373.93        83.55193
374.38        82.78625
374.83         82.0819
375.28        81.47707
375.72        80.92454
376.17        80.42492
376.62        79.91437
377.07        79.36256
377.52        78.77464
377.97        78.15926
378.42         77.5453
378.87        76.96014
379.32        76.41422
379.77        75.88915
380.22        75.34188
380.67        74.75674
381.11        74.14329
381.56        73.54735
382.01         73.0675
382.46        72.73062
382.91        72.50952
383.36        72.31274
383.81        71.99818
384.26         71.5329
384.71        70.95477
385.15        70.34337
385.60        69.88555
386.05        69.59237
386.50        69.41078
386.95        69.24279
387.40        68.94199
387.85        68.49209
388.29        67.92065
388.74        67.39997
389.19        66.98922
389.64        66.69489
390.09        66.46075
390.54        66.25893
390.98        66.03961
391.43        65.83115
391.88        65.65063
392.33        65.46327
392.78        65.25391
393.23        65.03444
393.67        64.66248
394.12        64.30939
394.57        64.34372
395.02         64.6433
395.47        64.53337
395.91         64.0567
396.36        63.82644
396.81         63.8834
397.26        63.89945
397.71         63.7846
398.15        63.54362
398.60        63.24081
399.05        62.78062
399.50        62.35531
399.95        62.30259
400.39        62.59192
400.84        63.00879
401.29        63.34179
401.74        63.06526
402.18        62.31055
402.63        61.96494
403.08        62.06052
403.53        61.87904
403.97        61.43624
404.42         61.2397
404.87        61.26928
405.32        61.28883
405.76        61.27508
406.21        61.22599
406.66        61.14405
407.11        61.23465
407.55        61.42134
408.00        61.19709
408.45        60.65482
408.90        60.36655
409.34        60.39405
409.79        60.49063
410.24        60.57449
410.68        60.60536
411.13        60.55666
411.58        60.46121
412.03        60.35266
412.47        60.28836
412.92        60.26591
413.37        60.28009
413.81        60.30564
414.26        60.35294
414.71         60.3998
415.15        60.46342
415.60        60.50611
416.05        60.51181
416.49        60.47987
416.94        60.40924
417.39        60.32362
417.83        60.25337
418.28        60.21014
418.73         60.1827
419.17        60.16534
419.62        60.15777
420.07        60.15791
420.51         60.1659
420.96        60.19183
421.41        60.21197
421.85        60.20144
422.30        60.18061
422.74        60.15742
423.19        60.28685
423.64          60.544
424.08        60.82508
424.53        61.01385
424.98        61.16399
425.42        61.27596
425.87        61.16746
426.31        60.96244
426.76        61.14799
427.21         61.6399
427.65        61.77519
428.10         61.5374
428.54        61.48286
428.99        61.65102
429.44        61.78795
429.88        61.81821
430.33        61.68885
430.77        61.42319
431.22         61.4146
431.66        61.64411
432.11        61.76149
432.56         61.7775
433.00        61.99648
433.45        62.13372
433.89        61.94089
434.34        61.71569
434.78        60.91771
435.23        60.99411
435.67        62.70014
436.12        62.60415
436.57        62.87949
437.01        62.58364
437.46        62.32339
437.90        62.73861
438.35        63.23378
438.79        62.98699
439.24        62.99746
439.68        63.00594
440.13        62.86368
440.57        62.63838
441.02        62.85893
441.46        63.39555
441.91        63.35885
442.35        62.85692
442.80         63.1804
443.24        64.16066
443.69        64.37846
444.13         63.7225
444.58        63.97902
445.02        63.49918
445.47        63.58113
445.91         63.6776
446.36        63.70593
446.80         63.6432
447.24        63.59855
447.69        63.62135
448.13        63.83683
448.58        64.00865
449.02        63.99398
449.47        63.77871
449.91        63.68727
450.36        63.75752
450.80        63.72406
451.25        63.63316
451.69        63.71987
452.13        63.93412
452.58        63.94395
453.02        63.74715
453.47        63.62519
453.91        63.57978
454.36        63.46848
454.80        63.29424
455.24        63.14444
455.69         63.0488
456.13         62.9314
456.58        62.85897
457.02        62.82946
457.46          63.049
457.91        62.95135
458.35         62.7508
458.79        62.61625
459.24        62.59842
459.68        62.56977
460.13        62.55536
460.57         62.3919
461.01        62.05857
461.46        62.22865
461.90         61.9106
462.34        61.71597
462.79        61.82647
463.23        62.01886
463.68        62.29293
464.12        62.05088
464.56        61.45458
465.01        61.50192
465.45        61.98951
465.89        62.01228
466.34        61.64532
466.78        61.44838
467.22        61.45568
467.67        61.76032
468.11        61.57903
468.55        61.52478
468.99        61.37719
469.44        61.24743
469.88        61.13627
470.32        60.94714
470.77        60.74215
471.21        60.65423
471.65        60.70238
472.10        60.85828
472.54        60.99634
472.98        60.97557
473.42        60.78641
473.87         60.3928
474.31         59.9375
474.75        59.98643
475.20        60.43369
475.64        60.54356
476.08        60.33805
476.52        60.34035
476.97        60.50581
477.41        60.73796
477.85        60.96781
478.29        60.45488
478.74        60.01962
479.18        60.08587
479.62        60.19746
480.06        60.29719
480.50        60.18192
480.95        60.29229
481.39        60.57229
481.83        60.46334
482.27        61.01683
482.72        60.65125
483.16        60.76782
483.60        61.01542
484.04        60.94442
484.48         60.6553
484.93        60.66959
485.37        60.18836
485.81        60.68507
486.25        60.09361
486.69        61.36008
487.14        61.20971
487.58        61.11995
488.02        60.48393
488.46        60.41036
488.90        60.43293
489.34        60.56664
489.79        60.23999
490.23        60.69482
490.67        60.70071
491.11         60.6493
491.55        60.50695
491.99        60.34892
492.43         60.2735
492.88        60.28932
493.32        60.38357
493.76        60.47239
494.20        60.54047
494.64        60.59542
495.08        60.30283
495.52        60.25465
495.96        60.28895
496.41        60.49395
496.85        60.42653
497.29        60.10337
497.73        60.18599
498.17        60.30209
498.61        60.33253
499.05        60.13933
499.49        59.84384
499.93        59.58326
500.37        59.58604
500.82        59.80676
501.26        60.07639
501.70        60.28063
502.14        59.96906
502.58        59.72635
503.02        59.52657
503.46        59.62471
503.90        59.70013
504.34        59.73202
504.78         59.7808
505.22         59.8521
505.66        59.85305
506.10        59.77643
506.54        59.84927
506.98        60.12104
507.42        59.54372
507.86         60.1038
508.30        59.80328
508.74        59.96988
509.18        59.94178
509.62         59.9448
510.06        59.95994
510.50        59.95307
510.94        59.87063
511.38        59.72826
511.82        59.64021
512.26        59.61634
512.70        59.59996
513.14         59.5843
513.58        59.57767
514.02        59.57394
514.46        59.57362
514.90         59.5502
515.34        59.50019
515.78        59.42963
516.22        59.31037
516.66        59.02914
517.10        59.25706
517.54        59.08497
517.98        59.21639
518.42         59.3467
518.86        59.44652
519.30        59.49512
519.74        59.46938
520.18        59.42046
520.62        59.50126
521.06         59.6776
521.50        59.71215
521.93        59.59727
522.37        59.51419
522.81        59.47179
523.25        59.36674
523.69        59.21675
524.13        59.10103
524.57        59.03249
525.01        58.99306
525.45        58.98486
525.89        59.00857
526.32        59.05622
526.76        59.13055
527.20        59.21244
527.64         59.2733
528.08        59.30336
528.52        59.30804
528.96        59.29645
529.40        59.27873
529.83        59.25824
530.27        59.26094
530.71        59.26851
531.15        59.25026
531.59        59.20321
532.03         59.1408
532.46        59.07693
532.90        59.04599
533.34        59.04745
533.78        59.07104
534.22        59.08823
534.66        59.05456
535.09        58.95695
535.53        58.83561
535.97        58.70984
536.41         58.6254
536.85        58.59642
537.28         58.6079
537.72        58.65423
538.16        58.72656
538.60        58.81175
539.04        58.90787
539.47        58.97874
539.91        59.02037
540.35        59.01342
540.79        58.96523
541.22        58.89257
541.66        58.83941
542.10        58.81362
542.54         58.8044
542.97        58.79734
543.41        58.80102
543.85        58.80833
544.29        58.82701
544.72        58.83923
545.16        58.87561
545.60        58.92544
546.04        58.89935
546.47        58.83518
546.91        58.97109
547.35        59.23168
547.79        59.23522
548.22        58.99288
548.66        58.87409
549.10        58.90153
549.53        58.87555
549.97        58.81017
550.41        58.79694
550.84        58.84676
551.28        58.90058
551.72        58.92915
552.15        58.99993
552.59        59.14264
553.03        58.87868
553.46        59.04057
553.90        58.95819
554.34        58.87488
554.77        58.76744
555.21        58.70638
555.65        58.75314
556.08        58.89465
556.52        59.17051
556.96        59.46758
557.39        59.53186
557.83        59.38901
558.27        59.27281
558.70        59.22996
559.14        59.14969
559.57        59.03551
560.01        59.08376
560.45        59.21753
560.88        59.09051
561.32         58.8161
561.75        58.77878
562.19        58.99086
562.63        59.11217
563.06        59.09309
563.50        59.05626
563.93        58.99638
564.37        58.89006
564.80        58.76954
565.24        58.81628
565.68        58.98952
566.11        59.07759
566.55        59.08538
566.98        59.11841
567.42        59.20166
567.85        59.24799
568.29        59.28517
568.72        59.32541
569.16         59.4385
569.60        59.40723
570.03        59.49462
570.47        59.63712
570.90        59.85879
571.34        59.60812
571.77        59.68421
572.21        59.67169
572.64        59.45279
573.08        59.43416
573.51        59.71291
573.95        60.12284
574.38        59.68705
574.82        60.44095
