SpectraSmart Spectrum 2.9.0.0
--------- Device Information -----------
Spectrum Name :  反射率_0
Saving Time :  2024/04/21 00:22:57
Spectro-Module Model Name : SE2030-DUVN
Spectro-Module Serial Number : OS361AC55029948
Wavelength Start : 200
Wavelength End : 1025
Wavelength Unit : Wavelength(nm)
Spectrum Unit : Reflectance(%)
-----------Spectrum Setting ------------
Integration Time : 20ms
Average : 10
Boxcar : 0
Background removal :  enabled
linearity correction :  enabled
SC :  disabled
Intensity correction :  disabled
DWT denoise :  enabled
savitzky-golay :  disabled
FFT :  disabled
Running average :  disabled
Kalman :  disabled
High pass :  disabled
---------------BEGIN--------------------
Wavelength(nm)             Reflectance(%)
200.29               0
200.75       -60.25123
201.21        3.098593
201.67         38.6855
202.13        49.80015
202.58        45.57945
203.04        31.95112
203.50        12.57605
203.96      -0.9923257
204.42       -2.265803
204.88        3.698404
205.34           12.17
205.80        16.79339
206.26        15.88655
206.72        13.65138
207.18         8.37926
207.64       -4.027337
208.10       -21.22647
208.55        -41.7673
209.01       -45.98519
209.47       -15.53515
209.93        21.74956
210.39         50.2438
210.85        68.15794
211.31        76.62806
211.77        78.77337
212.23        75.92585
212.69        66.06845
213.14        46.77068
213.60        10.38545
214.06       -92.34011
214.52        -333.906
214.98       -139.9651
215.44       -15.04218
215.90        28.67187
216.36        43.87265
216.81        46.44991
217.27        39.69041
217.73        0.142844
218.19        485.6178
218.65        228.0953
219.11       -382.9913
219.57        18.20613
220.02        43.21232
220.48        46.30222
220.94        41.12017
221.40        25.70354
221.86        -10.1766
222.32       -34.27858
222.77       -3.152342
223.23        24.37657
223.69        38.88588
224.15        45.13822
224.61        47.48764
225.06        48.46666
225.52        47.93501
225.98        44.73211
226.44        38.93327
226.90        30.15255
227.36        22.47089
227.81        23.96048
228.27        32.33692
228.73        41.92966
229.19        48.51272
229.65        49.99057
230.10        47.18166
230.56        41.56998
231.02        34.05322
231.48        28.52403
231.93        28.09008
232.39        31.47659
232.85        35.79079
233.31        38.51806
233.77        39.71297
234.22        40.55585
234.68        41.05884
235.14        41.10844
235.60        40.93986
236.05        39.89555
236.51        38.29248
236.97        41.52148
237.43        50.00504
237.88        55.75395
238.34        55.62974
238.80        71.95362
239.26        64.81026
239.71        63.30136
240.17        57.29436
240.63        52.14201
241.08        51.76635
241.54        58.47037
242.00        70.14331
242.46        77.11587
242.91        76.86986
243.37          68.711
243.83        55.32965
244.28         48.8876
244.74        55.89077
245.20        70.36887
245.66        83.10104
246.11        84.55441
246.57        74.14909
247.03        55.03799
247.48        31.24273
247.94        9.558831
248.40       -9.776013
248.85       -40.05577
249.31       -103.1168
249.77       -89.42173
250.22        26.45432
250.68        57.69668
251.14        64.04333
251.59        63.87653
252.05        61.21489
252.51        55.82417
252.96        47.63093
253.42        41.98592
253.88        43.35004
254.33        49.22856
254.79        58.77102
255.25        68.80001
255.70        76.42815
256.16        82.06791
256.62         84.8045
257.07         84.2047
257.53        82.05902
257.99        79.01654
258.44        75.94048
258.90        74.44916
259.35        73.70474
259.81        73.56712
260.27        73.19724
260.72        71.86274
261.18        70.18282
261.63        68.25777
262.09        66.60952
262.55        65.15884
263.00        63.77937
263.46        62.60249
263.91        61.51723
264.37        60.91175
264.83        60.63561
265.28        60.50705
265.74        60.37749
266.19        59.77017
266.65        58.72832
267.11        57.32217
267.56         55.7464
268.02        54.41796
268.47        53.37285
268.93        52.54375
269.38        51.72439
269.84        50.67012
270.30        49.32263
270.75        47.79401
271.21        46.29885
271.66        45.07362
272.12        44.20845
272.57        43.58044
273.03        43.06892
273.48        42.43641
273.94        41.65624
274.39        40.75455
274.85        39.85329
275.31        39.04931
275.76         38.3544
276.22        37.76735
276.67        37.20461
277.13        36.65376
277.58        36.06265
278.04        35.50347
278.49        34.94769
278.95        34.45857
279.40        33.98481
279.86        33.53643
280.31        33.07472
280.77        32.65541
281.22        32.23421
281.68        31.87158
282.13        31.46492
282.59        30.95849
283.04        30.33128
283.50        29.65388
283.95        29.05824
284.41        28.78349
284.86        28.84245
285.32        29.16773
285.77         29.5573
286.22        29.74704
286.68        29.69819
287.13        29.44209
287.59        29.17483
288.04        29.08152
288.50        29.18597
288.95        29.52254
289.41        29.97466
289.86        29.91096
290.32        29.24648
290.77        29.84998
291.22        28.88079
291.68        29.00403
292.13        29.39004
292.59        30.05587
293.04        30.91071
293.50        31.88451
293.95        32.94555
294.40        34.08344
294.86         35.2858
295.31        36.52082
295.77        37.77809
296.22        39.03949
296.68        40.30877
297.13        41.58938
297.58        42.90972
298.04        44.27869
298.49        45.73548
298.95        47.36122
299.40        49.13536
299.85        51.02924
300.31         52.9556
300.76        54.74815
301.21         56.3901
301.67         57.9657
302.12        59.52963
302.58        61.28216
303.03        63.23574
303.48        65.38284
303.94        67.68918
304.39        70.03701
304.84        72.39024
305.30        74.78321
305.75        77.15489
306.20        79.53455
306.66        81.92001
307.11        84.22713
307.57        86.47511
308.02        88.61235
308.47        90.66245
308.93        92.67516
309.38        94.59915
309.83        96.44303
310.29        98.23621
310.74        99.94237
311.19        101.6136
311.65        103.3084
312.10        105.0123
312.55        106.7069
313.00        108.3369
313.46        109.8183
313.91        111.1076
314.36        112.2393
314.82        113.2593
315.27        114.2288
315.72         115.187
316.18        116.1218
316.63        117.0283
317.08        117.8984
317.53        118.7215
317.99        119.4978
318.44        120.2238
318.89        120.8734
319.35        121.4392
319.80        121.9372
320.25        122.3699
320.70        122.7526
321.16        123.0836
321.61        123.3779
322.06        123.6508
322.51        123.9352
322.97        124.2216
323.42        124.5544
323.87        124.8818
324.32        125.1351
324.78        125.2838
325.23        125.3953
325.68        125.5207
326.13        125.7828
326.59        126.1737
327.04        126.7113
327.49        127.2844
327.94        127.7469
328.39         128.056
328.85        128.2225
329.30        128.3693
329.75        128.5452
330.20        128.7853
330.66        129.0163
331.11        129.3388
331.56        129.7551
332.01        130.2629
332.46        130.8632
332.92        131.4158
333.37        131.8467
333.82        132.0754
334.27         132.153
334.72        132.2153
335.17        132.4986
335.63        133.0255
336.08        133.7849
336.53        134.6424
336.98        135.4272
337.43        136.0685
337.88        136.6171
338.34         137.026
338.79         137.299
339.24          137.43
339.69        137.4293
340.14        137.4314
340.59        137.6578
341.05        138.1527
341.50        138.8739
341.95        139.6768
342.40        140.3126
342.85        140.7115
343.30        140.9439
343.75        141.1053
344.20        141.3592
344.66        141.7549
345.11        142.1962
345.56         142.634
346.01         143.003
346.46        143.2845
346.91        143.4705
347.36        143.5221
347.81        143.5108
348.26        143.4716
348.72        142.9035
349.17        142.8046
349.62        142.6038
350.07        142.6055
350.52        142.7386
350.97         142.905
351.42        142.9197
351.87        142.7224
352.32        142.3751
352.77        141.9387
353.22         141.507
353.67        141.1069
354.13        140.7157
354.58        140.2891
355.03        139.8214
355.48        139.3089
355.93        138.7708
356.38        138.2063
356.83        137.6012
357.28        136.9491
357.73        136.2438
358.18        135.4969
358.63        134.7413
359.08        133.9855
359.53        133.2191
359.98        132.4214
360.43        131.5511
360.88        130.5987
361.33        129.5883
361.78        128.5349
362.23        127.4625
362.68        126.3968
363.13        125.3438
363.58        124.3329
364.03        123.4068
364.48        122.5619
364.93        121.7725
365.38        121.0018
365.83        120.1923
366.28         119.321
366.73        118.3999
367.18        117.4224
367.63        116.3843
368.08        115.3059
368.53        114.2106
368.98        113.1354
369.43         112.123
369.88        111.1788
370.33        110.2847
370.78        109.4444
371.23        108.6773
371.68        107.9831
372.13        107.3507
372.58        106.7343
373.03        106.0488
373.48        105.2682
373.93        104.4178
374.38        103.5264
374.83        102.6584
375.28        101.8553
375.72        101.0888
376.17        100.4174
376.62        99.82966
377.07        99.29663
377.52        98.78946
377.97        98.26817
378.42        97.68459
378.87        97.03685
379.32        96.35599
379.77        95.63591
380.22         94.8485
380.67        93.99116
381.11        93.07967
381.56        92.18241
382.01        91.44799
382.46        90.92722
382.91        90.59154
383.36        90.34376
383.81        90.02352
384.26        89.58431
384.71        89.06109
385.15        88.51187
385.60        88.10255
386.05        87.82995
386.50        87.63678
386.95        87.42982
387.40        87.07794
387.85        86.57064
388.29        85.92331
388.74        85.32804
389.19        84.81998
389.64         84.4066
390.09        84.04099
390.54        83.70797
390.98        83.37506
391.43         83.0781
391.88        82.81604
392.33        82.54971
392.78        82.23044
393.23        81.85935
393.67        81.37575
394.12        80.93234
394.57        80.64792
395.02        80.48034
395.47        80.18698
395.91        79.79065
396.36        79.48187
396.81        79.29895
397.26        79.17237
397.71        79.01349
398.15        78.75701
398.60        78.48657
399.05        77.95333
399.50        77.38417
399.95        77.51252
400.39        78.14771
400.84        78.24873
401.29        77.72923
401.74        77.05788
402.18        76.44593
402.63        76.18719
403.08        76.23689
403.53         76.0439
403.97        75.58964
404.42        75.31734
404.87        75.24439
405.32        75.18457
405.76        75.11286
406.21        75.10273
406.66        75.10326
407.11        75.00418
407.55        74.82241
408.00         74.6229
408.45        74.42802
408.90        74.13518
409.34        73.78216
409.79        73.54817
410.24        73.44128
410.68        73.36747
411.13         73.3232
411.58        73.36559
412.03        73.44633
412.47        73.46393
412.92        73.36583
413.37        73.19453
413.81        72.99787
414.26         72.9077
414.71        72.92364
415.15        73.02474
415.60        73.11669
416.05        73.10444
416.49        72.96463
416.94        72.72969
417.39        72.46444
417.83        72.25327
418.28        72.12556
418.73        72.05328
419.17        72.00976
419.62        71.96191
420.07        71.89731
420.51        71.82205
420.96        71.77116
421.41        71.74115
421.85        71.70091
422.30        71.68933
422.74        71.67989
423.19        71.70944
423.64        71.75288
424.08        71.91452
424.53        72.11084
424.98        71.94907
425.42        72.07249
425.87        71.86844
426.31        71.66162
426.76        71.83011
427.21        72.31484
427.65        72.61165
428.10        72.59803
428.54        72.55888
428.99        72.52594
429.44        72.36442
429.88        72.08088
430.33        71.79796
430.77        71.54486
431.22        71.50249
431.66        71.64647
432.11        71.92885
432.56        72.29002
433.00        72.42573
433.45        72.05304
433.89        71.80807
434.34        71.93261
434.78         70.7679
435.23        70.11762
435.67        71.78297
436.12        72.69656
436.57        72.92055
437.01        71.70637
437.46         71.2225
437.90        71.84822
438.35        72.33178
438.79        72.01358
439.24        71.96027
439.68        71.97599
440.13        71.90173
440.57        71.76949
441.02        71.84232
441.46        72.05536
441.91        72.02553
442.35        71.77673
442.80        72.00328
443.24        72.54335
443.69        72.66742
444.13        72.36433
444.58        72.14166
445.02        72.05715
445.47        72.23945
445.91        72.55099
446.36        72.60846
446.80        72.37201
447.24        72.03216
447.69        71.71675
448.13        71.71565
448.58        71.81042
449.02        71.82825
449.47        71.70444
449.91        71.71729
450.36        71.88015
450.80        71.88537
451.25        71.74939
451.69        71.93131
452.13        71.95496
452.58        71.80755
453.02        71.40875
453.47        71.16301
453.91        71.08535
454.36        70.98929
454.80        70.86376
455.24        70.78237
455.69        70.76116
456.13        70.72546
456.58        70.67227
457.02        70.70949
457.46        70.46442
457.91        70.37283
458.35        70.42094
458.79        70.34303
459.24        70.18069
459.68        70.07664
460.13        70.07279
460.57        69.92196
461.01         69.6081
461.46        69.97684
461.90        69.25691
462.34        69.69508
462.79        69.31938
463.23        69.51671
463.68        69.72131
464.12        69.41208
464.56        68.78604
465.01        68.85181
465.45        69.39268
465.89        69.58785
466.34        69.41553
466.78        69.02058
467.22        68.50909
467.67        68.76758
468.11        68.49245
468.55        68.52568
468.99        68.40904
469.44        68.25182
469.88        68.03319
470.32        67.69518
470.77        67.34019
471.21         67.1347
471.65        67.11636
472.10        67.24334
472.54        67.40439
472.98        67.47173
473.42        67.41828
473.87        67.22679
474.31        66.96539
474.75        67.02265
475.20        67.32254
475.64        67.34703
476.08        67.12785
476.52        67.09582
476.97        66.94466
477.41        67.06366
477.85        67.43811
478.29        66.49277
478.74        66.52908
479.18        66.92329
479.62        66.78138
480.06        66.91373
480.50        66.84358
480.95        66.92084
481.39        67.09119
481.83        66.82346
482.27        67.13297
482.72        67.00074
483.16        66.80073
483.60        67.13818
484.04        67.17878
484.48        66.90175
484.93        66.75973
485.37        66.91901
485.81        67.07984
486.25        66.85082
486.69        68.40943
487.14        68.73725
487.58        67.84279
488.02        66.77542
488.46        66.59852
488.90        66.15125
489.34        66.22714
489.79        65.66814
490.23        66.36088
490.67        66.34817
491.11        66.17328
491.55        66.05346
491.99        66.03838
492.43        65.99677
492.88        65.92573
493.32        65.95696
493.76        66.00075
494.20        65.99014
494.64        65.94222
495.08        65.50769
495.52        65.27798
495.96         65.4155
496.41        65.92262
496.85        65.94564
497.29        65.48159
497.73        65.51519
498.17        65.67178
498.61         65.6956
499.05        65.45271
499.49        65.22337
499.93        65.10765
500.37        65.10162
500.82        65.19126
501.26        65.49835
501.70        65.89235
502.14        65.61713
502.58        65.28867
503.02        65.08099
503.46        65.13422
503.90        65.14583
504.34        65.07302
504.78        65.04112
505.22        65.05865
505.66        65.04017
506.10        64.98502
506.54        65.00891
506.98        65.13208
507.42        64.62683
507.86        65.24883
508.30        64.56929
508.74        65.00318
509.18        64.94553
509.62        64.95488
510.06        64.96967
510.50        64.95747
510.94         64.8503
511.38        64.65421
511.82        64.50439
512.26        64.41667
512.70        64.33413
513.14        64.26011
513.58        64.24065
514.02        64.27743
514.46        64.31953
514.90        64.32604
515.34        64.46872
515.78         64.4102
516.22        64.40058
516.66         64.1943
517.10        64.37465
517.54        64.13472
517.98        64.10645
518.42        64.05949
518.86        64.02249
519.30        63.99886
519.74        63.95264
520.18        63.91398
520.62        64.00751
521.06         64.1857
521.50        64.20638
521.93        64.08186
522.37        64.03856
522.81        64.08758
523.25        64.09699
523.69        64.05492
524.13        64.00465
524.57        63.94875
525.01        63.87967
525.45        63.81874
525.89        63.79841
526.32        63.82313
526.76        63.88929
527.20        63.96991
527.64        64.03117
528.08        64.06119
528.52        64.04617
528.96        64.00542
529.40        64.01626
529.83        64.05688
530.27        64.03154
530.71        63.93744
531.15        63.87443
531.59        63.84988
532.03        63.80723
532.46         63.7569
532.90        63.76121
533.34        63.81452
533.78        63.89192
534.22        63.96177
534.66        63.97621
535.09        63.91636
535.53        63.82506
535.97         63.7049
536.41        63.57692
536.85         63.4571
537.28        63.34397
537.72        63.26668
538.16        63.27242
538.60        63.36093
539.04        63.51242
539.47        63.66289
539.91        63.76708
540.35        63.79286
540.79        63.76404
541.22        63.69838
541.66        63.64398
542.10        63.61127
542.54        63.57843
542.97        63.55286
543.41        63.58838
543.85        63.68064
544.29        63.82375
544.72        63.93685
545.16        64.02475
545.60        63.88621
546.04        63.71703
546.47        63.40038
546.91        63.45671
547.35        63.76497
547.79         63.9903
548.22        64.02213
548.66        63.83243
549.10        63.53384
549.53        63.49418
549.97        63.70356
550.41        63.75001
550.84        63.63002
551.28        63.58687
551.72        63.61426
552.15        63.66791
552.59        63.76744
553.03        63.50688
553.46        63.68836
553.90        63.56548
554.34        63.35135
554.77        63.44387
555.21        63.18111
555.65        63.19389
556.08        63.26418
556.52        63.38747
556.96        63.51167
557.39        63.64072
557.83        63.74784
558.27        63.69246
558.70        63.51686
559.14        63.40925
559.57        63.37882
560.01        63.41292
560.45        63.45952
560.88        63.38404
561.32        63.27617
561.75        63.27348
562.19        63.40757
562.63        63.60419
563.06        63.75839
563.50        63.65513
563.93        63.33906
564.37        63.11087
564.80        63.02525
565.24        63.14054
565.68        63.39257
566.11        63.49702
566.55        63.43467
566.98        63.46815
567.42        63.65715
567.85        63.35657
568.29        63.52156
568.72        63.53474
569.16        63.69067
569.60        63.75449
570.03        64.02073
570.47         64.1366
570.90        64.08341
571.34        64.49784
571.77         64.7359
572.21        64.31126
572.64        64.39167
573.08        64.29368
573.51        64.18002
573.95        64.64474
574.38        64.50198
574.82        65.26537
