SpectraSmart Spectrum 2.9.0.0
--------- Device Information -----------
Spectrum Name :  反射率_0
Saving Time :  2024/04/21 00:56:20
Spectro-Module Model Name : SE2030-DUVN
Spectro-Module Serial Number : OS361AC55029948
Wavelength Start : 200
Wavelength End : 1025
Wavelength Unit : Wavelength(nm)
Spectrum Unit : Reflectance(%)
-----------Spectrum Setting ------------
Integration Time : 20ms
Average : 10
Boxcar : 0
Background removal :  enabled
linearity correction :  enabled
SC :  disabled
Intensity correction :  disabled
DWT denoise :  enabled
savitzky-golay :  disabled
FFT :  disabled
Running average :  disabled
Kalman :  disabled
High pass :  disabled
---------------BEGIN--------------------
Wavelength(nm)             Reflectance(%)
200.29               0
200.75       -78.61636
201.21       -6.491649
201.67        32.68393
202.13        46.33989
202.58          44.993
203.04        34.03357
203.50        17.10418
203.96        5.309319
204.42        4.485553
204.88        10.08174
205.34        17.07776
205.80        18.21115
206.26          11.162
206.72      -0.4760984
207.18       -17.13195
207.64       -38.53875
208.10       -59.08862
208.55        -78.2905
209.01       -76.78785
209.47       -39.57217
209.93        1.762091
210.39        32.22189
210.85        50.42776
211.31        57.28679
211.77        55.69849
212.23        46.02061
212.69        23.09671
213.14       -20.40335
213.60       -98.74657
214.06       -315.9181
214.52       -781.7946
214.98       -328.5538
215.44       -74.94265
215.90        7.155002
216.36        34.13145
216.81        38.18124
217.27        25.14505
217.73       -48.19551
218.19        849.5056
218.65        376.4138
219.11       -779.0993
219.57       -18.69462
220.02        29.77997
220.48        38.32389
220.94        33.55555
221.40        14.29722
221.86        -32.2142
222.32       -62.47812
222.77       -20.89826
223.23        15.36678
223.69        32.92809
224.15        37.14436
224.61        33.93622
225.06        26.96221
225.52        18.02134
225.98        9.870481
226.44        4.106885
226.90       -1.125697
227.36        -2.59335
227.81         4.43714
228.27        15.41436
228.73         26.0409
229.19        32.69223
229.65        33.51897
230.10        29.50974
230.56        22.08599
231.02        12.67555
231.48        6.821184
231.93        8.266333
232.39        14.75293
232.85        21.83197
233.31        25.80514
233.77         26.9409
234.22        26.95718
234.68        26.22865
235.14        25.35643
235.60        24.97287
236.05        24.03158
236.51        22.95927
236.97        28.36604
237.43        40.32096
237.88         49.0651
238.34        51.13591
238.80        69.95929
239.26        61.94975
239.71        58.35212
240.17        48.05598
240.63        37.87518
241.08         33.4237
241.54        38.32029
242.00         51.6013
242.46        61.34997
242.91        64.66596
243.37        62.77983
243.83        57.75293
244.28        57.03996
244.74        63.96732
245.20        73.67866
245.66        81.14174
246.11        81.91889
246.57        75.88692
247.03        64.70757
247.48        50.81287
247.94        38.34148
248.40         27.4188
248.85        11.33577
249.31       -23.69128
249.77       -36.78278
250.22        18.69847
250.68        38.42528
251.14        44.40071
251.59        46.33932
252.05        47.24717
252.51        48.38979
252.96         48.8269
253.42        47.61827
253.88        45.02086
254.33        41.78172
254.79        43.64174
255.25        52.31725
255.70        62.47777
256.16        71.12455
256.62        75.85735
257.07        75.41608
257.53        72.20387
257.99        67.89725
258.44         63.8289
258.90        61.89577
259.35        61.28172
259.81        61.42613
260.27        61.57922
260.72        61.10903
261.18        60.36185
261.63        59.35551
262.09        58.27808
262.55        56.79669
263.00        54.91639
263.46         52.9641
263.91        51.12337
264.37        50.10427
264.83        49.81003
265.28          49.907
265.74        50.11674
266.19        49.85667
266.65        49.10796
267.11        48.00404
267.56         46.6801
268.02         45.4399
268.47        44.32553
268.93        43.28642
269.38        42.26843
269.84        41.26454
270.30        40.25702
270.75         39.2826
271.21        38.37133
271.66        37.48036
272.12        36.63467
272.57         35.8101
273.03        35.04475
273.48        34.34755
273.94        33.74138
274.39        33.19069
274.85        32.68231
275.31        32.12512
275.76        31.50371
276.22        30.88054
276.67        30.31165
277.13        29.96136
277.58        29.78979
278.04        29.75495
278.49        29.69766
278.95         29.4844
279.40        29.04624
279.86        28.48205
280.31        27.83231
280.77        27.24836
281.22        26.73679
281.68        26.32018
282.13        25.94232
282.59        25.60225
283.04        25.26913
283.50        24.97776
283.95        24.75644
284.41        24.67438
284.86        24.71908
285.32        24.87389
285.77        25.03671
286.22        25.08442
286.68        25.01606
287.13        24.83048
287.59        24.67144
288.04        24.64846
288.50        24.75999
288.95        25.07626
289.41        25.52132
289.86        25.50261
290.32        24.92699
290.77        25.73476
291.22        24.83974
291.68        24.95734
292.13        25.19405
292.59        25.60974
293.04         26.1685
293.50        26.88517
293.95        27.76519
294.40        28.78105
294.86         29.9133
295.31        31.11685
295.77        32.36736
296.22        33.64517
296.68        34.94393
297.13        36.25426
297.58        37.59141
298.04        38.96037
298.49        40.37924
298.95        41.89661
299.40        43.50389
299.85        45.20324
300.31        46.95206
300.76        48.65662
301.21        50.31225
301.67        51.96502
302.12        53.66624
302.58        55.60037
303.03        57.75797
303.48        60.12259
303.94        62.57747
304.39        64.88795
304.84        67.00489
305.30        68.99902
305.75        70.93526
306.20        73.02656
306.66        75.30785
307.11         77.6534
307.57        79.96439
308.02        82.01827
308.47        83.80254
308.93        85.42293
309.38        86.94717
309.83         88.5476
310.29        90.30821
310.74        92.10844
311.19        93.87766
311.65        95.47504
312.10        96.84648
312.55        98.04642
313.00        99.13988
313.46        100.2308
313.91        101.3327
314.36        102.4248
314.82        103.4772
315.27        104.4358
315.72        105.3017
316.18        106.0981
316.63        106.8602
317.08        107.6416
317.53        108.4447
317.99        109.2383
318.44        109.9756
318.89        110.5713
319.35         111.005
319.80        111.3156
320.25        111.5468
320.70         111.776
321.16        112.0239
321.61        112.2916
322.06        112.5706
322.51        112.8522
322.97        113.1176
323.42          113.42
323.87        113.7306
324.32        114.0171
324.78        114.2527
325.23        114.4773
325.68        114.7133
326.13        115.0362
326.59        115.4302
327.04        115.9321
327.49        116.4404
327.94        116.8241
328.39        117.0524
328.85        117.1273
329.30        117.2162
329.75        117.4549
330.20         117.888
330.66         118.431
331.11        119.0597
331.56        119.5764
332.01        119.9359
332.46        120.1934
332.92         120.373
333.37        120.6763
333.82        121.0991
334.27        121.6008
334.72        122.1652
335.17        122.7691
335.63        123.3581
336.08         124.006
336.53        124.6472
336.98        125.2229
337.43        125.7168
337.88        126.1322
338.34        126.4801
338.79        126.8587
339.24        127.2618
339.69         127.675
340.14         128.079
340.59         128.444
341.05         128.768
341.50        129.0801
341.95        129.4025
342.40        129.7693
342.85        130.1907
343.30        130.6562
343.75        131.1422
344.20         131.616
344.66        132.0716
345.11        132.4875
345.56        132.8787
346.01        133.2729
346.46        133.6765
346.91        134.0428
347.36        134.3169
347.81        134.5289
348.26        134.6936
348.72        134.4219
349.17        134.4981
349.62        134.4485
350.07        134.5178
350.52        134.6545
350.97        134.7956
351.42        134.8225
351.87        134.6934
352.32        134.4471
352.77        134.1308
353.22        133.8132
353.67        133.5162
354.13        133.2399
354.58        132.9219
355.03        132.5237
355.48        132.0425
355.93        131.4982
356.38        130.9591
356.83        130.5219
357.28        130.1889
357.73        129.9155
358.18        129.5956
358.63        129.0671
359.08        128.3003
359.53         127.356
359.98        126.3371
360.43        125.3964
360.88         124.575
361.33        123.8315
361.78        123.1159
362.23        122.3482
362.68        121.5099
363.13        120.6372
363.58        119.7571
364.03        118.9038
364.48        118.0851
364.93        117.2814
365.38        116.4826
365.83        115.6821
366.28        114.8724
366.73          114.05
367.18        113.2166
367.63        112.3736
368.08        111.5283
368.53        110.6995
368.98        109.8621
369.43        108.9635
369.88        107.9973
370.33        106.9712
370.78        105.9747
371.23        105.1807
371.68        104.6243
372.13        104.2406
372.58        103.9011
373.03        103.3876
373.48        102.6411
373.93        101.7427
374.38        100.7492
374.83        99.77106
375.28        98.87875
375.72          98.024
376.17        97.31714
376.62        96.83099
377.07         96.5386
377.52        96.39372
377.97        96.23978
378.42         95.8224
378.87         95.1006
379.32        94.17483
379.77         93.1833
380.22        92.32085
380.67        91.62534
381.11         91.0185
381.56        90.46323
382.01        89.99256
382.46        89.49494
382.91         89.0879
383.36        88.67692
383.81        88.15199
384.26        87.49963
384.71        86.74582
385.15        86.00202
385.60        85.51462
386.05        85.29465
386.50        85.26939
386.95        85.27686
387.40        85.06772
387.85        84.59641
388.29        83.90257
388.74        83.23605
389.19        82.72044
389.64        82.38039
390.09        82.14971
390.54        81.94363
390.98        81.61808
391.43        81.19429
391.88        80.71924
392.33        80.26851
392.78        79.93493
393.23        79.72848
393.67        79.58173
394.12        79.51766
394.57        79.34644
395.02        79.05848
395.47        78.77113
395.91        78.51138
396.36        78.21279
396.81        77.90781
397.26        77.66631
397.71        77.47211
398.15        77.22708
398.60        77.00544
399.05        76.76057
399.50        76.54285
399.95        76.41952
400.39        76.38051
400.84        76.38074
401.29        76.33407
401.74        75.92946
402.18        75.25986
402.63        74.82931
403.08         74.6462
403.53        74.30817
403.97        73.82227
404.42        73.46777
404.87        73.29118
405.32         73.2312
405.76        73.25963
406.21        73.46106
406.66        73.69752
407.11        73.57939
407.55        73.15058
408.00        72.86726
408.45        72.78726
408.90        72.44815
409.34         71.9507
409.79        71.90719
410.24         72.1929
410.68        72.19501
411.13        71.87198
411.58        71.51596
412.03        71.21637
412.47        71.04369
412.92        71.01559
413.37        71.10924
413.81        71.24972
414.26         71.3905
414.71        71.48421
415.15        71.55898
415.60        71.57288
416.05        71.52275
416.49        71.41198
416.94        71.22923
417.39        71.01382
417.83        70.81734
418.28        70.66232
418.73        70.55071
419.17        70.45075
419.62        70.31347
420.07        70.12737
420.51        69.89977
420.96        69.72491
421.41        69.65144
421.85        69.65016
422.30        69.85004
422.74        70.09937
423.19        70.02866
423.64        69.71069
424.08        69.81678
424.53        70.24033
424.98        70.36664
425.42        70.16935
425.87        69.92512
426.31        69.75107
426.76        69.79275
427.21        70.03587
427.65        70.18684
428.10        70.08216
428.54        70.16137
428.99         69.8237
429.44        69.40903
429.88        68.88952
430.33        68.81926
430.77        69.06587
431.22        69.30946
431.66        69.44714
432.11        69.45003
432.56        69.35252
433.00        69.31219
433.45        69.21239
433.89          69.171
434.34        69.20193
434.78        69.08973
435.23        68.10413
435.67        69.53298
436.12        69.52424
436.57        69.78523
437.01         69.3392
437.46        69.08762
437.90         69.8355
438.35        69.50375
438.79        69.83051
439.24         69.7228
439.68        69.64564
440.13        69.46352
440.57         69.2505
441.02         69.2996
441.46         69.5541
441.91        69.65939
442.35        69.57516
442.80        69.92686
443.24        70.53267
443.69        70.59599
444.13        70.13555
444.58        69.87309
445.02        69.72055
445.47        69.87331
445.91        70.15318
446.36        70.22277
446.80        70.03976
447.24        69.78065
447.69        69.56676
448.13        69.65877
448.58        69.83641
449.02        69.95214
449.47        69.91083
449.91        69.88151
450.36        69.86893
450.80         69.6863
451.25        69.41272
451.69        69.28448
452.13        69.29348
452.58        69.17205
453.02        68.92485
453.47        68.78791
453.91        68.75085
454.36        68.69281
454.80         68.5951
455.24        68.49236
455.69        68.39433
456.13         68.2812
456.58        68.16881
457.02        68.07734
457.46        67.66719
457.91        67.72675
458.35        67.76376
458.79        67.75274
459.24         67.5934
459.68        67.45753
460.13        67.39952
460.57        67.21807
461.01        66.91849
461.46        66.98505
461.90        66.71133
462.34        66.51361
462.79        66.04102
463.23        66.16128
463.68        66.80049
464.12        66.65508
464.56        65.91177
465.01        65.93336
465.45        66.50456
465.89        66.51244
466.34        66.02269
466.78        65.69099
467.22        65.59542
467.67        65.67207
468.11        65.49285
468.55        65.50584
468.99        65.53043
469.44        65.47616
469.88         65.3232
470.32        65.07824
470.77        64.80324
471.21         64.6021
471.65        64.49897
472.10        64.46837
472.54        64.46029
472.98        64.40204
473.42        64.27903
473.87        64.17722
474.31        64.08902
474.75        63.99651
475.20        63.93606
475.64        64.06376
476.08        64.31767
476.52        64.40273
476.97          64.237
477.41         64.2059
477.85        64.35973
478.29        63.84885
478.74        63.29505
479.18        64.03008
479.62        63.74001
480.06        63.92651
480.50        63.86652
480.95        63.84089
481.39        63.80603
481.83        63.83107
482.27        64.31324
482.72        63.86491
483.16        64.14644
483.60        64.46337
484.04        64.44627
484.48         64.1038
484.93        63.87951
485.37        63.89981
485.81        63.73438
486.25        63.53969
486.69        65.26868
487.14        65.75324
487.58        64.42447
488.02        63.96875
488.46        63.89926
488.90        63.32591
489.34        63.43327
489.79        62.75436
490.23        63.41043
490.67        63.57858
491.11        63.69249
491.55        63.49267
491.99        63.08886
492.43        62.91373
492.88        62.99654
493.32        63.13532
493.76         63.2025
494.20        63.23529
494.64        63.23958
495.08        62.81206
495.52        62.58389
495.96        62.70049
496.41        63.16979
496.85        63.14076
497.29        62.63336
497.73        62.58886
498.17        62.67517
498.61         62.8051
499.05        62.79057
499.49        62.55826
499.93        62.23171
500.37        62.19931
500.82        62.44579
501.26        62.69722
501.70        62.84439
502.14        62.59224
502.58        62.53674
503.02        62.10388
503.46        62.28514
503.90        62.21942
504.34        62.13342
504.78         62.1024
505.22        62.13609
505.66        62.13599
506.10         62.0933
506.54        62.20406
506.98        62.44145
507.42        62.21548
507.86        62.21187
508.30        62.13383
508.74        62.06025
509.18        61.96946
509.62        61.83847
510.06        61.77084
510.50         61.7506
510.94        61.69308
511.38        61.60113
511.82        61.54078
512.26         61.5111
512.70        61.47061
513.14        61.42191
513.58        61.38853
514.02        61.37186
514.46        61.36632
514.90        61.35213
515.34        61.33567
515.78        61.31943
516.22        61.27469
516.66         61.0677
517.10        61.31902
517.54        61.15428
517.98        61.24811
518.42        61.31527
518.86        61.33766
519.30         61.3046
519.74        61.19401
520.18        61.06758
520.62        61.09501
521.06        61.24529
521.50        61.27572
521.93        61.17569
522.37        61.12358
522.81        61.12288
523.25        61.06382
523.69        60.95997
524.13        60.88823
524.57        60.85785
525.01        60.84705
525.45        60.85255
525.89        60.86917
526.32        60.88891
526.76        60.91829
527.20         60.9477
527.64        60.96257
528.08        60.96009
528.52        60.94766
528.96        60.92995
529.40        60.90815
529.83        60.88363
530.27         60.8834
530.71        60.89891
531.15        60.91646
531.59        60.93533
532.03         60.9511
532.46        60.94941
532.90        60.95407
533.34        60.96725
533.78        60.85834
534.22        60.86838
534.66        60.79425
535.09        60.70402
535.53         60.6201
535.97        60.54996
536.41        60.51545
536.85        60.51828
537.28        60.55196
537.72         60.6026
538.16        60.64802
538.60        60.67766
539.04        60.69759
539.47        60.69006
539.91        60.68018
540.35        60.65627
540.79        60.61986
541.22        60.58142
541.66        60.57156
542.10        60.59112
542.54        60.63198
542.97        60.67123
543.41        60.70296
543.85        60.71251
544.29        60.71137
544.72        60.69148
545.16        60.66814
545.60        60.63039
546.04        60.58487
546.47        60.55121
546.91        60.52003
547.35        60.50107
547.79        60.60565
548.22        60.74898
548.66         60.6715
549.10        60.42851
549.53        60.35096
549.97        60.45025
550.41        60.45174
550.84        60.32946
551.28        60.30502
551.72        60.41931
552.15        60.39933
552.59        60.19939
553.03        60.73834
553.46        60.65134
553.90        60.39344
554.34        60.49783
554.77        60.33295
555.21         60.2608
555.65        59.97908
556.08        60.19253
556.52        60.29759
556.96        60.42501
557.39        60.54149
557.83        60.61202
558.27         60.5114
558.70        60.28795
559.14        60.16067
559.57        60.14302
560.01        60.18184
560.45        60.21638
560.88        60.16539
561.32        60.07991
561.75        59.96709
562.19        59.90467
562.63        60.00774
563.06        60.21165
563.50        60.22131
563.93        60.04055
564.37        59.99238
564.80        60.05989
565.24        60.09423
565.68        60.09047
566.11        60.10955
566.55        60.16719
566.98        60.26125
567.42        60.38258
567.85        60.37186
568.29        60.28302
568.72          60.318
569.16        60.53175
569.60         60.5598
570.03        60.50818
570.47        60.90504
570.90         60.8406
571.34        60.96046
571.77        61.11121
572.21        61.23241
572.64        61.28972
573.08        60.86963
573.51        61.10525
573.95        61.48636
574.38        61.39883
574.82        61.81026
