SpectraSmart Spectrum 2.9.0.0
--------- Device Information -----------
Spectrum Name :  反射率_0
Saving Time :  2024/04/21 00:39:22
Spectro-Module Model Name : SE2030-DUVN
Spectro-Module Serial Number : OS361AC55029948
Wavelength Start : 200
Wavelength End : 1025
Wavelength Unit : Wavelength(nm)
Spectrum Unit : Reflectance(%)
-----------Spectrum Setting ------------
Integration Time : 20ms
Average : 10
Boxcar : 0
Background removal :  enabled
linearity correction :  enabled
SC :  disabled
Intensity correction :  disabled
DWT denoise :  enabled
savitzky-golay :  disabled
FFT :  disabled
Running average :  disabled
Kalman :  disabled
High pass :  disabled
---------------BEGIN--------------------
Wavelength(nm)             Reflectance(%)
200.29               0
200.75       -17.58507
201.21        9.657023
201.67        20.74308
202.13        22.06627
202.58        17.22157
203.04        7.584493
203.50       -5.079407
203.96       -14.17582
204.42       -16.15705
204.88       -13.76742
205.34       -10.16457
205.80       -10.51537
206.26       -16.34869
206.72       -24.08248
207.18       -35.61229
207.64       -54.39472
208.10       -76.66708
208.55       -101.0083
209.01       -103.3775
209.47       -63.14595
209.93        -16.1016
210.39        19.07496
210.85        40.17939
211.31        47.91038
211.77        45.52483
212.23        33.40002
212.69         5.21606
213.14       -48.14808
213.60       -143.6899
214.06       -409.4661
214.52       -982.5206
214.98       -429.0925
215.44       -117.9618
215.90       -16.86122
216.36        15.79071
216.81        18.66971
217.27       -2.847922
217.73       -115.5005
218.19        1248.594
218.65        525.4046
219.11       -1193.875
219.57       -64.27248
220.02        8.099917
220.48        22.12473
220.94         18.1117
221.40       -2.849057
221.86       -54.60974
222.32       -87.49232
222.77       -39.58704
223.23       0.9109458
223.69        21.46382
224.15        29.40433
224.61        31.08946
225.06        30.29291
225.52        27.13623
225.98        20.83455
226.44        11.87597
226.90      -0.4823058
227.36       -10.65349
227.81       -7.739339
228.27        4.520756
228.73        18.33835
229.19         27.8958
229.65        30.42345
230.10        27.21932
230.56        20.38122
231.02        11.13803
231.48        4.408303
231.93        4.104503
232.39        8.453879
232.85         13.9679
233.31        17.61868
233.77        19.49202
234.22        21.10138
234.68        22.20046
235.14        22.09183
235.60        20.95159
236.05        18.02752
236.51        14.19997
236.97        17.86133
237.43         29.9212
237.88        38.70746
238.34        39.85149
238.80         62.5981
239.26        52.99659
239.71        50.02558
240.17        39.75881
240.63        28.77122
241.08        21.97905
241.54        22.96226
242.00        31.74384
242.46        35.99788
242.91        31.96908
243.37        20.57543
243.83        4.586131
244.28       -3.875061
244.74        2.241505
245.20        15.49432
245.66        27.06306
246.11         28.6873
246.57        19.44767
247.03        2.331921
247.48       -20.57709
247.94       -46.48485
248.40       -80.16494
248.85       -153.0838
249.31       -363.3505
249.77       -512.9971
250.22       -185.7123
250.68       -54.02871
251.14       -11.36461
251.59        3.362263
252.05        8.500098
252.51         9.81778
252.96        7.733567
253.42        4.821752
253.88        4.373691
254.33        6.854822
254.79        15.12944
255.25        28.69702
255.70        42.37736
256.16        53.38741
256.62        60.93271
257.07        64.88039
257.53        66.73826
257.99         67.2957
258.44        66.75198
258.90        65.96937
259.35        64.62493
259.81        63.20422
260.27        61.70438
260.72        60.24366
261.18        59.21251
261.63        58.27739
262.09        57.47722
262.55        56.37872
263.00        54.92185
263.46        53.44496
263.91        52.03661
264.37        51.26374
264.83        51.01971
265.28        51.02066
265.74        51.07103
266.19        50.69802
266.65        49.90469
267.11        48.78621
267.56        47.44633
268.02        46.14465
268.47        44.91028
268.93        43.71365
269.38        42.51822
269.84        41.33683
270.30        40.16571
270.75        39.04985
271.21        38.01182
271.66        36.99546
272.12        36.03186
272.57        35.10497
273.03        34.29103
273.48        33.65627
273.94        33.21367
274.39        32.88566
274.85        32.58835
275.31        32.12991
275.76        31.47325
276.22        30.72004
276.67         29.9635
277.13        29.42047
277.58        29.08028
278.04        28.89711
278.49        28.73165
278.95        28.47473
279.40        28.05588
279.86        27.55923
280.31         27.0056
280.77        26.51105
281.22        26.07048
281.68        25.71393
282.13        25.37499
282.59        25.03921
283.04        24.68077
283.50        24.33768
283.95        24.07361
284.41        24.01101
284.86        24.14286
285.32        24.43262
285.77        24.73584
286.22        24.86469
286.68        24.80941
287.13        24.59572
287.59         24.4018
288.04        24.38975
288.50        24.57065
288.95         24.9936
289.41         25.5688
289.86        25.68645
290.32        25.24495
290.77         26.1802
291.22        25.41409
291.68        25.62994
292.13        25.94542
292.59        26.43572
293.04        27.08035
293.50        27.91963
293.95        28.96546
294.40        30.17475
294.86        31.54259
295.31        33.04449
295.77        34.64485
296.22         36.3106
296.68        37.96513
297.13        39.49172
297.58        40.89434
298.04        42.21303
298.49        43.55648
298.95        45.12312
299.40        46.93038
299.85         48.9203
300.31        50.97039
300.76        52.86121
301.21        54.55354
301.67        56.13984
302.12        57.69396
302.58        59.43785
303.03        61.38557
303.48        63.52027
303.94        65.75729
304.39        67.91094
304.84        69.94053
305.30        71.90196
305.75        73.83041
306.20        75.89345
306.66         78.1074
307.11        80.35106
307.57        82.52093
308.02        84.38404
308.47        85.93475
308.93        87.28723
309.38        88.52715
309.83        89.86214
310.29        91.38407
310.74        92.96754
311.19        94.54774
311.65        95.99111
312.10        97.23572
312.55        98.32975
313.00        99.30325
313.46        100.2049
313.91        101.0404
314.36        101.8095
314.82        102.5216
315.27        103.1838
315.72        103.8175
316.18        104.4348
316.63        105.0568
317.08        105.7121
317.53        106.3942
317.99        107.0787
318.44        107.7282
318.89        108.2697
319.35        108.6817
319.80        108.9937
320.25        109.2228
320.70        109.4091
321.16        109.5639
321.61        109.6945
322.06        109.8269
322.51        110.0087
322.97         110.234
323.42        110.5419
323.87        110.8603
324.32        111.0815
324.78        111.1661
325.23        111.1808
325.68        111.2059
326.13        111.4088
326.59        111.7966
327.04        112.3714
327.49        112.9867
327.94        113.4339
328.39         113.655
328.85        113.6793
329.30        113.6806
329.75        113.8107
330.20        114.1286
330.66        114.5424
331.11         115.059
331.56        115.5432
332.01        115.9545
332.46        116.3255
332.92         116.626
333.37        116.9531
333.82        117.2791
334.27        117.6077
334.72        117.9465
335.17        118.3161
335.63        118.6914
336.08        119.1213
336.53        119.6151
336.98        120.2363
337.43        120.9734
337.88        121.7938
338.34        122.5322
338.79        122.9841
339.24        123.0846
339.69        122.9195
340.14        122.6728
340.59        122.6422
341.05        122.9099
341.50        123.3975
341.95        124.0109
342.40        124.5888
342.85        125.0672
343.30        125.5025
343.75        125.8719
344.20        126.1402
344.66        126.3234
345.11        126.3937
345.56        126.4485
346.01        126.6555
346.46        127.0449
346.91        127.5436
347.36        128.0027
347.81        128.2776
348.26        128.3434
348.72        127.9367
349.17        127.7793
349.62        127.6288
350.07          127.72
350.52        127.9654
350.97        128.2424
351.42        128.3436
351.87        128.1995
352.32        127.8689
352.77        127.4514
353.22        127.0939
353.67        126.8318
354.13        126.6419
354.58        126.3898
355.03        125.9242
355.48         125.229
355.93        124.3694
356.38        123.5193
356.83        122.9329
357.28        122.6421
357.73        122.5509
358.18        122.4546
358.63        122.0277
359.08        121.2016
359.53        120.0981
359.98        118.8926
360.43        117.8502
360.88        117.0428
361.33        116.3804
361.78        115.7934
362.23        115.1753
362.68        114.4843
363.13         113.765
363.58        113.0007
364.03        112.1534
364.48        111.2255
364.93        110.2206
365.38        109.2007
365.83        108.2793
366.28        107.4815
366.73        106.7737
367.18        106.1024
367.63        105.3776
368.08        104.5752
368.53        103.7338
368.98        102.8596
369.43        101.9491
369.88        101.0073
370.33         100.028
370.78        99.06343
371.23        98.22594
371.68        97.55008
372.13         97.0097
372.58        96.54222
373.03        96.02838
373.48        95.42599
373.93        94.76727
374.38         94.0674
374.83        93.36639
375.28        92.69319
375.72        92.01643
376.17        91.39845
376.62        90.85244
377.07        90.36102
377.52        89.90279
377.97        89.42944
378.42         88.8742
378.87        88.23907
379.32        87.56518
379.77        86.88654
380.22        86.23471
380.67         85.6095
381.11        84.99781
381.56        84.40742
382.01        83.87916
382.46        83.43041
382.91        83.06368
383.36        82.72136
383.81        82.30942
384.26        81.80453
384.71        81.22048
385.15        80.62321
385.60        80.18508
386.05        79.90405
386.50        79.73431
386.95        79.55144
387.40        79.16904
387.85        78.57405
388.29         77.8077
388.74         77.1135
389.19          76.615
389.64        76.33424
390.09        76.20843
390.54        76.14605
390.98        75.98495
391.43        75.71989
391.88        75.38821
392.33        75.05692
392.78         74.7762
393.23        74.55406
393.67        74.44466
394.12         74.4516
394.57        74.13979
395.02        73.61195
395.47        73.51688
395.91        73.79264
396.36        73.72836
396.81        73.31198
397.26        72.98122
397.71         72.7329
398.15         72.3817
398.60        72.02167
399.05        71.54234
399.50        71.11057
399.95        71.12176
400.39        71.48075
400.84        71.76105
401.29        71.78417
401.74        71.25314
402.18        70.36481
402.63        69.97835
403.08        70.09874
403.53        69.91916
403.97        69.43195
404.42        69.20524
404.87        69.22988
405.32        69.22333
405.76          69.153
406.21         69.1187
406.66        69.07652
407.11        68.94986
407.55        68.75202
408.00        68.48059
408.45        68.21003
408.90        67.99377
409.34        67.86895
409.79        67.91888
410.24        68.05358
410.68        68.06186
411.13        67.91415
411.58        67.69843
412.03        67.46725
412.47         67.3111
412.92        67.23924
413.37         67.2338
413.81        67.25714
414.26        67.30807
414.71        67.35421
415.15        67.41797
415.60        67.44647
416.05        67.40691
416.49        67.29679
416.94        67.11678
417.39        66.91505
417.83        66.76028
418.28        66.66949
418.73        66.61922
419.17         66.5752
419.62         66.4884
420.07        66.35152
420.51        66.18826
420.96        66.04003
421.41        65.92527
421.85        65.82642
422.30         65.7516
422.74        65.70178
423.19        65.81583
423.64        66.06787
424.08        66.39455
424.53        66.62707
424.98        66.73034
425.42        66.69896
425.87        66.32325
426.31        65.82677
426.76        65.97795
427.21        66.64352
427.65        66.77127
428.10        66.33743
428.54         66.1738
428.99        66.30338
429.44        66.39606
429.88        66.37093
430.33        65.98821
430.77        65.41662
431.22        65.62028
431.66        66.40482
432.11        66.60742
432.56        66.27084
433.00         66.1344
433.45        66.03095
433.89        66.13461
434.34        66.67796
434.78        64.76253
435.23        65.56092
435.67        66.14288
436.12         66.8524
436.57         67.0051
437.01        66.46815
437.46        66.15213
437.90        66.76304
438.35         66.8188
438.79         66.8055
439.24        66.75832
439.68        66.79321
440.13        66.74919
440.57        66.66788
441.02        66.86599
441.46        67.22416
441.91        67.24305
442.35         66.9696
442.80        67.13334
443.24        67.63805
443.69        67.94804
444.13        67.95596
444.58        67.82948
445.02        67.62926
445.47        67.61745
445.91        67.75491
446.36        67.75273
446.80        67.59965
447.24        67.43152
447.69        67.32387
448.13        67.49773
448.58        67.71068
449.02        67.78305
449.47        67.64716
449.91        67.56575
450.36        67.56046
450.80         67.3781
451.25          67.113
451.69        67.08462
452.13        67.25946
452.58        67.26556
453.02        67.08044
453.47        66.96965
453.91        66.92667
454.36        66.81322
454.80        66.63306
455.24        66.49324
455.69        66.42746
456.13        66.29429
456.58        66.17833
457.02        66.20287
457.46        66.56425
457.91        66.34688
458.35        65.84662
458.79         65.5766
459.24        65.62342
459.68        65.62609
460.13        65.57046
460.57        65.47238
461.01        65.35431
461.46        65.17075
461.90        65.04568
462.34        64.84177
462.79        65.20318
463.23        64.86366
463.68        65.50008
464.12        65.18626
464.56        64.56934
465.01        64.66526
465.45        65.23027
465.89        65.19384
466.34        64.60896
466.78        64.18047
467.22        64.05145
467.67        63.97255
468.11        64.14179
468.55         64.1058
468.99        63.92096
469.44         63.8376
469.88        63.85029
470.32        63.74559
470.77        63.54647
471.21        63.41454
471.65        63.36977
472.10        63.37594
472.54        63.37515
472.98         63.3312
473.42        63.24558
473.87        63.06215
474.31        62.83424
474.75        62.95517
475.20        63.30851
475.64        63.29121
476.08        62.96931
476.52        62.84031
476.97        62.88561
477.41        63.05137
477.85        63.27578
478.29        62.68822
478.74        62.45733
479.18        62.34745
479.62        62.69521
480.06        62.74455
480.50        62.80205
480.95        62.70833
481.39        62.41317
481.83        63.12777
482.27        63.20318
482.72        62.52159
483.16        62.92802
483.60        63.15658
484.04        63.06279
484.48        62.77979
484.93        62.87051
485.37        62.49512
485.81        62.93387
486.25        62.45841
486.69        63.68409
487.14        63.41356
487.58         63.1817
488.02        62.64207
488.46         62.6302
488.90        62.29845
489.34        62.09404
489.79        61.92159
490.23        62.80698
490.67        63.08902
491.11        63.00753
491.55        62.76086
491.99        62.46884
492.43        62.27731
492.88        62.21862
493.32        62.22348
493.76        62.21975
494.20        62.22977
494.64        62.25452
495.08        62.00778
495.52        62.03837
495.96        62.01582
496.41        62.06404
496.85        62.13055
497.29        62.13102
497.73        62.17459
498.17        61.93439
498.61        61.86597
499.05        61.86191
499.49        61.67585
499.93        61.42223
500.37        61.48397
500.82        61.79266
501.26        62.10012
501.70        62.28795
502.14        61.90219
502.58        61.56718
503.02        61.35479
503.46        61.40855
503.90        61.50964
504.34        61.56987
504.78        61.58268
505.22        61.52135
505.66        61.39668
506.10        61.26679
506.54        61.23734
506.98        61.32335
507.42        61.45618
507.86         61.6202
508.30         61.7835
508.74        61.79803
509.18        61.77668
509.62        61.69634
510.06        61.62324
510.50        61.55607
510.94        61.41817
511.38         61.2323
511.82        61.09859
512.26        61.02745
512.70        60.96882
513.14        60.93316
513.58        60.95213
514.02        61.02054
514.46        61.12984
514.90        61.21866
515.34        61.22565
515.78        61.14437
516.22        60.96808
516.66        60.62018
517.10        60.82081
517.54        60.70613
517.98        60.92591
518.42        61.15004
518.86        61.29043
519.30        61.31137
519.74        61.21397
520.18        61.06367
520.62        61.03614
521.06        61.11007
521.50        61.03944
521.93        60.84468
522.37        60.75537
522.81        60.78429
523.25        60.81067
523.69        60.80766
524.13        60.78512
524.57        60.73734
525.01        60.66225
525.45        60.59169
525.89        60.57725
526.32        60.62623
526.76        60.72691
527.20        60.84148
527.64         60.9126
528.08        60.92378
528.52         60.8923
528.96        60.84602
529.40        60.82094
529.83        60.82516
530.27        60.87597
530.71        60.93318
531.15        60.93257
531.59         60.8646
532.03        60.75473
532.46        60.64115
532.90        60.59605
533.34        60.62847
533.78        60.71719
534.22         60.8114
534.66        60.83344
535.09        60.76016
535.53        60.63804
535.97        60.50568
536.41        60.44003
536.85        60.45926
537.28        60.53726
537.72         60.6358
538.16         60.6952
538.60        60.69601
539.04        60.65832
539.47        60.59045
539.91         60.5545
540.35        60.54572
540.79        60.55274
541.22        60.55772
541.66        60.54901
542.10        60.51731
542.54        60.46623
542.97        60.40726
543.41        60.38846
543.85        60.41207
544.29        60.47713
544.72         60.5363
545.16        60.57089
545.60        60.56643
546.04        60.46147
546.47        60.33241
546.91        60.46475
547.35        60.78859
547.79        60.91043
548.22        60.79557
548.66        60.71692
549.10        60.70066
549.53        60.64518
549.97        60.56974
550.41        60.50396
550.84        60.46479
551.28        60.44663
551.72        60.44873
552.15        60.49119
552.59        60.59305
553.03        60.44211
553.46        60.77406
553.90        60.48317
554.34        60.61935
554.77        60.49411
555.21        60.42911
555.65        60.45171
556.08        60.55364
556.52        60.85001
556.96        61.01638
557.39        61.08746
557.83        60.98692
558.27        60.74966
558.70        60.47279
559.14        60.31498
559.57        60.30462
560.01        60.46675
560.45        60.67268
560.88         60.6548
561.32         60.4738
561.75        60.26382
562.19        60.14428
562.63        60.26568
563.06        60.53083
563.50        60.52314
563.93        60.24599
564.37        60.09302
564.80        60.08625
565.24        60.13925
565.68        60.22118
566.11        60.28969
566.55        60.35688
566.98        60.42769
567.42        60.50486
567.85        60.60515
568.29        60.73613
568.72        60.66428
569.16        60.45243
569.60        60.62842
570.03        60.54646
570.47         60.6784
570.90        60.77108
571.34          60.815
571.77        60.89307
572.21        60.84529
572.64        60.76917
573.08        60.52756
573.51        61.01587
573.95        61.35918
574.38        61.07112
574.82        61.74388
