SpectraSmart Spectrum 2.9.0.0
--------- Device Information -----------
Spectrum Name :  反射率_0
Saving Time :  2024/04/21 00:37:54
Spectro-Module Model Name : SE2030-DUVN
Spectro-Module Serial Number : OS361AC55029948
Wavelength Start : 200
Wavelength End : 1025
Wavelength Unit : Wavelength(nm)
Spectrum Unit : Reflectance(%)
-----------Spectrum Setting ------------
Integration Time : 20ms
Average : 10
Boxcar : 0
Background removal :  enabled
linearity correction :  enabled
SC :  disabled
Intensity correction :  disabled
DWT denoise :  enabled
savitzky-golay :  disabled
FFT :  disabled
Running average :  disabled
Kalman :  disabled
High pass :  disabled
---------------BEGIN--------------------
Wavelength(nm)             Reflectance(%)
200.29               0
200.75       -27.75973
201.21         9.99615
201.67        28.47514
202.13        32.77893
202.58        28.00189
203.04        17.19101
203.50        1.992079
203.96       -11.03804
204.42       -17.27742
204.88        -19.0343
205.34       -18.30297
205.80       -18.72793
206.26       -21.06194
206.72       -20.84988
207.18       -19.67162
207.64       -22.72229
208.10        -29.9271
208.55       -41.80291
209.01       -41.34539
209.47       -12.49363
209.93        20.58486
210.39        45.20866
210.85        59.44112
211.31        63.19683
211.77        58.32352
212.23        43.84389
212.69        14.25377
213.14       -34.20814
213.60       -106.4212
214.06       -277.7707
214.52       -587.1774
214.98       -220.7252
215.44       -45.49219
215.90        8.769592
216.36        24.40539
216.81        21.27121
217.27       -1.432116
217.73       -109.4083
218.19        1171.691
218.65        479.4258
219.11       -1016.358
219.57       -37.77972
220.02        24.22977
220.48        36.01535
220.94        32.10655
221.40        12.45013
221.86       -35.51741
222.32       -63.98764
222.77        -17.6716
223.23        20.94241
223.69        39.78312
224.15        45.47872
224.61        44.18556
225.06        39.44284
225.52         32.5649
225.98         25.1944
226.44        18.56141
226.90        11.35346
227.36        7.042909
227.81        11.59704
228.27        21.38259
228.73        31.55472
229.19        38.31303
229.65        39.80017
230.10        36.97371
230.56        31.35451
231.02        23.86742
231.48        18.37558
231.93        17.95647
232.39        21.34863
232.85        25.61334
233.31        28.08462
233.77        28.82834
234.22        29.16881
234.68        28.98521
235.14        27.96114
235.60        26.41483
236.05        23.56982
236.51        20.20813
236.97        24.01845
237.43        35.64616
237.88        44.33983
238.34        46.03467
238.80        66.52761
239.26        57.30825
239.71        53.22856
240.17        41.59423
240.63        28.97266
241.08        20.76253
241.54         21.0612
242.00        30.63987
242.46        37.55343
242.91        38.65136
243.37        35.75318
243.83        31.40369
244.28        33.29877
244.74        43.73822
245.20        56.38554
245.66        64.76703
246.11        63.22784
246.57        51.59724
247.03        31.86782
247.48        6.655912
247.94       -20.35654
248.40        -53.4114
248.85        -120.681
249.31       -312.4226
249.77       -462.8501
250.22       -171.0919
250.68       -48.29928
251.14       -7.283169
251.59         7.37895
252.05        13.14483
252.51        15.41413
252.96        15.50794
253.42         17.4097
253.88        22.63041
254.33        28.89638
254.79        36.47244
255.25        44.22881
255.70        50.47845
256.16          55.124
256.62        58.07037
257.07        59.38151
257.53         59.9537
257.99        59.95192
258.44        59.38436
258.90        58.91174
259.35        58.11443
259.81        57.38847
260.27        56.54782
260.72        55.50055
261.18        54.63865
261.63         53.7489
262.09        53.00988
262.55        52.18367
263.00        51.18595
263.46        50.23785
263.91        49.30205
264.37        48.75346
264.83        48.48385
265.28        48.31244
265.74        48.13945
266.19        47.62408
266.65        46.79318
267.11        45.70559
267.56        44.44629
268.02        43.23847
268.47        42.11059
268.93        41.06559
269.38        40.06034
269.84        39.09011
270.30        38.14299
270.75        37.23535
271.21        36.43594
271.66        35.76834
272.12        35.25009
272.57         34.8297
273.03        34.43258
273.48        33.91096
273.94        33.26469
274.39        32.50049
274.85         31.7441
275.31        31.11548
275.76        30.63085
276.22        30.28303
276.67        29.96984
277.13         29.6274
277.58        29.19934
278.04        28.74628
278.49        28.28205
278.95        27.90625
279.40        27.58713
279.86         27.3314
280.31        27.04484
280.77         26.6828
281.22         26.2106
281.68        25.71434
282.13        25.22844
282.59        24.88199
283.04        24.66286
283.50        24.54362
283.95        24.48185
284.41        24.44535
284.86        24.40771
285.32        24.40968
285.77         24.3945
286.22        24.29647
286.68         24.1402
287.13        23.90843
287.59        23.76526
288.04        23.85291
288.50        24.15762
288.95         24.7296
289.41        25.43158
289.86        25.58008
290.32        25.06648
290.77        25.85629
291.22        24.90548
291.68        24.98745
292.13         25.2277
292.59        25.66078
293.04        26.25474
293.50        27.03023
293.95        27.98695
294.40        29.10496
294.86        30.32128
295.31        31.51697
295.77        32.66397
296.22        33.77094
296.68        34.91281
297.13        36.20522
297.58        37.68891
298.04        39.33046
298.49        41.06776
298.95        42.82098
299.40         44.5412
299.85        46.25734
300.31        47.98219
300.76        49.71075
301.21        51.45245
301.67         53.2161
302.12        54.99244
302.58        56.88056
303.03        58.86269
303.48        60.97027
303.94        63.14973
304.39        65.25743
304.84        67.27112
305.30        69.23031
305.75         71.1728
306.20        73.27342
306.66        75.54093
307.11         77.8457
307.57        80.07616
308.02        81.98946
308.47        83.57188
308.93        84.94386
309.38         86.1681
309.83        87.41054
310.29        88.77676
310.74        90.15875
311.19        91.55791
311.65        92.93848
312.10        94.26122
312.55        95.54652
313.00        96.76656
313.46        97.87405
313.91        98.84208
314.36        99.68758
314.82        100.4501
315.27        101.1886
315.72        101.9354
316.18        102.6822
316.63        103.4141
317.08        104.1082
317.53        104.7483
317.99        105.3287
318.44        105.8611
318.89        106.3473
319.35        106.7848
319.80        107.1865
320.25         107.517
320.70        107.7286
321.16        107.8164
321.61        107.8192
322.06        107.8252
322.51        107.9826
322.97        108.3065
323.42        108.7953
323.87        109.3227
324.32         109.691
324.78          109.83
325.23        109.8367
325.68        109.8037
326.13        109.9199
326.59        110.2094
327.04        110.6619
327.49        111.1704
327.94        111.5944
328.39        111.8859
328.85        112.0605
329.30        112.2197
329.75        112.3893
330.20        112.5969
330.66        112.7871
331.11        113.0377
331.56        113.3407
332.01        113.6951
332.46        114.0957
332.92        114.4721
333.37        114.8485
333.82        115.1676
334.27        115.4557
334.72         115.724
335.17        115.9948
335.63        116.2561
336.08         116.563
336.53        116.9417
336.98        117.4869
337.43        118.1995
337.88        119.0363
338.34        119.8537
338.79        120.4749
339.24         120.823
339.69        120.9653
340.14        121.0014
340.59        121.0993
341.05        121.3236
341.50        121.6398
341.95        122.0492
342.40        122.5542
342.85        123.1305
343.30        123.7714
343.75         124.398
344.20        124.8844
344.66        125.2047
345.11        125.3616
345.56        125.4185
346.01        125.4865
346.46        125.6132
346.91        125.7631
347.36        125.8906
347.81        126.0052
348.26        126.1133
348.72         125.924
349.17        126.0459
349.62        126.1605
350.07        126.4398
350.52        126.8171
350.97         127.151
351.42        127.2058
351.87        126.9259
352.32        126.3947
352.77        125.7594
353.22        125.2464
353.67        124.9155
354.13        124.7166
354.58        124.5396
355.03         124.261
355.48        123.8453
355.93         123.345
356.38        122.8109
356.83        122.3108
357.28        121.8524
357.73         121.392
358.18         120.894
358.63        120.3158
359.08        119.6507
359.53        118.9285
359.98        118.1558
360.43         117.332
360.88        116.4654
361.33        115.5569
361.78        114.6524
362.23        113.8274
362.68         113.096
363.13        112.4411
363.58        111.7918
364.03        111.0308
364.48        110.1318
364.93        109.1292
365.38        108.1016
365.83        107.1792
366.28        106.3964
366.73        105.7124
367.18        105.0639
367.63        104.3521
368.08        103.5504
368.53        102.6945
368.98        101.8187
369.43        100.9614
369.88        100.1312
370.33          99.313
370.78        98.49209
371.23         97.6672
371.68        96.85034
372.13        96.04787
372.58        95.30332
373.03        94.66338
373.48        94.12151
373.93        93.66476
374.38        93.19777
374.83         92.5759
375.28        91.78786
375.72        90.86852
376.17        89.98798
376.62        89.31907
377.07        88.87446
377.52         88.5704
377.97        88.28341
378.42        87.82236
378.87        87.15401
379.32        86.37591
379.77        85.55522
380.22        84.76427
380.67         84.0256
381.11        83.31085
381.56        82.66657
382.01        82.20126
382.46        81.93256
382.91        81.83389
383.36         81.7722
383.81        81.53508
384.26        81.07449
384.71        80.44324
385.15        79.75243
385.60        79.24966
386.05         78.9597
386.50        78.80923
386.95        78.68085
387.40        78.40009
387.85        77.93693
388.29        77.31759
388.74        76.73388
389.19         76.2428
389.64        75.85378
390.09        75.51797
390.54        75.19345
390.98        74.80888
391.43        74.40714
391.88         74.0183
392.33        73.66286
392.78        73.39217
393.23        73.21069
393.67        72.96358
394.12         72.7507
394.57         72.7421
395.02        72.82707
395.47        72.54718
395.91        71.94645
396.36         71.4796
396.81        71.21268
397.26        70.93019
397.71        70.60933
398.15        70.31352
398.60        70.11736
399.05        69.83345
399.50        69.56909
399.95        69.68551
400.39        70.06519
400.84        70.17329
401.29        69.93104
401.74        69.42281
402.18        68.81867
402.63        68.56232
403.08        68.61994
403.53        68.43653
403.97        67.99483
404.42        67.69803
404.87        67.58667
405.32        67.51788
405.76         67.4647
406.21        67.54214
406.66        67.65257
407.11        67.44489
407.55        66.97823
408.00        66.75732
408.45        66.79606
408.90        66.45583
409.34        65.86187
409.79         65.8397
410.24         66.2741
410.68        66.40282
411.13         66.1775
411.58        65.98237
412.03        65.85632
412.47         65.7248
412.92        65.58692
413.37        65.47038
413.81        65.37621
414.26        65.36156
414.71        65.40815
415.15        65.51567
415.60         65.6098
416.05        65.62169
416.49        65.53329
416.94        65.35468
417.39        65.14283
417.83        64.98013
418.28        64.88959
418.73        64.84494
419.17        64.80918
419.62        64.73177
420.07        64.60644
420.51        64.45585
420.96        64.33102
421.41        64.27482
421.85        64.26842
422.30        64.27834
422.74        64.28149
423.19        64.44893
423.64        64.71633
424.08        64.87231
424.53        64.81489
424.98        64.75777
425.42         64.7261
425.87        64.43512
426.31        64.05473
426.76        64.19699
427.21        64.77357
427.65        65.03336
428.10         64.8684
428.54        64.80688
428.99        64.87022
429.44         64.6853
429.88        64.33183
430.33        64.22668
430.77        64.30879
431.22        64.48317
431.66        64.64549
432.11        64.66547
432.56        64.56152
433.00        64.36555
433.45        64.03014
433.89        64.01302
434.34        64.40454
434.78        64.00269
435.23        64.14963
435.67        64.89744
436.12        64.66834
436.57        64.59223
437.01        64.28732
437.46        64.03053
437.90        64.47191
438.35        64.71497
438.79        64.67445
439.24        64.69609
439.68        64.70009
440.13        64.62001
440.57        64.50458
441.02        64.48075
441.46        64.59166
441.91        64.89221
442.35        65.20242
442.80        65.58403
443.24        65.89317
443.69        65.77484
444.13        65.33816
444.58        65.09862
445.02        65.12109
445.47        65.34093
445.91        65.62455
446.36        65.75058
446.80        65.66785
447.24        65.44514
447.69        65.18514
448.13        65.19648
448.58        65.27184
449.02        65.20737
449.47        64.97375
449.91        64.88448
450.36        64.96269
450.80        64.94805
451.25        64.86826
451.69        64.92679
452.13        65.06717
452.58        64.96013
453.02        64.62991
453.47        64.40515
453.91        64.30112
454.36        64.17188
454.80        64.02607
455.24        63.89404
455.69         63.7852
456.13        63.72468
456.58        63.82238
457.02         63.5089
457.46        64.14438
457.91         63.9105
458.35        63.42571
458.79        63.15125
459.24        63.20111
459.68         63.1389
460.13        62.93598
460.57        62.85905
461.01          62.981
461.46        62.20678
461.90        62.55196
462.34        62.12232
462.79        62.45729
463.23        62.04349
463.68        62.56107
464.12        62.25927
464.56        61.69974
465.01        61.81548
465.45         62.3632
465.89         62.2882
466.34        61.69766
466.78        61.45859
467.22        61.59586
467.67        61.67339
468.11        61.42508
468.55        61.15221
468.99        60.84005
469.44        60.59888
469.88        60.44539
470.32        60.27861
470.77        60.12183
471.21        60.06092
471.65        60.09778
472.10        60.20857
472.54        60.30987
472.98         60.3198
473.42        60.22807
473.87        59.99989
474.31        59.70908
474.75        59.73715
475.20        60.00589
475.64         60.0183
476.08        59.81266
476.52        59.73543
476.97        59.75967
477.41         59.8933
477.85        60.13466
478.29         59.4874
478.74        59.73615
479.18        59.46948
479.62        59.59619
480.06        59.60079
480.50        59.62598
480.95        59.61128
481.39        59.44559
481.83        59.99393
482.27        59.61322
482.72        59.77421
483.16        59.51345
483.60        59.82452
484.04        59.79218
484.48        59.54049
484.93        59.49751
485.37        59.38318
485.81        59.87455
486.25         59.4286
486.69        61.65323
487.14        62.03476
487.58        60.85555
488.02         59.5995
488.46        59.25654
488.90         59.4955
489.34        59.01022
489.79        58.58014
490.23        59.26838
490.67        59.30317
491.11        59.14112
491.55        58.93351
491.99        58.76496
492.43        58.70749
492.88        58.58728
493.32        58.60601
493.76        58.64404
494.20         58.6725
494.64        58.69889
495.08        58.44191
495.52        58.47922
495.96        58.43161
496.41        58.43845
496.85        58.36189
497.29        58.20478
497.73        58.34913
498.17        58.43264
498.61        58.49167
499.05        58.38038
499.49        58.14632
499.93        57.91355
500.37        57.84395
500.82        57.93198
501.26        58.23981
501.70        58.61271
502.14        58.26949
502.58        57.80817
503.02        57.58356
503.46        57.73533
503.90        57.88679
504.34        57.94403
504.78        57.98045
505.22        57.98434
505.66        57.88117
506.10        57.73391
506.54        57.76266
506.98        58.00541
507.42        57.76073
507.86        58.47718
508.30        57.98861
508.74        58.19088
509.18        57.88605
509.62        57.59612
510.06        57.42015
510.50        57.37279
510.94        57.34966
511.38        57.30435
511.82        57.26804
512.26        57.22356
512.70        57.14861
513.14        57.05709
513.58        56.99202
514.02        56.96215
514.46        56.94032
514.90        56.90448
515.34        56.92276
515.78         56.9109
516.22        56.89466
516.66         56.7073
517.10        56.99584
517.54        56.79025
517.98        56.84598
518.42        56.87465
518.86        56.89814
519.30        56.91167
519.74        56.88454
520.18        56.84542
520.62        56.90423
521.06        57.02249
521.50         56.9883
521.93        56.82136
522.37         56.7352
522.81        56.74498
523.25        56.73319
523.69        56.68727
524.13        56.64006
524.57        56.59054
525.01         56.5323
525.45        56.48159
525.89        56.46198
526.32        56.47639
526.76        56.52525
527.20        56.58529
527.64        56.62198
528.08        56.62539
528.52        56.60254
528.96        56.57872
529.40        56.58743
529.83        56.63125
530.27        56.72531
530.71        56.81634
531.15        56.81828
531.59        56.72088
532.03         56.5599
532.46        56.39212
532.90        56.32027
533.34        56.36008
533.78        56.47447
534.22        56.60999
534.66        56.68449
535.09        56.66779
535.53        56.60844
535.97        56.51572
536.41        56.41846
536.85        56.33381
537.28        56.25473
537.72        56.20098
538.16         56.2075
538.60        56.27412
539.04        56.38729
539.47        56.50108
539.91        56.59164
540.35        56.63023
540.79        56.62781
541.22        56.58799
541.66        56.53342
542.10        56.46967
542.54        56.39167
542.97        56.30606
543.41        56.25329
543.85        56.23575
544.29        56.25827
544.72        56.28876
545.16        56.32128
545.60        56.33998
546.04         56.2902
546.47        56.21965
546.91        56.32848
547.35        56.55562
547.79        56.61776
548.22        56.48867
548.66        56.35103
549.10        56.25136
549.53        56.19481
549.97        56.18554
550.41        56.15066
550.84        56.09941
551.28        56.06908
551.72        56.05499
552.15        56.10775
552.59        56.24075
553.03        56.05223
553.46        56.33041
553.90        56.24881
554.34        55.99516
554.77        56.29725
555.21        55.92276
555.65        56.00861
556.08        56.15578
556.52        56.33191
556.96        56.45441
557.39        56.51065
557.83        56.47629
558.27        56.24321
558.70        55.91744
559.14        55.70555
559.57        55.67168
560.01         55.9491
560.45        56.35703
560.88        56.40224
561.32        56.16222
561.75        55.95526
562.19        55.90203
562.63        56.12401
563.06        56.48368
563.50        56.38268
563.93        55.89824
564.37        55.77116
564.80        55.99069
565.24        56.13131
565.68        56.15253
566.11        56.18218
566.55        56.22227
566.98        56.26799
567.42        56.36752
567.85        56.22227
568.29        56.39842
568.72        56.43057
569.16        56.53479
569.60        56.58441
570.03        56.84108
570.47        57.02411
570.90        57.12778
571.34        57.31253
571.77        57.45117
572.21        57.35519
572.64        57.50655
573.08        57.47203
573.51        57.07457
573.95        57.30697
574.38        57.78519
574.82        58.53239
