SpectraSmart Spectrum 2.9.0.0
--------- Device Information -----------
Spectrum Name :  反射率_0
Saving Time :  2024/04/20 23:56:22
Spectro-Module Model Name : SE2030-DUVN
Spectro-Module Serial Number : OS361AC55029948
Wavelength Start : 200
Wavelength End : 1025
Wavelength Unit : Wavelength(nm)
Spectrum Unit : Reflectance(%)
-----------Spectrum Setting ------------
Integration Time : 20ms
Average : 10
Boxcar : 0
Background removal :  enabled
linearity correction :  enabled
SC :  disabled
Intensity correction :  disabled
DWT denoise :  enabled
savitzky-golay :  disabled
FFT :  disabled
Running average :  disabled
Kalman :  disabled
High pass :  disabled
---------------BEGIN--------------------
Wavelength(nm)             Reflectance(%)
200.29               0
200.75       -26.59017
201.21        8.109991
201.67        23.85816
202.13        28.23862
202.58        25.98974
203.04        19.52827
203.50         10.0091
203.96        1.586399
204.42       -2.725563
204.88       -4.385014
205.34       -3.852803
205.80       -2.307462
206.26       0.2625605
206.72        7.146885
207.18        15.36118
207.64        16.09378
208.10         6.80373
208.55       -10.61768
209.01        -20.4439
209.47       -4.086319
209.93        20.23194
210.39        39.40389
210.85         51.2283
211.31        55.60401
211.77        54.27509
212.23        47.93552
212.69         32.8178
213.14        2.342538
213.60       -57.60961
214.06       -237.2463
214.52       -647.9517
214.98       -274.6983
215.44       -54.05886
215.90        18.76753
216.36        42.06866
216.81        42.80217
217.27        23.69262
217.73       -72.57526
218.19        1088.036
218.65        473.7433
219.11       -1002.633
219.57       -32.40122
220.02        29.13032
220.48        39.84603
220.94        33.45802
221.40        8.770755
221.86       -52.01605
222.32       -97.27267
222.77        -48.8217
223.23       -3.446739
223.69        20.52968
224.15        29.93635
224.61        32.07822
225.06        31.51238
225.52        28.87793
225.98        24.17044
226.44        18.00661
226.90        9.268079
227.36        2.607814
227.81        6.677258
228.27        17.86093
228.73        29.85918
229.19        37.80256
229.65        39.28781
230.10        35.35197
230.56        27.58151
231.02        17.41321
231.48        10.68008
231.93        11.51951
232.39         17.7016
232.85        24.62518
233.31        28.42862
233.77        29.31655
234.22        28.95444
234.68        28.01041
235.14        27.62465
235.60        28.49148
236.05        29.46715
236.51        30.19727
236.97        35.17692
237.43        44.23132
237.88        49.00544
238.34        45.99509
238.80        63.88834
239.26        52.79037
239.71         49.4455
240.17        40.31871
240.63        31.72296
241.08         28.1922
241.54        33.72469
242.00        46.64182
242.46        53.61848
242.91        50.89012
243.37        38.06743
243.83        18.56978
244.28        8.874019
244.74        18.10203
245.20        37.25113
245.66        54.92315
246.11        60.06027
246.57         51.6997
247.03         33.6524
247.48        9.046703
247.94       -17.61971
248.40       -50.06874
248.85       -118.0708
249.31       -315.0048
249.77       -468.5102
250.22       -168.6242
250.68        -42.8273
251.14       -1.854057
251.59         10.3391
252.05        11.27049
252.51        5.905963
252.96       -4.876572
253.42       -13.06519
253.88       -11.15341
254.33       -1.663597
254.79          13.216
255.25         29.3757
255.70        42.66482
256.16        52.31477
256.62        58.67095
257.07         62.2012
257.53        64.15294
257.99        64.95776
258.44        64.46875
258.90        63.23402
259.35        61.08923
259.81        58.75988
260.27        56.55652
260.72        54.91147
261.18        54.09216
261.63        53.56942
262.09        53.13525
262.55        52.17795
263.00         50.6567
263.46        48.98587
263.91        47.37754
264.37        46.51993
264.83        46.32772
265.28         46.4714
265.74        46.65829
266.19        46.31905
266.65        45.44276
267.11        44.16866
267.56        42.70016
268.02        41.43548
268.47         40.4281
268.93        39.59879
269.38        38.78936
269.84        37.82127
270.30         36.6554
270.75        35.39698
271.21        34.20074
271.66        33.22036
272.12        32.51856
272.57        31.99728
273.03        31.60003
273.48        31.20912
273.94        30.80115
274.39        30.37767
274.85        29.94033
275.31        29.42311
275.76        28.82768
276.22        28.21036
276.67        27.63571
277.13        27.27724
277.58        27.10653
278.04         27.0796
278.49        27.06106
278.95        26.93754
279.40         26.6384
279.86        26.24532
280.31        25.75629
280.77        25.25571
281.22        24.74183
281.68        24.25331
282.13        23.78337
282.59        23.39801
283.04        23.08246
283.50        22.85161
283.95        22.69129
284.41        22.60239
284.86        22.56666
285.32        22.59226
285.77        22.63642
286.22        22.65497
286.68        22.65833
287.13        22.62008
287.59        22.62145
288.04        22.67976
288.50        22.77352
288.95        23.00956
289.41        23.37242
289.86        23.34984
290.32        22.85906
290.77        23.85446
291.22        23.10755
291.68        23.31426
292.13        23.53835
292.59        23.86796
293.04        24.30731
293.50        24.93352
293.95        25.77209
294.40        26.77815
294.86        27.90631
295.31        29.07128
295.77        30.24216
296.22        31.42062
296.68        32.63278
297.13        33.91467
297.58        35.29284
298.04        36.76018
298.49        38.30126
298.95        39.91359
299.40        41.56971
299.85        43.27062
300.31        45.00923
300.76        46.75032
301.21         48.4921
301.67        50.26078
302.12          52.032
302.58        53.87711
303.03        55.77875
303.48        57.76368
303.94        59.83306
304.39        61.93217
304.84        64.04859
305.30        66.20201
305.75        68.33645
306.20        70.47668
306.66        72.62112
307.11          74.705
307.57        76.74682
308.02        78.70416
308.47        80.58858
308.93        82.43436
309.38        84.18616
309.83         85.8222
310.29        87.39428
310.74        88.84566
311.19        90.21449
311.65        91.52234
312.10        92.76624
312.55        93.95613
313.00        95.09599
313.46        96.19392
313.91        97.23137
314.36        98.20901
314.82        99.14028
315.27        100.0362
315.72        100.9047
316.18        101.7435
316.63        102.5118
317.08        103.1483
317.53         103.642
317.99        104.0094
318.44          104.32
318.89        104.6687
319.35        105.0832
319.80        105.5581
320.25        106.0353
320.70        106.4212
321.16        106.6867
321.61        106.8738
322.06        107.0552
322.51         107.358
322.97        107.7869
323.42        108.3303
323.87        108.8664
324.32        109.2143
324.78        109.3126
325.23        109.2641
325.68        109.1581
326.13        109.1736
326.59        109.3418
327.04        109.6659
327.49        110.0763
327.94        110.4878
328.39        110.8658
328.85        111.2124
329.30        111.5807
329.75        111.9163
330.20         112.216
330.66        112.4287
331.11        112.6727
331.56        113.0124
332.01        113.4689
332.46        114.0289
332.92        114.5541
333.37        114.9543
333.82        115.1535
334.27        115.2093
334.72        115.2682
335.17        115.5755
335.63        116.1579
336.08        116.9938
336.53        117.9196
336.98        118.7125
337.43        119.2901
337.88        119.7105
338.34        119.9879
338.79        120.2177
339.24        120.4192
339.69        120.5788
340.14        120.7461
340.59        121.0075
341.05         121.384
341.50         121.874
341.95        122.4341
342.40         122.982
342.85        123.4836
343.30        123.9485
343.75        124.3731
344.20        124.7625
344.66        125.1274
345.11        125.4383
345.56        125.7032
346.01        125.9429
346.46        126.1683
346.91        126.3515
347.36        126.4796
347.81        126.6132
348.26        126.7686
348.72        126.6403
349.17        126.7821
349.62        126.7559
350.07        126.7386
350.52        126.7113
350.97        126.6824
351.42        126.6574
351.87        126.6199
352.32        126.5574
352.77        126.4458
353.22        126.2458
353.67        125.9516
354.13        125.6031
354.58        125.1676
355.03        124.6536
355.48        124.0797
355.93        123.4452
356.38        122.8385
356.83        122.3884
357.28        122.0952
357.73        121.9111
358.18        121.6747
358.63        121.1283
359.08        120.2308
359.53        119.0799
359.98        117.8531
360.43        116.8215
360.88        116.0488
361.33        115.4448
361.78        114.9114
362.23        114.2901
362.68        113.5329
363.13        112.7054
363.58        111.8179
364.03        110.8789
364.48        109.9052
364.93        108.8803
365.38         107.874
365.83         107.011
366.28        106.3073
366.73        105.7262
367.18        105.1598
367.63        104.4292
368.08        103.5018
368.53        102.4499
368.98        101.3579
369.43        100.3471
369.88        99.45079
370.33        98.62176
370.78        97.85867
371.23        97.17641
371.68        96.57101
372.13        96.04478
372.58        95.54076
373.03        94.95052
373.48        94.24432
373.93        93.44641
374.38        92.60859
374.83        91.83559
375.28         91.1697
375.72         90.5678
376.17        90.03918
376.62        89.51574
377.07        88.96229
377.52        88.37646
377.97        87.76258
378.42        87.14377
378.87        86.54417
379.32        85.97864
379.77        85.41615
380.22        84.79514
380.67        84.10073
381.11        83.34864
381.56        82.62177
382.01        82.08379
382.46        81.77692
382.91        81.65927
383.36        81.58252
383.81        81.31659
384.26        80.80973
384.71        80.12073
385.15         79.3931
385.60         78.9186
386.05        78.72499
386.50        78.72577
386.95        78.73758
387.40        78.48139
387.85        77.91807
388.29        77.11867
388.74        76.36616
389.19        75.84323
389.64        75.57733
390.09        75.47333
390.54        75.41435
390.98        75.20441
391.43        74.84401
391.88        74.40144
392.33        73.94489
392.78        73.57639
393.23        73.32365
393.67        73.07143
394.12          72.893
394.57          72.819
395.02        72.78583
395.47        72.57993
395.91        72.24229
396.36        72.00159
396.81         71.8952
397.26        71.81925
397.71        71.69534
398.15        71.45039
398.60        71.15596
399.05        70.68821
399.50        70.21407
399.95        70.13784
400.39        70.37706
400.84        70.46893
401.29        70.30579
401.74        69.80926
402.18        69.14411
402.63          68.898
403.08        69.03262
403.53        68.87897
403.97        68.41692
404.42        68.10844
404.87        67.97688
405.32        67.87024
405.76        67.77906
406.21        67.72229
406.66         67.6619
407.11        67.62778
407.55        67.58649
408.00        67.31725
408.45          66.899
408.90         66.6231
409.34         66.5293
409.79        66.51141
410.24        66.51595
410.68         66.5006
411.13        66.44714
411.58        66.38039
412.03          66.311
412.47        66.26553
412.92        66.23017
413.37        66.20863
413.81        66.20309
414.26        66.27338
414.71        66.40063
415.15        66.58096
415.60        66.74077
416.05        66.80912
416.49        66.76624
416.94        66.62978
417.39        66.43746
417.83        66.24191
418.28         66.0667
418.73        65.89256
419.17        65.73814
419.62        65.64418
420.07        65.62131
420.51        65.66213
420.96        65.73512
421.41         65.7773
421.85        65.75563
422.30        65.61145
422.74        65.40806
423.19        65.61182
423.64        66.10117
424.08        66.22412
424.53         65.9285
424.98        65.86238
425.42        66.07185
425.87        66.10651
426.31        65.99859
426.76        66.10211
427.21        66.36639
427.65        66.45151
428.10        66.34041
428.54        66.29797
428.99        66.36442
429.44        66.44543
429.88        66.46082
430.33        66.31669
430.77        66.03012
431.22        65.92921
431.66        66.00608
432.11        66.13695
432.56        66.31882
433.00        66.40202
433.45        66.20571
433.89        66.21264
434.34        66.55573
434.78        65.69919
435.23        65.84578
435.67        66.54106
436.12        66.97745
436.57        67.18134
437.01        66.85457
437.46        66.63272
437.90        67.05358
438.35        67.10315
438.79        67.03901
439.24        66.97294
439.68        66.95365
440.13        66.91287
440.57        66.88963
441.02        67.02202
441.46        67.26841
441.91        67.50826
442.35        67.62251
442.80        67.84671
443.24        68.07883
443.69        68.05293
444.13        67.80118
444.58        67.55812
445.02        67.39507
445.47        67.49554
445.91        67.76482
446.36        67.86137
446.80        67.73757
447.24        67.56173
447.69        67.44987
448.13        67.44819
448.58        67.75153
449.02        67.81879
449.47        67.69238
449.91        67.60718
450.36         67.5843
450.80         67.3767
451.25        67.09859
451.69        67.10511
452.13        67.36642
452.58        67.49966
453.02        67.44217
453.47        67.39838
453.91        67.34451
454.36        67.16189
454.80        66.90848
455.24        66.71446
455.69        66.61882
456.13        66.62419
456.58        66.76888
457.02        66.59607
457.46        66.85371
457.91        66.83243
458.35        66.85003
458.79         66.7898
459.24        66.69076
459.68         66.5551
460.13        66.46832
460.57        66.30152
461.01        66.05117
461.46        66.55948
461.90        66.22452
462.34        66.33321
462.79        65.81912
463.23        65.71601
463.68        66.23945
464.12        66.05507
464.56        65.44006
465.01        65.52106
465.45        66.07233
465.89         66.0701
466.34        65.62643
466.78        65.42052
467.22        65.43423
467.67        65.84377
468.11        65.32162
468.55        65.15178
468.99        64.98856
469.44        64.85509
469.88        64.75589
470.32        64.68011
470.77        64.62295
471.21         64.5543
471.65        64.47115
472.10        64.38843
472.54        64.30129
472.98        64.24174
473.42        64.21981
473.87        64.18591
474.31        64.12703
474.75        64.24245
475.20        64.44989
475.64        64.41982
476.08         64.2186
476.52        64.09563
476.97        64.00308
477.41         64.1405
477.85        64.52927
478.29        63.74726
478.74        63.58905
479.18        64.09338
479.62        63.85839
480.06        64.04213
480.50        64.10423
480.95        64.14071
481.39         64.0364
481.83        64.38539
482.27        64.51311
482.72        64.02872
483.16        64.22159
483.60        64.31461
484.04        64.47031
484.48        64.08289
484.93         63.7814
485.37        64.06074
485.81        64.18652
486.25        63.52994
486.69        65.07406
487.14        64.94987
487.58         64.1286
488.02        64.01823
488.46        63.88029
488.90        63.92249
489.34        63.57915
489.79        63.12011
490.23        63.38238
490.67        63.48191
491.11        63.62139
491.55        63.53624
491.99         63.2961
492.43        63.23646
492.88        63.36713
493.32        63.50675
493.76        63.55119
494.20        63.54902
494.64         63.5147
495.08        63.10333
495.52        62.92154
495.96        62.94708
496.41         63.2509
496.85        63.31429
497.29         63.1016
497.73        63.21606
498.17         63.2678
498.61        63.30292
499.05        63.18121
499.49        62.75678
499.93        62.24833
500.37        62.38522
500.82        63.01023
501.26        63.26204
501.70        63.06089
502.14          62.568
502.58          62.418
503.02        62.26631
503.46        62.25018
503.90        62.35294
504.34        62.50312
504.78        62.63723
505.22        62.72671
505.66        62.75071
506.10        62.70695
506.54        62.68304
506.98        62.69959
507.42        62.31357
507.86        62.50035
508.30        62.12545
508.74        62.23026
509.18        62.16356
509.62        62.14851
510.06        62.17486
510.50        62.21365
510.94        62.19978
511.38        62.12519
511.82         62.0675
512.26        62.02785
512.70        61.95343
513.14        61.87784
513.58        61.86858
514.02        61.92855
514.46         62.0692
514.90        62.20814
515.34        62.16917
515.78        61.97462
516.22           61.81
516.66        61.56545
517.10        61.74504
517.54        61.49494
517.98        61.56145
518.42        61.66823
518.86        61.74574
519.30        61.77145
519.74        61.77506
520.18        61.77502
520.62        61.78487
521.06        61.80604
521.50        61.80858
521.93        61.78974
522.37        61.76562
522.81        61.73937
523.25         61.7077
523.69        61.66311
524.13        61.59546
524.57        61.50782
525.01        61.40676
525.45        61.32138
525.89        61.29646
526.32        61.33832
526.76        61.43748
527.20        61.55487
527.64        61.63692
528.08        61.66755
528.52        61.64407
528.96        61.59731
529.40        61.61106
529.83         61.6732
530.27        61.70559
530.71         61.6888
531.15         61.6737
531.59        61.65717
532.03        61.60132
532.46        61.52422
532.90        61.49148
533.34        61.50542
533.78        61.54982
534.22        61.58511
534.66        61.55043
535.09        61.42996
535.53        61.26835
535.97        61.10645
536.41        61.02386
536.85        61.03872
537.28         61.1255
537.72        61.24231
538.16        61.32167
538.60        61.34122
539.04        61.32224
539.47        61.27277
539.91        61.25614
540.35        61.26865
540.79        61.29831
541.22        61.32904
541.66        61.35308
542.10        61.35922
542.54        61.34544
542.97        61.32009
543.41        61.32706
543.85        61.36628
544.29        61.43984
544.72        61.49161
545.16        61.49039
545.60        61.42251
546.04        61.23036
546.47        61.01624
546.91        61.10671
547.35        61.43822
547.79        61.60664
548.22        61.54441
548.66        61.46763
549.10        61.39782
549.53        61.26912
549.97        61.12547
550.41        61.01586
550.84        60.96295
551.28        60.98001
551.72        61.03775
552.15        61.08268
552.59        61.11658
553.03        61.05007
553.46        61.09769
553.90        61.05441
554.34        60.97736
554.77        60.96254
555.21        61.08439
555.65        60.78286
556.08        61.06297
556.52         61.1577
556.96         61.2953
557.39        61.28128
557.83        61.15191
558.27        61.06041
558.70        61.03715
559.14        61.02155
559.57         61.0082
560.01        61.14328
560.45        61.32276
560.88        61.24834
561.32          61.008
561.75        60.80671
562.19        60.74405
562.63        60.86256
563.06        61.07681
563.50        61.07736
563.93        60.86253
564.37        60.76141
564.80        60.77565
565.24        60.80599
565.68        60.84762
566.11        60.88221
566.55        60.91705
566.98        61.03709
567.42        61.24197
567.85        61.09714
568.29        61.16464
568.72         61.1179
569.16        61.16156
569.60        61.22857
570.03        61.22396
570.47        61.32161
570.90        61.45847
571.34        61.38855
571.77        61.84925
572.21        61.65504
572.64        61.66381
573.08        61.60309
573.51         61.4431
573.95        61.87284
574.38        61.75785
574.82        62.26321
