SpectraSmart Spectrum 2.9.0.0
--------- Device Information -----------
Spectrum Name :  反射率_0
Saving Time :  2024/04/21 00:53:21
Spectro-Module Model Name : SE2030-DUVN
Spectro-Module Serial Number : OS361AC55029948
Wavelength Start : 200
Wavelength End : 1025
Wavelength Unit : Wavelength(nm)
Spectrum Unit : Reflectance(%)
-----------Spectrum Setting ------------
Integration Time : 20ms
Average : 10
Boxcar : 0
Background removal :  enabled
linearity correction :  enabled
SC :  disabled
Intensity correction :  disabled
DWT denoise :  enabled
savitzky-golay :  disabled
FFT :  disabled
Running average :  disabled
Kalman :  disabled
High pass :  disabled
---------------BEGIN--------------------
Wavelength(nm)             Reflectance(%)
200.29               0
200.75       -62.50143
201.21       -12.64542
201.67        15.26054
202.13        28.06277
202.58        32.79972
203.04        33.85231
203.50        31.76598
203.96        26.99263
204.42        20.41195
204.88        11.67254
205.34        2.482807
205.80       -6.060611
206.26       -13.78582
206.72       -17.21566
207.18       -18.20181
207.64       -23.26298
208.10       -32.25647
208.55       -44.11001
209.01       -40.65585
209.47       -6.635353
209.93        30.73815
210.39        57.91518
210.85        73.96461
211.31        79.95072
211.77        78.47312
212.23         69.8013
212.69        50.15228
213.14        16.32235
213.60       -38.36032
214.06       -177.4899
214.52       -451.7608
214.98        -158.383
215.44       -6.599975
215.90        41.44464
216.36        56.21998
216.81        55.81104
217.27        41.45025
217.73       -29.96865
218.19        833.6024
218.65        380.4031
219.11       -753.5568
219.57       -6.150607
220.02        41.65545
220.48         50.3451
220.94         46.1741
221.40        28.64924
221.86       -13.65348
222.32       -40.14984
222.77       -1.147071
223.23        32.08435
223.69        48.53617
224.15        53.78642
224.61        53.16101
225.06        49.86558
225.52        44.73444
225.98        38.53727
226.44        32.18356
226.90        24.55575
227.36        19.63619
227.81        24.35894
228.27         34.9964
228.73        45.95406
229.19        53.11442
229.65         54.5785
230.10        51.28328
230.56        44.50344
231.02        35.28123
231.48        28.58497
231.93        28.18196
232.39        32.40501
232.85        37.65502
233.31        40.80175
233.77        41.91291
234.22        42.41277
234.68        42.49994
235.14        42.39646
235.60        42.48637
236.05        42.00101
236.51         41.2767
236.97        45.46764
237.43        54.69337
237.88        61.57886
238.34          63.583
238.80        78.21924
239.26        73.62836
239.71        72.67066
240.17        67.73842
240.63        63.93489
241.08        65.17291
241.54         72.9782
242.00        84.61687
242.46        91.40543
242.91         91.0694
243.37        82.92736
243.83        68.94558
244.28        59.56808
244.74        61.56232
245.20        70.24613
245.66        79.22997
246.11         81.8899
246.57        77.47761
247.03        68.60226
247.48        56.33926
247.94        41.98988
248.40        22.55711
248.85       -21.89463
249.31       -152.8948
249.77       -238.5231
250.22       -31.35079
250.68        51.14348
251.14        76.35442
251.59        81.92989
252.05        79.48293
252.51        70.98785
252.96        58.53989
253.42        53.70634
253.88        63.20912
254.33        79.55895
254.79        94.56838
255.25        101.0719
255.70        100.7655
256.16        98.67682
256.62        96.30682
257.07        94.39249
257.53        93.46928
257.99        92.64011
258.44        91.23475
258.90        89.67273
259.35        87.41764
259.81        85.29277
260.27        83.34084
260.72        81.73612
261.18        80.87547
261.63        80.09081
262.09        79.42667
262.55        78.27989
263.00         76.5511
263.46        74.72884
263.91        72.84197
264.37        71.52952
264.83        70.71026
265.28        70.11842
265.74        69.67545
266.19        68.95476
266.65        67.99102
267.11        66.81866
267.56         65.5052
268.02        64.27789
268.47        63.12207
268.93        62.02188
269.38        60.87066
269.84        59.59828
270.30        58.18774
270.75        56.70091
271.21        55.26652
271.66        53.98222
272.12         52.9172
272.57        51.98981
273.03        51.18616
273.48        50.40126
273.94        49.63188
274.39        48.84463
274.85        48.05295
275.31        47.17945
275.76        46.21684
276.22        45.25195
276.67        44.30961
277.13         43.5546
277.58        42.94085
278.04        42.45887
278.49        42.00356
278.95         41.5555
279.40        41.02617
279.86        40.48558
280.31        39.84863
280.77        39.11984
281.22        38.27319
281.68        37.40705
282.13        36.56045
282.59        35.90019
283.04        35.41422
283.50        35.09165
283.95        34.88113
284.41        34.75472
284.86        34.66846
285.32        34.65872
285.77        34.65002
286.22        34.57399
286.68        34.44215
287.13        34.21599
287.59        34.03722
288.04        34.00673
288.50        34.12484
288.95        34.43907
289.41        34.84751
289.86        34.75605
290.32        34.08878
290.77         34.5759
291.22        33.56988
291.68        33.55906
292.13        33.77402
292.59        34.24597
293.04        34.90091
293.50        35.69176
293.95        36.59609
294.40         37.5995
294.86        38.69937
295.31        39.87737
295.77        41.11533
296.22        42.37941
296.68        43.63456
297.13        44.82371
297.58        45.95982
298.04        47.06559
298.49        48.20711
298.95        49.51337
299.40        50.98612
299.85        52.59491
300.31        54.24555
300.76        55.75871
301.21         57.1116
301.67         58.3844
302.12        59.65103
302.58        61.13679
303.03         62.8484
303.48        64.76872
303.94        66.79549
304.39        68.71391
304.84        70.48223
305.30        72.16871
305.75        73.82911
306.20          75.664
306.66        77.69595
307.11        79.79013
307.57        81.83386
308.02         83.5802
308.47        85.01614
308.93        86.26225
309.38        87.39275
309.83        88.59441
310.29         89.9644
310.74        91.38117
311.19        92.81232
311.65        94.17344
312.10        95.41239
312.55        96.56334
313.00        97.61926
313.46        98.56918
313.91        99.40162
314.36        100.1278
314.82        100.7887
315.27        101.4431
315.72        102.1226
316.18         102.825
316.63        103.5318
317.08        104.2095
317.53        104.8415
317.99        105.4258
318.44        105.9783
318.89        106.5102
319.35        107.0172
319.80        107.4983
320.25        107.9157
320.70        108.2202
321.16        108.3982
321.61        108.4848
322.06        108.5405
322.51        108.6696
322.97         108.885
323.42        109.2048
323.87        109.5501
324.32        109.8024
324.78        109.9174
325.23        109.9753
325.68        110.0406
326.13        110.2513
326.59        110.6108
327.04        111.1202
327.49        111.6763
327.94        112.1458
328.39         112.482
328.85          112.69
329.30         112.865
329.75        113.0291
330.20        113.2074
330.66        113.3416
331.11        113.5224
331.56         113.758
332.01        114.0563
332.46        114.4228
332.92         114.763
333.37        115.0555
333.82        115.2429
334.27         115.367
334.72         115.514
335.17        115.8306
335.63        116.3204
336.08        116.9873
336.53        117.7475
336.98        118.5112
337.43        119.2272
337.88        119.9118
338.34         120.483
338.79        120.8778
339.24        121.0678
339.69        121.0783
340.14        121.0452
340.59         121.192
341.05        121.5746
341.50        122.1532
341.95        122.8013
342.40        123.3045
342.85        123.6002
343.30        123.7438
343.75        123.8361
344.20        124.0417
344.66        124.4064
345.11         124.852
345.56        125.2747
346.01        125.5191
346.46        125.5611
346.91        125.4377
347.36        125.2494
347.81         125.224
348.26        125.4154
348.72        125.4749
349.17        125.8404
349.62        125.9564
350.07        125.9539
350.52         125.855
350.97        125.7255
351.42        125.6639
351.87        125.6766
352.32        125.7124
352.77        125.6996
353.22        125.5317
353.67        125.1889
354.13        124.7432
354.58        124.1973
355.03        123.6115
355.48        123.0239
355.93        122.4206
356.38        121.8782
356.83        121.5094
357.28        121.3047
357.73        121.2151
358.18        121.0781
358.63        120.6326
359.08        119.8304
359.53        118.7647
359.98         117.596
360.43         116.571
360.88        115.7602
361.33        115.0958
361.78        114.5115
362.23        113.8997
362.68        113.2229
363.13        112.5196
363.58        111.7998
364.03        111.0697
364.48        110.3297
364.93        109.5629
365.38        108.7666
365.83        107.9509
366.28        107.1214
366.73        106.2799
367.18        105.4403
367.63        104.6212
368.08        103.8311
368.53        103.0771
368.98        102.3326
369.43        101.5418
369.88        100.6899
370.33        99.78571
370.78        98.88291
371.23        98.09186
371.68        97.44775
372.13        96.92102
372.58         96.4507
373.03        95.92492
373.48        95.30864
373.93        94.63853
374.38        93.94263
374.83        93.27945
375.28        92.67651
375.72        92.08863
376.17        91.56368
376.62        91.09431
377.07        90.65704
377.52        90.24025
377.97        89.78308
378.42        89.19952
378.87        88.49741
379.32        87.72885
379.77        86.97491
380.22        86.33425
380.67        85.81729
381.11         85.3937
381.56        85.01637
382.01        84.63128
382.46         84.2253
382.91        83.81948
383.36        83.41134
383.81        82.99368
384.26        82.56322
384.71        82.11278
385.15        81.64344
385.60        81.22858
386.05        80.85287
386.50          80.507
386.95        80.16174
387.40        79.77805
387.85        79.36112
388.29        78.88512
388.74        78.48215
389.19        78.12975
389.64        77.81976
390.09        77.52884
390.54        77.24666
390.98        76.94402
391.43         76.6643
391.88         76.4192
392.33        76.20054
392.78        75.95792
393.23        75.68391
393.67        75.40188
394.12        75.26524
394.57        74.98344
395.02        75.13281
395.47        75.15427
395.91        75.13303
396.36          74.944
396.81        74.58382
397.26        74.08992
397.71         73.5745
398.15        73.18875
398.60         73.0427
399.05        73.00494
399.50        73.01964
399.95        73.04971
400.39        73.05432
400.84        72.92527
401.29        72.67225
401.74        72.35896
402.18        72.03449
402.63        71.72935
403.08        71.46739
403.53        71.22147
403.97        71.00436
404.42        70.89595
404.87        70.82697
405.32        70.70124
405.76        70.49557
406.21        70.15524
406.66        69.78003
407.11        69.73214
407.55        69.94625
408.00        69.92412
408.45        69.64695
408.90        69.30241
409.34        69.02409
409.79          69.146
410.24        69.53708
410.68        69.63313
411.13        69.39571
411.58         69.1568
412.03        68.99159
412.47        68.88567
412.92        68.84464
413.37        68.89023
413.81        68.95705
414.26        68.99818
414.71        68.97478
415.15        68.91283
415.60        68.80359
416.05        68.69771
416.49        68.61244
416.94        68.52764
417.39         68.4226
417.83        68.26062
418.28        68.04041
418.73        67.77048
419.17        67.50605
419.62        67.34538
420.07        67.31644
420.51        67.39101
420.96         67.5106
421.41        67.57272
421.85        67.53467
422.30        67.35287
422.74        67.11319
423.19        67.31458
423.64        67.83859
424.08        68.02046
424.53        67.77615
424.98        67.70034
425.42        67.82419
425.87        67.73125
426.31         67.4812
426.76        67.41801
427.21        67.52026
427.65        67.55305
428.10        67.47748
428.54        67.42515
428.99        67.42606
429.44        67.44017
429.88        67.42201
430.33        67.32514
430.77        67.15533
431.22        67.17933
431.66        67.33311
432.11        67.48786
432.56        67.63634
433.00        67.39445
433.45        66.59879
433.89        66.59684
434.34        67.59412
434.78        66.15102
435.23        65.75656
435.67        67.78048
436.12        67.41746
436.57        67.73824
437.01         67.2305
437.46        66.83252
437.90        67.20744
438.35        67.69604
438.79        67.44744
439.24        67.47872
439.68        67.49941
440.13        67.47089
440.57        67.38479
441.02        67.43895
441.46        67.59872
441.91        67.47044
442.35        67.13054
442.80        67.51733
443.24        68.41597
443.69        68.51591
444.13        67.75446
444.58        67.80581
445.02        67.34936
445.47        67.38145
445.91        67.44354
446.36         67.4586
446.80        67.40173
447.24        67.37637
447.69        67.41311
448.13        67.62659
448.58        67.76235
449.02        67.67383
449.47         67.3789
449.91        67.27416
450.36        67.40709
450.80        67.47817
451.25        67.49052
451.69         67.6273
452.13        67.82574
452.58        67.73423
453.02         67.3834
453.47        67.18849
453.91        67.18062
454.36        66.92188
454.80        66.83679
455.24        66.63732
455.69        66.49022
456.13        66.24691
456.58        65.98412
457.02        66.08617
457.46        66.12128
457.91        66.05532
458.35        65.90101
458.79         65.8028
459.24        65.80282
459.68        65.77081
460.13        65.76328
460.57        65.59604
461.01        65.25262
461.46        65.33648
461.90        65.44213
462.34        64.62212
462.79        65.05411
463.23        65.07298
463.68        65.28024
464.12         65.2374
464.56        65.00983
465.01        65.17375
465.45         65.4889
465.89        65.45515
466.34        65.15296
466.78        64.73957
467.22         64.2647
467.67        64.80589
468.11        64.31703
468.55        64.37283
468.99        64.32187
469.44        64.25461
469.88        64.14542
470.32        63.93856
470.77        63.71623
471.21         63.6027
471.65        63.62179
472.10        63.73406
472.54         63.8465
472.98        63.84678
473.42        63.71828
473.87        63.49369
474.31         63.2298
474.75        63.17208
475.20        63.29156
475.64        63.33622
476.08        63.29899
476.52         63.2851
476.97        63.24838
477.41         63.3305
477.85        63.50996
478.29         63.0238
478.74        62.60394
479.18        62.77957
479.62        63.19538
480.06        63.13863
480.50        63.26384
480.95        63.22729
481.39        63.21847
481.83        63.48376
482.27        63.48439
482.72        63.46803
483.16        63.40857
483.60        63.61535
484.04        63.58375
484.48        63.26686
484.93        63.27664
485.37        62.71686
485.81        63.41321
486.25        62.50951
486.69        64.04435
487.14        64.00933
487.58        63.61981
488.02        63.12662
488.46        63.33792
488.90        62.87047
489.34        62.80677
489.79        62.23897
490.23        62.99244
490.67        63.11814
491.11        63.04325
491.55        62.88932
491.99        62.72757
492.43        62.64007
492.88        62.63383
493.32        62.67581
493.76        62.67593
494.20        62.66027
494.64         62.6451
495.08        62.23571
495.52        62.05706
495.96         62.1732
496.41        62.60243
496.85        62.64633
497.29        62.29257
497.73        62.24062
498.17        62.21344
498.61        62.44806
499.05         62.7153
499.49        62.61934
499.93        62.24107
500.37        62.05302
500.82        62.13081
501.26        62.22556
501.70        62.76494
502.14        62.43559
502.58        62.01321
503.02        61.82248
503.46        62.00039
503.90        62.14244
504.34        62.15855
504.78        62.16435
505.22        62.15648
505.66        62.03962
506.10        61.87122
506.54        61.84665
506.98        62.00256
507.42         61.5617
507.86        62.46651
508.30        61.56579
508.74         62.1115
509.18        61.88925
509.62        61.74901
510.06        61.69283
510.50        61.71588
510.94        61.72034
511.38        61.65662
511.82        61.59282
512.26        61.52223
512.70        61.41143
513.14        61.30023
513.58        61.27034
514.02        61.33258
514.46        61.45836
514.90        61.58664
515.34        61.65635
515.78        61.65034
516.22        61.56268
516.66        61.28102
517.10        61.45953
517.54          61.244
517.98        61.29926
518.42        61.34723
518.86           61.38
519.30        61.38621
519.74        61.34073
520.18        61.29251
520.62        61.39059
521.06        61.59444
521.50        61.65943
521.93        61.57248
522.37        61.51287
522.81        61.48642
523.25        61.38549
523.69        61.22814
524.13        61.09851
524.57        61.01149
525.01         60.9478
525.45        60.91444
525.89         60.9201
526.32         60.9577
526.76        61.02841
527.20        61.10661
527.64        61.15176
528.08         61.1536
528.52        61.12558
528.96        61.08273
529.40        61.04369
529.83        61.01537
530.27        61.02017
530.71        61.04518
531.15        61.06867
531.59        61.08435
532.03        61.09982
532.46        61.10861
532.90         61.1128
533.34        61.10747
533.78        61.09658
534.22        61.06974
534.66        61.01214
535.09        60.91821
535.53        60.81494
535.97        60.72389
536.41        60.69463
536.85        60.73548
537.28        60.83175
537.72        60.94406
538.16        61.00868
538.60        61.00757
539.04        60.95924
539.47        60.88279
539.91         60.8596
540.35        60.88725
540.79         60.9483
541.22        61.01062
541.66        61.03906
542.10        61.01748
542.54        60.95559
542.97        60.87545
543.41        60.84185
543.85        60.86257
544.29         60.9338
544.72        60.99984
545.16        61.02883
545.60        61.00337
546.04        60.86666
546.47        60.70971
546.91        60.83335
547.35        61.16811
547.79        61.33423
548.22        61.27446
548.66        61.17477
549.10        61.08318
549.53        61.03118
549.97        61.02234
550.41        60.95206
550.84        60.83599
551.28        60.73712
551.72          60.659
552.15        60.66917
552.59        60.80209
553.03        60.57402
553.46        60.84311
553.90        60.80316
554.34        60.67166
554.77         60.6733
555.21        60.84618
555.65         60.3578
556.08         60.9051
556.52        60.96593
556.96        61.00573
557.39        61.06277
557.83        61.12118
558.27         60.9799
558.70        60.71207
559.14        60.62045
559.57        60.71817
560.01        60.96179
560.45        61.21262
560.88        61.19164
561.32        60.97328
561.75        60.75972
562.19        60.66061
562.63        60.73406
563.06        60.89318
563.50        60.82766
563.93        60.55096
564.37        60.37607
564.80        60.33879
565.24        60.45662
565.68        60.67937
566.11        60.80611
566.55        60.82588
566.98        60.93245
567.42        61.11262
567.85        61.00448
568.29        60.74631
568.72        60.82829
569.16        61.23669
569.60        61.30588
570.03        61.31026
570.47        61.28197
570.90        61.27902
571.34        61.35964
571.77        61.50446
572.21        61.39217
572.64        61.61334
573.08        61.55873
573.51        61.49841
573.95        61.86438
574.38        61.67607
574.82        62.13893
