SpectraSmart Spectrum 2.9.0.0
--------- Device Information -----------
Spectrum Name :  反射率_0
Saving Time :  2024/04/21 00:42:34
Spectro-Module Model Name : SE2030-DUVN
Spectro-Module Serial Number : OS361AC55029948
Wavelength Start : 200
Wavelength End : 1025
Wavelength Unit : Wavelength(nm)
Spectrum Unit : Reflectance(%)
-----------Spectrum Setting ------------
Integration Time : 20ms
Average : 10
Boxcar : 0
Background removal :  enabled
linearity correction :  enabled
SC :  disabled
Intensity correction :  disabled
DWT denoise :  enabled
savitzky-golay :  disabled
FFT :  disabled
Running average :  disabled
Kalman :  disabled
High pass :  disabled
---------------BEGIN--------------------
Wavelength(nm)             Reflectance(%)
200.29               0
200.75       -16.63906
201.21        22.29258
201.67        43.48289
202.13         50.9464
202.58        50.24928
203.04        45.37741
203.50        36.93462
203.96        27.73777
204.42        20.54614
204.88        13.76045
205.34        9.636353
205.80        11.01249
206.26        18.99158
206.72         37.4567
207.18         59.1691
207.64        63.54438
208.10        42.18047
208.55        0.821132
209.01       -32.01187
209.47       -18.75333
209.93        15.06458
210.39        45.14111
210.85        64.84536
211.31        72.75597
211.77        71.55846
212.23        61.93855
212.69        40.84899
213.14        9.166256
213.60       -30.34124
214.06       -106.8599
214.52       -211.7435
214.98       -48.49179
215.44        14.49662
215.90        33.27379
216.36        38.26424
216.81        35.90574
217.27        24.90961
217.73       -27.49495
218.19        591.7855
218.65        252.8012
219.11       -432.3617
219.57        14.34397
220.02        41.58331
220.48         44.3186
220.94        37.36623
221.40        17.19098
221.86       -29.24671
222.32        -58.8333
222.77       -16.94533
223.23         19.6087
223.69        38.26623
224.15        45.06208
224.61        45.82376
225.06        43.81032
225.52        39.78275
225.98        34.30925
226.44        28.06158
226.90        19.94999
227.36        13.53048
227.81        15.66811
228.27        23.75479
228.73        32.94617
229.19        39.00646
229.65        39.54494
230.10        35.26534
230.56        27.53149
231.02        17.64701
231.48        11.08937
231.93        11.76716
232.39         17.5646
232.85        24.07206
233.31        27.54428
233.77        28.14383
234.22        27.49321
234.68        26.08732
235.14        24.79048
235.60        24.30358
236.05        23.55527
236.51        22.51533
236.97        26.97165
237.43         37.0942
237.88        43.13107
238.34        41.21155
238.80        61.80817
239.26          51.429
239.71        49.43069
240.17        41.65652
240.63         34.0266
241.08        30.57868
241.54        34.50817
242.00        45.68215
242.46        54.25187
242.91        58.19552
243.37        58.57998
243.83        56.74142
244.28        57.33067
244.74        62.10268
245.20        67.82797
245.66        71.32206
246.11        69.66249
246.57         62.7754
247.03        51.93628
247.48        38.64994
247.94        25.32943
248.40         10.3842
248.85       -18.35533
249.31       -95.52757
249.77       -144.0859
250.22       -23.59316
250.68        23.38612
251.14        37.79977
251.59        41.52805
252.05        40.98555
252.51        37.73459
252.96        31.23637
253.42        24.41299
253.88        21.27775
254.33         21.8801
254.79        27.69577
255.25        37.12847
255.70        46.24555
256.16        53.51204
256.62        58.14721
257.07        59.88486
257.53         59.9903
257.99        59.07664
258.44        57.42081
258.90        55.90558
259.35         54.1815
259.81        52.56063
260.27         50.9455
260.72        49.36354
261.18        48.14093
261.63        47.04665
262.09        46.09491
262.55        44.92683
263.00        43.48735
263.46         42.0414
263.91        40.67415
264.37        39.86965
264.83        39.54265
265.28          39.455
265.74        39.42116
266.19        39.04264
266.65        38.30814
267.11        37.30068
267.56          36.116
268.02        34.98129
268.47        33.92944
268.93        32.94672
269.38        31.98499
269.84        31.02597
270.30        30.06766
270.75        29.15182
271.21        28.35798
271.66         27.7305
272.12        27.29088
272.57        26.98063
273.03        26.74314
273.48        26.47564
273.94        26.15598
274.39        25.76534
274.85        25.34042
275.31        24.88198
275.76        24.39491
276.22        23.91863
276.67        23.43582
277.13        22.98511
277.58        22.55017
278.04         22.1507
278.49        21.78969
278.95        21.52892
279.40        21.32901
279.86        21.19348
280.31        21.02433
280.77        20.75024
281.22         20.3395
281.68        19.87655
282.13        19.40549
282.59        19.05632
283.04        18.83207
283.50        18.70455
283.95        18.65338
284.41        18.66561
284.86        18.72002
285.32        18.83798
285.77        18.95081
286.22        18.96525
286.68        18.89412
287.13         18.7283
287.59         18.6235
288.04        18.71591
288.50        18.99065
288.95        19.52179
289.41        20.18779
289.86          20.306
290.32        19.76449
290.77        20.65478
291.22        19.70437
291.68        19.86088
292.13        20.17854
292.59        20.69195
293.04        21.34552
293.50        22.12559
293.95        23.02603
294.40        24.02896
294.86        25.09971
295.31        26.16861
295.77        27.22033
296.22        28.25914
296.68        29.33087
297.13        30.50565
297.58        31.82182
298.04        33.27296
298.49         34.8464
298.95        36.53326
299.40        38.30301
299.85        40.15863
300.31        42.07348
300.76        43.98758
301.21        45.88821
301.67        47.79413
302.12        49.70842
302.58        51.74268
303.03        53.88662
303.48        56.15952
303.94        58.50364
304.39        60.77581
304.84        62.95113
305.30        65.07081
305.75          67.175
306.20        69.43391
306.66        71.85722
307.11        74.32269
307.57        76.72141
308.02        78.82066
308.47        80.60751
308.93        82.19878
309.38        83.65771
309.83        85.14396
310.29        86.76228
310.74        88.39129
311.19        90.01936
311.65        91.59023
312.10        93.05907
312.55        94.45127
313.00        95.74266
313.46        96.89406
313.91        97.88617
314.36        98.73764
314.82        99.50304
315.27        100.2639
315.72        101.0569
316.18        101.8705
316.63        102.6744
317.08        103.4167
317.53        104.0757
317.99        104.6581
318.44        105.1897
318.89        105.6946
319.35        106.1798
319.80        106.6518
320.25        107.0741
320.70        107.3971
321.16        107.6087
321.61        107.7397
322.06         107.872
322.51        108.1431
322.97         108.564
323.42        109.1392
323.87        109.7248
324.32        110.0977
324.78         110.187
325.23         110.094
325.68        109.9664
326.13         110.083
326.59        110.4843
327.04        111.1403
327.49        111.8579
327.94        112.3485
328.39        112.5293
328.85        112.4578
329.30        112.3389
329.75        112.3757
330.20        112.6444
330.66         113.036
331.11        113.5396
331.56         113.993
332.01        114.3495
332.46        114.6586
332.92        114.9001
333.37        115.1828
333.82        115.4841
334.27         115.794
334.72         116.131
335.17        116.5375
335.63        116.9848
336.08        117.5156
336.53        118.0878
336.98        118.6777
337.43        119.2627
337.88        119.8437
338.34        120.3384
338.79        120.6795
339.24        120.8407
339.69        120.8658
340.14        120.8775
340.59        121.0745
341.05        121.5018
341.50        122.1024
341.95        122.7884
342.40        123.4104
342.85        123.9099
343.30        124.3304
343.75        124.6541
344.20        124.8633
344.66        124.9778
345.11        124.9683
345.56        124.9348
346.01        125.0425
346.46        125.3247
346.91        125.7233
347.36        126.0794
347.81        126.2225
348.26        126.1298
348.72        125.5738
349.17        125.2727
349.62        125.0965
350.07        125.2735
350.52        125.6944
350.97        126.1675
351.42        126.3718
351.87        126.2111
352.32        125.7761
352.77        125.2332
353.22         124.836
353.67        124.6418
354.13        124.5858
354.58        124.4826
355.03        124.0999
355.48        123.3985
355.93         122.477
356.38         121.532
356.83        120.8477
357.28        120.4745
357.73        120.3124
358.18        120.1697
358.63        119.7459
359.08        118.9695
359.53        117.9426
359.98        116.8271
360.43        115.8654
360.88        115.1153
361.33        114.4964
361.78        113.9028
362.23        113.1707
362.68        112.2683
363.13         111.274
363.58        110.2622
364.03        109.3392
364.48        108.5319
364.93        107.7846
365.38        107.0832
365.83        106.4155
366.28        105.7555
366.73        105.1034
367.18        104.3895
367.63        103.5025
368.08        102.4404
368.53        101.2582
368.98         100.055
369.43        98.97197
369.88        98.04683
370.33        97.24168
370.78         96.5295
371.23        95.87283
371.68        95.25295
372.13        94.67596
372.58        94.12579
373.03        93.56255
373.48        92.96559
373.93        92.33687
374.38        91.65628
374.83         90.9146
375.28        90.13352
375.72        89.30978
376.17        88.54716
376.62        87.91525
377.07        87.40795
377.52        86.98795
377.97         86.5715
378.42        86.03209
378.87        85.35867
379.32        84.61457
379.77        83.86814
380.22        83.20081
380.67        82.62041
381.11        82.09084
381.56        81.59628
382.01         81.1385
382.46        80.71894
382.91        80.35251
383.36        79.98605
383.81        79.53092
384.26        78.97368
384.71        78.33354
385.15        77.69066
385.60        77.23859
386.05        76.98021
386.50        76.86012
386.95        76.75311
387.40        76.46761
387.85         75.9783
388.29        75.32123
388.74         74.7049
389.19        74.21848
389.64        73.87712
390.09        73.61768
390.54        73.39535
390.98         73.1312
391.43         72.8458
391.88        72.56134
392.33        72.26962
392.78        71.95956
393.23        71.63855
393.67        71.25099
394.12        70.92072
394.57        70.71002
395.02        70.59381
395.47        70.43346
395.91        70.21636
396.36        70.00117
396.81        69.79938
397.26        69.58485
397.71        69.34773
398.15        69.07025
398.60        68.83137
399.05        68.53651
399.50        68.25988
399.95        68.17634
400.39        68.23922
400.84        68.24746
401.29        68.14371
401.74        67.75685
402.18        67.22601
402.63        67.11395
403.08        67.33958
403.53        67.22038
403.97        66.72183
404.42        66.27328
404.87        65.96777
405.32        65.78376
405.76        65.73034
406.21         65.8218
406.66        65.95476
407.11        65.94284
407.55        65.76822
408.00        65.52267
408.45        65.26586
408.90        64.93056
409.34        64.59745
409.79        64.51707
410.24        64.61936
410.68        64.60233
411.13        64.43907
411.58        64.28452
412.03        64.16658
412.47        64.08421
412.92        64.02798
413.37        64.00723
413.81        63.99697
414.26         64.0138
414.71        64.03625
415.15        64.07618
415.60        64.10065
416.05        64.10976
416.49        64.10224
416.94        64.06795
417.39        64.01706
417.83        63.95776
418.28        63.89782
418.73        63.83607
419.17        63.76517
419.62        63.68343
420.07        63.58823
420.51        63.47502
420.96        63.38581
421.41        63.31397
421.85        63.23209
422.30         63.2435
422.74        63.28555
423.19        63.21659
423.64        63.08381
424.08        63.26573
424.53        63.63896
424.98        63.81432
425.42         63.7735
425.87        63.59566
426.31        63.41092
426.76        63.60493
427.21        64.07112
427.65        64.12039
428.10        63.76516
428.54        63.62301
428.99        63.73404
429.44        63.89525
429.88        63.99497
430.33        63.72866
430.77        63.24438
431.22        63.39886
431.66        64.05872
432.11        64.39444
432.56        64.35075
433.00        64.20606
433.45        63.84982
433.89         63.7797
434.34         64.1729
434.78        63.12806
435.23        63.20808
435.67        64.17286
436.12        64.24673
436.57        64.55959
437.01        64.44367
437.46         64.2663
437.90        64.69431
438.35        64.59705
438.79        64.53354
439.24        64.42919
439.68        64.41534
440.13        64.42741
440.57        64.45603
441.02        64.59853
441.46        64.80506
441.91        64.87116
442.35        64.80104
442.80        65.15726
443.24        65.77496
443.69        65.92239
444.13         65.5881
444.58        65.32923
445.02        65.22779
445.47        65.31326
445.91        65.51738
446.36        65.60091
446.80        65.53194
447.24        65.46627
447.69         65.4399
448.13         65.5284
448.58        65.53403
449.02        65.48643
449.47        65.34976
449.91        65.26062
450.36        65.24691
450.80        65.15472
451.25        65.03366
451.69        65.07353
452.13          65.227
452.58        65.17244
453.02        64.92459
453.47        64.79379
453.91        64.77658
454.36        64.72305
454.80        64.62543
455.24        64.49443
455.69        64.33794
456.13        64.30804
456.58        64.21909
457.02        64.04733
457.46        64.03069
457.91        64.02061
458.35        64.15238
458.79        64.13847
459.24         64.0137
459.68        63.85561
460.13        63.72091
460.57        63.55246
461.01        63.37294
461.46        63.51195
461.90        63.05893
462.34        63.42299
462.79        62.56327
463.23        62.67661
463.68        63.10217
464.12        62.93745
464.56        62.29769
465.01         62.4533
465.45        63.16719
465.89        63.12558
466.34        62.46475
466.78         62.3061
467.22        62.65335
467.67        62.60738
468.11        62.23224
468.55        62.03541
468.99         62.0523
469.44        61.99164
469.88        61.85031
470.32        61.74108
470.77        61.66574
471.21        61.58651
471.65        61.50465
472.10        61.43509
472.54        61.36213
472.98        61.30188
473.42        61.26558
473.87        61.20166
474.31        61.10322
474.75        61.20619
475.20        61.43621
475.64        61.32885
476.08        61.16402
476.52        61.04217
476.97        60.97455
477.41        61.14198
477.85        61.52494
478.29        60.86813
478.74        60.30957
479.18        61.03796
479.62        60.82346
480.06        61.09492
480.50        61.12298
480.95        61.10298
481.39        60.92214
481.83        61.42799
482.27         61.3921
482.72        61.04956
483.16        61.15526
483.60        61.40435
484.04        61.31325
484.48        60.99279
484.93        60.85612
485.37        60.91964
485.81        61.14874
486.25        61.39475
486.69        62.56657
487.14        62.52184
487.58        61.88406
488.02        61.25377
488.46        61.06876
488.90        60.88192
489.34        60.53169
489.79        60.10403
490.23        61.06552
490.67        61.14148
491.11        60.83506
491.55        60.70389
491.99        60.80109
492.43        60.79078
492.88        60.66669
493.32        60.62989
493.76        60.61427
494.20        60.57526
494.64        60.53788
495.08        60.11467
495.52        59.94608
495.96        60.06875
496.41        60.51451
496.85         60.5246
497.29        60.10292
497.73         60.1263
498.17        60.26428
498.61        60.34003
499.05        60.21359
499.49        60.06108
499.93        59.94946
500.37        59.90899
500.82        59.93386
501.26        60.08981
501.70        60.30982
502.14        60.07294
502.58        59.91464
503.02        59.79274
503.46        59.82322
503.90        59.84408
504.34        59.83139
504.78        59.86781
505.22        59.95363
505.66        60.02588
506.10        60.07101
506.54        60.13135
506.98        60.20727
507.42        59.86458
507.86        60.25137
508.30        59.65851
508.74         59.9009
509.18         59.7486
509.62        59.65351
510.06        59.60957
510.50        59.59937
510.94        59.54296
511.38        59.43748
511.82        59.38389
512.26        59.38143
512.70         59.3794
513.14        59.35794
513.58         59.3108
514.02        59.24442
514.46        59.13767
514.90        58.99387
515.34        58.95697
515.78        59.06401
516.22        58.87064
516.66        58.89494
517.10        59.19673
517.54        59.04285
517.98        59.13791
518.42        59.20171
518.86        59.23448
519.30        59.22343
519.74        59.14544
520.18        59.04578
520.62          59.068
521.06         59.1792
521.50        59.15381
521.93        58.99852
522.37        58.90974
522.81        58.89983
523.25         58.8604
523.69        58.79119
524.13        58.74511
524.57        58.72532
525.01        58.71302
525.45        58.72365
525.89        58.78197
526.32        58.88166
526.76        59.01635
527.20        59.13808
527.64         59.1736
528.08        59.11036
528.52        58.97625
528.96        58.82357
529.40        58.72669
529.83        58.70496
530.27        58.76503
530.71        58.86043
531.15        58.91428
531.59        58.90705
532.03        58.86381
532.46        58.80819
532.90         58.7893
533.34        58.81293
533.78        58.86467
534.22         58.9088
534.66        58.89346
535.09        58.80382
535.53        58.67869
535.97        58.55535
536.41        58.50724
536.85        58.54817
537.28        58.65259
537.72        58.77192
538.16        58.82911
538.60        58.80244
539.04        58.71841
539.47          58.599
539.91        58.52543
540.35        58.50039
540.79        58.51059
541.22        58.53519
541.66        58.55393
542.10        58.55694
542.54        58.55364
542.97         58.5549
543.41        58.60616
543.85        58.70177
544.29        58.82915
544.72        58.94534
545.16        59.02048
545.60        59.03114
546.04        58.97794
546.47        58.89965
546.91        58.87089
547.35        58.89209
547.79        58.94178
548.22        58.95885
548.66        58.85847
549.10        58.67546
549.53        58.56019
549.97        58.53943
550.41        58.50831
550.84        58.47432
551.28        58.49847
551.72        58.55289
552.15        58.60102
552.59        58.65411
553.03        58.51661
553.46        58.58309
553.90        58.53012
554.34        58.44994
554.77        58.44575
555.21        58.58627
555.65         58.2928
556.08        58.57357
556.52        58.67731
556.96        58.83005
557.39        58.76095
557.83        58.53259
558.27        58.48297
558.70        58.51858
559.14        58.51652
559.57        58.43875
560.01        58.46825
560.45        58.56124
560.88        58.56136
561.32         58.5223
561.75        58.45941
562.19        58.42668
562.63        58.54111
563.06        58.72099
563.50        58.58782
563.93        58.20871
564.37        58.11177
564.80        58.27186
565.24        58.35912
565.68        58.34674
566.11        58.38513
566.55        58.48311
566.98        58.56875
567.42        58.65472
567.85        58.68711
568.29        58.72254
568.72        58.82812
569.16        59.02502
569.60        59.13501
570.03         59.1734
570.47        59.24313
570.90        59.31457
571.34        59.28209
571.77        59.41623
572.21        59.37413
572.64        59.33778
573.08        59.39087
573.51        59.49819
573.95        59.65693
574.38        59.73336
574.82        60.04738
