SpectraSmart Spectrum 2.9.0.0
--------- Device Information -----------
Spectrum Name :  反射率_0
Saving Time :  2024/04/21 00:51:37
Spectro-Module Model Name : SE2030-DUVN
Spectro-Module Serial Number : OS361AC55029948
Wavelength Start : 200
Wavelength End : 1025
Wavelength Unit : Wavelength(nm)
Spectrum Unit : Reflectance(%)
-----------Spectrum Setting ------------
Integration Time : 20ms
Average : 10
Boxcar : 0
Background removal :  enabled
linearity correction :  enabled
SC :  disabled
Intensity correction :  disabled
DWT denoise :  enabled
savitzky-golay :  disabled
FFT :  disabled
Running average :  disabled
Kalman :  disabled
High pass :  disabled
---------------BEGIN--------------------
Wavelength(nm)             Reflectance(%)
200.29               0
200.75         2.08564
201.21        12.85313
201.67        17.75213
202.13        21.67668
202.58        25.83517
203.04        31.39594
203.50         37.2192
203.96        38.78596
204.42        33.89119
204.88        23.74611
205.34        12.16505
205.80        3.265842
206.26       -2.037675
206.72       -1.804578
207.18     0.009617768
207.64       -7.315247
208.10       -25.67311
208.55       -51.34686
209.01       -61.46768
209.47        -32.9549
209.93        5.333932
210.39        35.10912
210.85        53.24309
211.31        59.82808
211.77        57.48369
212.23        46.30735
212.69        21.35818
213.14       -22.35099
213.60       -93.68666
214.06       -277.4119
214.52       -649.8054
214.98       -269.5103
215.44       -65.59925
215.90       0.5669056
216.36        21.61881
216.81         22.4022
217.27        5.445031
217.73       -82.22554
218.19        970.8503
218.65        403.8182
219.11       -844.1029
219.57       -27.14702
220.02        23.75479
220.48        30.91184
220.94        22.18438
221.40       -6.017568
221.86       -72.11073
222.32       -114.6865
222.77       -55.26366
223.23       -3.382533
223.69        22.90587
224.15        32.04366
224.61        32.34416
225.06         28.6161
225.52        22.20093
225.98        14.57904
226.44        7.009638
226.90       -2.023582
227.36       -7.970239
227.81       -2.745351
228.27        9.354055
228.73        22.11229
229.19        30.62448
229.65        32.53187
230.10        29.02353
230.56        21.82876
231.02        12.33805
231.48        5.991038
231.93        6.684662
232.39        12.35643
232.85          18.713
233.31        22.06926
233.77        22.61988
234.22        22.04135
234.68        20.83172
235.14        19.82905
235.60        19.73986
236.05        19.45162
236.51        18.99869
236.97         24.4748
237.43        35.86794
237.88        43.06654
238.34        42.30404
238.80        63.04062
239.26        53.08692
239.71        50.54832
240.17        41.65569
240.63        32.55788
241.08        27.64392
241.54         30.3829
242.00        40.62811
242.46        47.21898
242.91        47.25859
243.37        41.71351
243.83        32.46563
244.28        27.68176
244.74         32.1069
245.20        40.83727
245.66        48.43281
246.11         50.0032
246.57        45.07051
247.03        35.40118
247.48         22.8972
247.94        10.91096
248.40       -1.165075
248.85       -22.74204
249.31       -77.38857
249.77       -109.9115
250.22       -24.43781
250.68        8.385994
251.14        19.04449
251.59        23.26475
252.05        25.75267
252.51        28.52367
252.96        30.94065
253.42         31.6253
253.88        30.35979
254.33        28.81027
254.79        31.74175
255.25        40.35116
255.70        50.25582
256.16        58.61041
256.62        64.18563
257.07        66.54609
257.53        67.09774
257.99        66.58125
258.44        65.33368
258.90        64.32694
259.35        63.13963
259.81        62.10184
260.27        60.97032
260.72         59.6291
261.18         58.4909
261.63        57.31891
262.09        56.33678
262.55        55.30283
263.00        54.11213
263.46        52.99983
263.91        51.86411
264.37        51.01499
264.83        50.37767
265.28        49.83637
265.74        49.39253
266.19        48.82835
266.65         48.1734
267.11        47.40771
267.56         46.5498
268.02        45.73226
268.47         44.9185
268.93        44.10209
269.38        43.18692
269.84        42.09672
270.30        40.82385
270.75        39.43692
271.21        38.06229
271.66        36.81454
272.12        35.77566
272.57        34.90117
273.03        34.20205
273.48        33.63719
273.94        33.19578
274.39        32.83325
274.85        32.52062
275.31        32.14435
275.76        31.66898
276.22        31.15169
276.67        30.60895
277.13        30.15637
277.58         29.7737
278.04         29.4628
278.49        29.15095
278.95        28.82498
279.40        28.42865
279.86         28.0035
280.31        27.53677
280.77         27.0978
281.22         26.6653
281.68        26.29284
282.13        25.90251
282.59        25.46128
283.04        24.95318
283.50        24.42883
283.95        24.00466
284.41        23.88257
284.86        24.06808
285.32        24.50026
285.77        24.97814
286.22        25.22934
286.68        25.22547
287.13        25.01317
287.59        24.81196
288.04        24.84916
288.50        25.14301
288.95        25.70817
289.41        26.40936
289.86        26.57676
290.32        26.10175
290.77        26.93112
291.22        26.05029
291.68        26.16094
292.13        26.40195
292.59        26.82581
293.04        27.42265
293.50         28.2488
293.95        29.31291
294.40        30.57857
294.86        31.98423
295.31        33.41186
295.77        34.82184
296.22        36.21661
296.68        37.62799
297.13        39.10681
297.58        40.68559
298.04        42.34693
298.49        44.08607
298.95        45.91853
299.40        47.81263
299.85        49.76678
300.31        51.73447
300.76        53.61362
301.21         55.3978
301.67        57.13589
302.12        58.86172
302.58        60.74715
303.03        62.78337
303.48        64.96269
303.94        67.21761
304.39        69.38152
304.84        71.41953
305.30         73.3905
305.75        75.28632
306.20        77.21503
306.66        79.19724
307.11        81.13433
307.57        83.02312
308.02        84.77715
308.47        86.40316
308.93        87.95973
309.38        89.39819
309.83        90.71792
310.29        91.96704
310.74        93.09607
311.19        94.16386
311.65        95.23175
312.10        96.29569
312.55        97.34888
313.00         98.3512
313.46        99.23987
313.91        99.98092
314.36        100.6013
314.82        101.1466
315.27        101.6768
315.72          102.22
316.18         102.764
316.63         103.272
317.08        103.6885
317.53        104.0007
317.99        104.2252
318.44        104.4174
318.89        104.6469
319.35        104.9299
319.80        105.2583
320.25        105.5761
320.70        105.7976
321.16        105.8974
321.61        105.9195
322.06        105.9328
322.51        106.0556
322.97        106.3001
323.42        106.6673
323.87        107.0593
324.32        107.3341
324.78        107.4326
325.23        107.4285
325.68        107.3943
326.13         107.482
326.59        107.7027
327.04        108.0664
327.49        108.4466
327.94        108.6704
328.39         108.695
328.85        108.5437
329.30        108.3975
329.75        108.4219
330.20        108.6709
330.66        109.0526
331.11         109.526
331.56        109.8796
332.01        110.0607
332.46        110.1292
332.92        110.1182
333.37        110.2306
333.82        110.4718
334.27        110.8033
334.72         111.205
335.17        111.6472
335.63        112.0782
336.08        112.5675
336.53        113.0697
336.98        113.5537
337.43        114.0063
337.88        114.4217
338.34        114.7774
338.79        115.1096
339.24           115.4
339.69        115.6471
340.14        115.8726
340.59        116.1116
341.05        116.3791
341.50        116.6885
341.95        117.0139
342.40        117.3132
342.85        117.5776
343.30        117.8111
343.75        118.0545
344.20        118.3795
344.66        118.7923
345.11        119.2339
345.56        119.6256
346.01         119.844
346.46        119.8767
346.91         119.768
347.36        119.5682
347.81        119.4178
348.26        119.3635
348.72        119.1471
349.17        119.2063
349.62        119.2999
350.07        119.5437
350.52         119.906
350.97        120.2294
351.42        120.2479
351.87        119.9038
352.32        119.2708
352.77        118.5524
353.22        118.0674
353.67         117.881
354.13        117.9133
354.58        117.9434
355.03         117.671
355.48        117.0318
355.93        116.1395
356.38        115.1854
356.83        114.4513
357.28        113.9925
357.73        113.7035
358.18        113.4329
358.63        112.9458
359.08        112.1911
359.53        111.2733
359.98        110.2937
360.43        109.3947
360.88        108.6191
361.33        107.9055
361.78        107.2521
362.23        106.6637
362.68        106.1209
363.13        105.6272
363.58        105.0909
364.03          104.36
364.48        103.4116
364.93        102.2879
365.38        101.1217
365.83        100.1381
366.28        99.39108
366.73         98.8107
367.18        98.28616
367.63        97.63643
368.08        96.81389
368.53         95.8892
368.98        94.91173
369.43        93.94127
369.88        93.00259
370.33        92.07159
370.78        91.17349
371.23        90.37558
371.68        89.69897
372.13        89.13079
372.58        88.63953
373.03        88.15247
373.48         87.6352
373.93        87.10291
374.38        86.52617
374.83        85.87509
375.28        85.16378
375.72        84.38587
376.17        83.65149
376.62        83.05353
377.07        82.59093
377.52        82.22192
377.97        81.85213
378.42        81.33494
378.87        80.65853
379.32         79.9003
379.77        79.14462
380.22        78.49461
380.67        77.96434
381.11        77.50872
381.56        77.10974
382.01        76.76259
382.46        76.45695
382.91        76.20093
383.36        75.92606
383.81        75.52216
384.26        74.97471
384.71        74.31501
385.15        73.63451
385.60        73.14251
386.05        72.85487
386.50        72.71683
386.95        72.62297
387.40        72.40921
387.85        72.04574
388.29        71.55122
388.74        71.09259
389.19        70.71849
389.64        70.43092
390.09        70.16904
390.54        69.90643
390.98        69.59885
391.43        69.28441
391.88        68.98833
392.33        68.67421
392.78        68.32404
393.23        67.95361
393.67        67.41856
394.12        66.91853
394.57        66.85926
395.02         67.1183
395.47        66.99947
395.91        66.51169
396.36        66.23248
396.81        66.19163
397.26        66.05747
397.71        65.81645
398.15        65.57214
398.60         65.3911
399.05        65.18137
399.50        65.00781
399.95         64.9292
400.39        64.94376
400.84        65.11108
401.29        65.28661
401.74        64.90737
402.18        64.08613
402.63        63.60937
403.08        63.51695
403.53         63.2312
403.97        62.77546
404.42        62.56334
404.87        62.55759
405.32        62.55229
405.76        62.51225
406.21        62.40499
406.66        62.27336
407.11        62.35897
407.55        62.57726
408.00        62.52182
408.45        62.18125
408.90        61.64771
409.34         61.1114
409.79        61.06742
410.24        61.38929
410.68        61.39721
411.13        61.05159
411.58        60.75957
412.03        60.59566
412.47        60.50208
412.92        60.48208
413.37        60.56281
413.81        60.67554
414.26        60.76544
414.71         60.7962
415.15        60.79011
415.60        60.74712
416.05        60.72633
416.49        60.74216
416.94        60.76466
417.39        60.76695
417.83        60.70486
418.28        60.57418
418.73        60.38928
419.17        60.18935
419.62        60.04755
420.07        59.98339
420.51         59.9747
420.96         60.0037
421.41        60.00031
421.85        59.93214
422.30        59.84622
422.74         59.7567
423.19        59.82113
423.64        60.00902
424.08        60.20098
424.53        60.31287
424.98        60.41328
425.42        60.49315
425.87        60.48293
426.31        60.41052
426.76        60.32699
427.21        60.25383
427.65        60.26207
428.10        60.29796
428.54        60.25356
428.99          60.152
429.44        60.04331
429.88        59.95543
430.33        59.93705
430.77        59.93748
431.22        60.13319
431.66        60.41457
432.11        60.39064
432.56         60.1571
433.00        60.10332
433.45        60.08538
433.89        60.22835
434.34        60.60303
434.78        59.50922
435.23        59.41171
435.67        60.13032
436.12        60.26856
436.57        60.37296
437.01        59.94739
437.46        59.92024
437.90        60.04699
438.35        60.55614
438.79          60.419
439.24        60.47219
439.68        60.46624
440.13        60.21641
440.57        59.86215
441.02        60.17271
441.46         60.9417
441.91        60.91278
442.35         60.2336
442.80        60.35248
443.24        61.10614
443.69        61.28886
444.13        60.86494
444.58        60.57695
445.02        60.49666
445.47         60.5972
445.91        60.79316
446.36        60.81719
446.80        60.63551
447.24        60.43175
447.69         60.3223
448.13        60.30592
448.58        60.60769
449.02        60.70248
449.47        60.63399
449.91        60.58763
450.36         60.5745
450.80        60.38025
451.25        60.09041
451.69        59.99831
452.13         60.0825
452.58        60.01455
453.02        59.78922
453.47        59.66457
453.91        59.63161
454.36        59.55381
454.80        59.42448
455.24        59.30833
455.69        59.22437
456.13        59.12238
456.58        59.03294
457.02        58.96181
457.46        58.88614
457.91        58.79046
458.35        58.76348
458.79        58.68941
459.24        58.59523
459.68        58.52771
460.13         58.5394
460.57        58.38652
461.01        58.04024
461.46        58.41393
461.90        58.05111
462.34        57.86527
462.79         57.6466
463.23        57.63501
463.68        57.82198
464.12        57.62053
464.56        57.18514
465.01        57.49082
465.45        58.24134
465.89        58.36419
466.34        57.92271
466.78        57.58826
467.22        57.37424
467.67        57.61245
468.11        56.74995
468.55         56.7803
468.99         57.1173
469.44        57.17274
469.88        56.89224
470.32        56.59128
470.77        56.37062
471.21         56.2186
471.65        56.16721
472.10        56.21499
472.54        56.28164
472.98        56.28199
473.42         56.2028
473.87        56.03031
474.31        55.81858
474.75        55.86602
475.20        56.11014
475.64        56.15527
476.08        56.00351
476.52        55.95534
476.97        55.99042
477.41        56.03215
477.85          56.021
478.29        55.83615
478.74         55.3148
479.18        55.45073
479.62        55.70541
480.06        55.88201
480.50        55.84572
480.95        55.79585
481.39        55.67702
481.83        56.14289
482.27        55.93406
482.72        56.06804
483.16        55.95056
483.60         56.2779
484.04        56.27533
484.48        55.89645
484.93        55.60706
485.37        55.83795
485.81         56.3603
486.25        56.15202
486.69        58.01628
487.14        58.27862
487.58        57.22585
488.02         56.0105
488.46        55.49933
488.90        55.50098
489.34        55.55472
489.79        55.08377
490.23        55.39714
490.67        55.52541
491.11        55.81747
491.55        55.67548
491.99        55.21766
492.43        55.03062
492.88        55.15848
493.32        55.34071
493.76        55.45126
494.20        55.53349
494.64        55.58813
495.08        55.19149
495.52        55.05484
495.96        55.12202
496.41        55.46083
496.85        55.42021
497.29        55.00687
497.73         54.9213
498.17        54.88459
498.61        54.95469
499.05        54.96326
499.49        54.76022
499.93        54.45858
500.37        54.38597
500.82        54.54493
501.26        54.89162
501.70        55.27581
502.14        55.00465
502.58        54.62613
503.02        54.43938
503.46        54.57114
503.90        54.66539
504.34        54.65908
504.78        54.67202
505.22        54.70629
505.66        54.65923
506.10        54.54459
506.54        54.54042
506.98        54.66932
507.42        54.09179
507.86        54.66664
508.30        53.91747
508.74        54.30577
509.18        54.19755
509.62        54.16389
510.06        54.15915
510.50         54.1557
510.94        54.09036
511.38        53.95982
511.82        53.87403
512.26        53.84038
512.70        53.81122
513.14        53.78574
513.58        53.78038
514.02        53.79239
514.46        53.81429
514.90        53.82517
515.34        53.84066
515.78        53.86257
516.22        53.83132
516.66        53.60856
517.10        53.87275
517.54        53.59151
517.98         53.5794
518.42        53.53547
518.86         53.4957
519.30        53.46172
519.74        53.40764
520.18        53.36321
520.62        53.43071
521.06        53.57067
521.50        53.57801
521.93        53.46708
522.37        53.43214
522.81        53.48253
523.25          53.509
523.69        53.48563
524.13        53.42308
524.57        53.32243
525.01        53.18652
525.45        53.06314
525.89        53.02746
526.32        53.08939
526.76        53.22676
527.20        53.38346
527.64        53.47096
528.08        53.46434
528.52        53.39251
528.96        53.28717
529.40        53.19194
529.83        53.12274
530.27        53.09253
530.71        53.08387
531.15        53.06785
531.59        53.04061
532.03        53.01913
532.46        53.00889
532.90        53.02698
533.34        53.06831
533.78        53.12069
534.22        53.16783
534.66         53.1879
535.09        53.16748
535.53        53.13181
535.97        53.07545
536.41        53.00493
536.85        52.92786
537.28        52.84639
537.72        52.77748
538.16         52.7488
538.60        52.76333
539.04        52.81249
539.47        52.86371
539.91           52.91
540.35        52.93019
540.79        52.93389
541.22        52.92264
541.66         52.9126
542.10         52.9051
542.54        52.89291
542.97        52.87901
543.41        52.89807
543.85        52.94514
544.29         53.0185
544.72        53.08183
545.16        53.11496
545.60        53.10244
546.04        53.02581
546.47        52.93043
546.91         52.9524
547.35        53.07233
547.79        53.13767
548.22        53.10812
548.66        53.07008
549.10        53.03175
549.53        52.95211
549.97        52.86827
550.41        52.84144
550.84        52.89111
551.28        52.96892
551.72        53.04015
552.15        53.15035
552.59        53.31898
553.03        53.11582
553.46        53.28416
553.90        53.20932
554.34        53.10978
554.77        52.96685
555.21        52.85402
555.65        52.84465
556.08        52.93285
556.52        53.15227
556.96        53.39891
557.39        53.43488
557.83        53.28512
558.27        53.17749
558.70         53.1395
559.14        53.07943
559.57        53.00296
560.01        53.04228
560.45        53.13563
560.88          53.117
561.32        53.03519
561.75        52.91395
562.19          52.837
562.63        52.97099
563.06        53.21989
563.50        53.18686
563.93         52.8984
564.37        52.74025
564.80        52.75031
565.24        52.88606
565.68        53.09404
566.11        53.21869
566.55        53.25118
566.98        53.32468
567.42        53.43491
567.85        53.37242
568.29        53.22645
568.72         53.2229
569.16        53.40567
569.60        53.52145
570.03        53.58965
570.47        53.75048
570.90        54.00181
571.34        53.96893
571.77        54.41504
572.21         54.4118
572.64        54.63141
573.08         54.4019
573.51        53.99594
573.95        54.24547
574.38        54.31514
574.82        54.83548
