SpectraSmart Spectrum 2.9.0.0
--------- Device Information -----------
Spectrum Name :  反射率_0
Saving Time :  2024/04/21 00:01:02
Spectro-Module Model Name : SE2030-DUVN
Spectro-Module Serial Number : OS361AC55029948
Wavelength Start : 200
Wavelength End : 1025
Wavelength Unit : Wavelength(nm)
Spectrum Unit : Reflectance(%)
-----------Spectrum Setting ------------
Integration Time : 20ms
Average : 10
Boxcar : 0
Background removal :  enabled
linearity correction :  enabled
SC :  disabled
Intensity correction :  disabled
DWT denoise :  enabled
savitzky-golay :  disabled
FFT :  disabled
Running average :  disabled
Kalman :  disabled
High pass :  disabled
---------------BEGIN--------------------
Wavelength(nm)             Reflectance(%)
200.29               0
200.75       -31.22044
201.21        16.43589
201.67        38.96144
202.13        43.45366
202.58        37.00856
203.04        23.16301
203.50        4.662246
203.96       -7.985126
204.42       -8.865447
204.88       -3.112746
205.34         7.64282
205.80        21.94398
206.26         40.2253
206.72        67.51536
207.18        93.12798
207.64         89.8959
208.10        48.08168
208.55       -22.92899
209.01       -79.75286
209.47       -64.86753
209.93       -16.28102
210.39        28.26427
210.85        58.29392
211.31        71.62199
211.77        72.52188
212.23        63.16954
212.69        39.48419
213.14       -1.306685
213.60       -64.42934
214.06       -221.2717
214.52       -535.1575
214.98       -214.9063
215.44       -43.86259
215.90        11.89489
216.36        30.55603
216.81        33.73124
217.27        25.67805
217.73       -22.18789
218.19        567.7728
218.65          256.42
219.11       -497.8384
219.57       -1.203176
220.02        30.33569
220.48         35.0607
220.94        30.39948
221.40        14.62176
221.86       -21.16443
222.32       -38.67815
222.77      -0.5375323
223.23        29.46451
223.69         43.4943
224.15        47.03062
224.61        44.89464
225.06        39.71931
225.52        32.71732
225.98        25.66138
226.44        19.66937
226.90        13.29572
227.36        9.708033
227.81        14.17496
228.27        23.20054
228.73        32.53479
229.19         38.3565
229.65         38.4996
230.10         33.6772
230.56        25.10254
231.02        14.20911
231.48        7.129532
231.93        8.145618
232.39        14.86936
232.85        22.34884
233.31        26.41415
233.77        27.27604
234.22        26.70699
234.68        25.35103
235.14        24.33247
235.60        24.42521
236.05        24.46166
236.51        24.29533
236.97        29.31127
237.43        39.46635
237.88        45.43792
238.34        43.56492
238.80        63.19712
239.26        52.88087
239.71        50.44502
240.17        42.12173
240.63         33.7249
241.08        29.29992
241.54        32.20503
242.00         42.5296
242.46        50.02454
242.91        52.38396
243.37        50.82608
243.83        46.59328
244.28        44.88515
244.74         48.1629
245.20         52.4283
245.66        55.12128
246.11        54.18619
246.57        49.27787
247.03        41.91301
247.48        31.13027
247.94        13.91841
248.40       -17.10012
248.85       -94.82947
249.31       -340.1295
249.77       -552.6072
250.22       -182.2922
250.68       -23.81532
251.14        29.26728
251.59        47.94605
252.05        54.51444
252.51        56.04906
252.96        51.52377
253.42        40.04423
253.88        26.06032
254.33        14.10914
254.79        12.63538
255.25        23.75353
255.70        39.14743
256.16        53.03836
256.62        62.74643
257.07        67.05201
257.53        67.97079
257.99        67.06786
258.44        65.05098
258.90        63.19204
259.35        61.23301
259.81        59.49814
260.27        57.89789
260.72        56.48701
261.18        55.59427
261.63        54.87279
262.09        54.39336
262.55        53.80329
263.00        52.99146
263.46        52.21291
263.91        51.39545
264.37        50.88015
264.83        50.56693
265.28        50.29327
265.74        50.02616
266.19        49.50401
266.65        48.76596
267.11        47.84186
267.56        46.76042
268.02        45.66427
268.47        44.55345
268.93        43.44135
269.38        42.33156
269.84        41.29479
270.30        40.33269
270.75        39.44713
271.21        38.62323
271.66        37.75776
272.12         36.8654
272.57        35.94921
273.03        35.09277
273.48        34.36707
273.94        33.80651
274.39        33.35214
274.85        32.95204
275.31        32.45933
275.76        31.84391
276.22        31.18439
276.67        30.56644
277.13        30.19557
277.58        30.04018
278.04        30.04853
278.49        30.02845
278.95         29.8029
279.40        29.29861
279.86        28.62753
280.31        27.87912
280.77        27.27589
281.22        26.82763
281.68        26.52809
282.13        26.25088
282.59        25.89426
283.04        25.41757
283.50        24.89929
283.95        24.44319
284.41         24.2302
284.86        24.27255
285.32        24.51559
285.77        24.80713
286.22        24.94855
286.68        24.92263
287.13        24.75801
287.59        24.62061
288.04        24.65296
288.50        24.85779
288.95        25.27834
289.41        25.83485
289.86        25.93613
290.32        25.48364
290.77        26.40498
291.22        25.60434
291.68        25.71922
292.13        25.86081
292.59        26.10302
293.04        26.47715
293.50        27.10559
293.95        28.01311
294.40        29.14172
294.86        30.38932
295.31        31.57583
295.77        32.65329
296.22        33.65458
296.68        34.65873
297.13        35.78558
297.58        37.08052
298.04        38.50027
298.49        40.00681
298.95         41.5633
299.40        43.12569
299.85        44.71239
300.31        46.29058
300.76        47.78312
301.21        49.19233
301.67        50.55827
302.12        51.92521
302.58        53.46759
303.03        55.18272
303.48        57.06623
303.94         59.0359
304.39        60.91013
304.84        62.65147
305.30         64.3175
305.75        65.94188
306.20        67.68134
306.66        69.55857
307.11        71.47217
307.57         73.3501
308.02        75.01677
308.47        76.46652
308.93        77.79412
309.38        79.04716
309.83        80.34701
310.29        81.79555
310.74        83.26526
311.19        84.72245
311.65        86.07249
312.10        87.26709
312.55        88.33809
313.00         89.3079
313.46        90.21449
313.91        91.05918
314.36        91.84551
314.82        92.57608
315.27        93.24928
315.72        93.88332
316.18        94.49156
316.63        95.10225
317.08         95.7588
317.53        96.45664
317.99        97.16417
318.44        97.83703
318.89        98.39086
319.35        98.80343
319.80        99.11324
320.25         99.3343
320.70        99.50011
321.16        99.62598
321.61        99.71735
322.06        99.82885
322.51        100.0552
322.97        100.3934
323.42        100.8579
323.87         101.326
324.32        101.6026
324.78        101.6302
325.23        101.5084
325.68        101.3575
326.13        101.4088
326.59        101.7022
327.04        102.2187
327.49        102.8377
327.94        103.3872
328.39        103.8028
328.85        104.0992
329.30        104.3707
329.75        104.6468
330.20        104.9485
330.66        105.2121
331.11        105.4947
331.56        105.7672
332.01         106.033
332.46        106.3115
332.92        106.5619
333.37        106.8449
333.82        107.1248
334.27        107.4107
334.72        107.7355
335.17        108.1546
335.63        108.6426
336.08         109.229
336.53        109.8411
336.98         110.408
337.43        110.8988
337.88         111.326
338.34        111.6636
338.79        111.9337
339.24        112.1312
339.69        112.2712
340.14        112.4113
340.59        112.6434
341.05        112.9946
341.50        113.4544
341.95        113.9837
342.40        114.5166
342.85        115.0171
343.30        115.4823
343.75        115.9053
344.20        116.2844
344.66        116.6263
345.11        116.9138
345.56        117.1298
346.01         117.252
346.46        117.2973
346.91        117.2715
347.36        117.2393
347.81        117.3501
348.26        117.6301
348.72         117.838
349.17        118.2532
349.62        118.4609
350.07        118.5393
350.52        118.5012
350.97        118.3829
351.42        118.2453
351.87        118.0995
352.32        117.9212
352.77         117.687
353.22        117.3597
353.67        116.9393
354.13        116.4786
354.58        115.9695
355.03        115.4475
355.48        114.9366
355.93        114.4305
356.38        113.9785
356.83        113.6526
357.28         113.439
357.73         113.295
358.18        113.1054
358.63        112.6906
359.08        112.0166
359.53        111.1495
359.98        110.1885
360.43        109.2863
360.88        108.4899
361.33         107.756
361.78        107.0728
362.23        106.4185
362.68        105.7802
363.13        105.1788
363.58        104.5694
364.03        103.8714
364.48        103.0714
364.93        102.1818
365.38        101.2826
365.83        100.5128
366.28        99.89807
366.73         99.3904
367.18        98.89601
367.63        98.26476
368.08        97.46549
368.53        96.55929
368.98         95.6096
369.43        94.70284
369.88        93.86355
370.33        93.05702
370.78        92.28806
371.23        91.58134
371.68        90.94553
372.13        90.38882
372.58        89.87095
373.03        89.30908
373.48        88.67727
373.93        87.98758
374.38        87.28449
374.83        86.65704
375.28        86.13157
375.72         85.6646
376.17        85.23541
376.62        84.74013
377.07        84.14805
377.52        83.47801
377.97         82.7795
378.42        82.15199
378.87        81.63859
379.32        81.22388
379.77        80.85416
380.22        80.43641
380.67        79.94096
381.11        79.39174
381.56        78.83727
382.01        78.38292
382.46        78.05787
382.91        77.82692
383.36         77.6067
383.81        77.27073
384.26        76.78957
384.71        76.20352
385.15        75.57877
385.60        75.07971
386.05        74.71854
386.50        74.45712
386.95        74.22392
387.40        73.91405
387.85        73.51501
388.29        73.02592
388.74        72.60603
389.19        72.28606
389.64        72.06323
390.09        71.89173
390.54        71.72407
390.98        71.47562
391.43        71.18015
391.88        70.87249
392.33        70.56844
392.78        70.31061
393.23        70.11388
393.67        69.84934
394.12        69.64482
394.57        69.68867
395.02        69.89052
395.47        69.84138
395.91        69.52936
396.36        69.25146
396.81        69.04792
397.26        68.77558
397.71        68.42068
398.15        68.07169
398.60        67.82149
399.05        67.41131
399.50        67.01791
399.95        67.23516
400.39        67.88078
400.84        68.10301
401.29        67.78674
401.74        67.17001
402.18         66.4694
402.63        66.17903
403.08        66.26641
403.53        66.06329
403.97        65.56341
404.42        65.28834
404.87        65.23423
405.32        65.17107
405.76        65.07735
406.21        64.95953
406.66        64.83228
407.11        64.86015
407.55        64.97098
408.00        64.82156
408.45        64.45381
408.90        64.02807
409.34        63.70988
409.79        63.88303
410.24        64.36395
410.68        64.46809
411.13        64.14169
411.58        63.76126
412.03        63.46083
412.47        63.32618
412.92         63.3875
413.37        63.61509
413.81        63.88545
414.26        64.06839
414.71        64.10509
415.15        64.05229
415.60        63.90749
416.05        63.72894
416.49        63.55113
416.94        63.35157
417.39        63.16605
417.83        63.04262
418.28        62.99217
418.73        63.00844
419.17         63.0532
419.62        63.06599
420.07        63.02968
420.51        62.95245
420.96        62.88615
421.41        62.87215
421.85        62.89317
422.30        62.95093
422.74        62.99752
423.19        63.10483
423.64        63.23377
424.08        63.32044
424.53        63.30692
424.98        63.32208
425.42        63.38937
425.87        63.33867
426.31        63.24202
426.76        63.41967
427.21        63.79966
427.65        63.93909
428.10         63.7812
428.54        63.65599
428.99         63.6068
429.44        63.47686
429.88         63.2751
430.33         63.1053
430.77        62.96975
431.22        63.07717
431.66         63.3677
432.11         63.5849
432.56        63.73447
433.00        63.89376
433.45        63.82312
433.89        63.72473
434.34        63.83139
434.78         62.5771
435.23        62.79477
435.67        63.62126
436.12        63.91192
436.57        64.05045
437.01        63.65572
437.46        63.39743
437.90        63.93899
438.35        64.29967
438.79        64.26911
439.24        64.30396
439.68        64.31976
440.13        64.17906
440.57        63.95409
441.02        64.10831
441.46        64.52902
441.91        64.48863
442.35        64.07838
442.80        64.32367
443.24        65.04888
443.69        65.25241
444.13        64.88013
444.58        64.57325
445.02        64.40671
445.47        64.37639
445.91        64.46179
446.36        64.51394
446.80        64.51573
447.24        64.58627
447.69        64.71754
448.13        64.93578
448.58        65.01514
449.02         64.9571
449.47        64.76122
449.91        64.66019
450.36        64.69731
450.80         64.6753
451.25        64.61736
451.69        64.68777
452.13        64.83117
452.58        64.73695
453.02        64.44531
453.47        64.30424
453.91        64.32574
454.36        64.33819
454.80        64.28992
455.24        64.21393
455.69        64.12568
456.13        63.92592
456.58        63.69562
457.02        63.76262
457.46          63.753
457.91        63.77487
458.35        63.78619
458.79         63.7233
459.24        63.63478
459.68        63.46917
460.13        63.28773
460.57        63.11721
461.01        62.99329
461.46        62.81381
461.90         62.8046
462.34        62.67875
462.79        62.67744
463.23         62.8008
463.68        63.00934
464.12        62.75668
464.56        62.20042
465.01        62.36406
465.45        62.96446
465.89        62.96243
466.34        62.47359
466.78        62.13046
467.22        61.94819
467.67        62.55212
468.11        62.00792
468.55        62.02459
468.99        62.01336
469.44        61.97502
469.88        61.88919
470.32        61.74033
470.77        61.57669
471.21        61.45404
471.65        61.39381
472.10        61.38383
472.54        61.37111
472.98         61.3313
473.42         61.2729
473.87        61.10504
474.31        60.86705
474.75        61.00624
475.20        61.44896
475.64        61.24621
476.08        61.13936
476.52        61.01057
476.97        61.05231
477.41        61.05442
477.85        61.01688
478.29        60.88742
478.74        60.60296
479.18        60.96938
479.62        60.77893
480.06        60.86229
480.50        60.90882
480.95        60.77951
481.39        60.41224
481.83        61.03023
482.27        61.03171
482.72        60.84988
483.16         61.2676
483.60        61.53818
484.04        61.43835
484.48        61.05733
484.93        61.19202
485.37        60.36237
485.81        60.91149
486.25         60.9636
486.69        61.81153
487.14        61.20185
487.58        60.73389
488.02        60.71642
488.46        60.36942
488.90        60.89706
489.34        60.41873
489.79        59.95544
490.23        60.50099
490.67         60.6631
491.11        60.80083
491.55        60.68696
491.99        60.41259
492.43        60.29005
492.88        60.33567
493.32        60.37112
493.76        60.32802
494.20        60.32677
494.64        60.39174
495.08        60.11147
495.52          60.075
495.96         60.1998
496.41        60.52475
496.85        60.40653
497.29        59.91169
497.73        59.92793
498.17        60.10672
498.61        60.25834
499.05        60.19036
499.49        59.92205
499.93        59.60255
500.37         59.5714
500.82        59.79729
501.26        60.11336
501.70        60.36891
502.14        59.96121
502.58        59.51261
503.02        59.27122
503.46        59.38131
503.90        59.51424
504.34        59.58122
504.78        59.64112
505.22        59.68108
505.66        59.63535
506.10        59.52662
506.54        59.58083
506.98        59.84282
507.42        59.55529
507.86        59.91834
508.30        59.96386
508.74        59.91583
509.18        59.85638
509.62        59.76428
510.06        59.67922
510.50        59.58558
510.94        59.42406
511.38        59.23877
511.82        59.16044
512.26        59.20142
512.70        59.30244
513.14        59.41749
513.58        59.48881
514.02        59.49416
514.46        59.44613
514.90         59.3615
515.34        59.31252
515.78         59.3182
516.22        59.32041
516.66        59.15591
517.10        59.41503
517.54        59.17529
517.98        59.17062
518.42        59.13648
518.86        59.10534
519.30        59.08117
519.74        59.02534
520.18        58.98505
520.62        59.10503
521.06        59.34265
521.50        59.46305
521.93        59.43967
522.37        59.42048
522.81        59.40564
523.25        59.29716
523.69         59.1249
524.13        58.99187
524.57        58.91853
525.01        58.87953
525.45        58.87765
525.89         58.9139
526.32        58.97912
526.76        59.07968
527.20        59.18631
527.64        59.25223
528.08        59.26582
528.52        59.23694
528.96        59.19278
529.40        59.17326
529.83        59.18474
530.27        59.24006
530.71        59.29999
531.15        59.30035
531.59        59.23094
532.03        59.12094
532.46        58.99591
532.90        58.90741
533.34         58.8667
533.78        58.86199
534.22        58.87645
534.66        58.88405
535.09        58.86815
535.53        58.85448
535.97        58.84087
536.41        58.84015
536.85        58.85265
537.28        58.86944
537.72        58.87963
538.16        58.86901
538.60        58.83511
539.04         58.7891
539.47        58.72481
539.91        58.68048
540.35        58.64774
540.79        58.62385
541.22        58.61361
541.66        58.63767
542.10        58.68947
542.54         58.7588
542.97        58.81852
543.41        58.85643
543.85        58.86326
544.29        58.85731
544.72        58.83003
545.16        58.81801
545.60         58.8151
546.04        58.75343
546.47        58.68048
546.91        58.77685
547.35        58.97461
547.79        59.05913
548.22        58.97816
548.66        58.75539
549.10        58.45799
549.53        58.47933
549.97         58.7605
550.41        58.85028
550.84        58.72692
551.28        58.64272
551.72        58.62099
552.15        58.65589
552.59        58.77899
553.03        58.62852
553.46        58.79268
553.90        58.74251
554.34        58.64775
554.77        58.49681
555.21        58.36197
555.65         58.3292
556.08        58.40237
556.52        58.58281
556.96         58.7853
557.39        58.88251
557.83        58.86162
558.27        58.75206
558.70        58.62478
559.14         58.5667
559.57        58.58968
560.01        58.78125
560.45        59.00163
560.88        58.89986
561.32        58.59053
561.75        58.34293
562.19        58.28015
562.63         58.5252
563.06        58.91735
563.50        58.87245
563.93        58.44098
564.37        58.24348
564.80        58.32592
565.24        58.51521
565.68        58.73329
566.11        58.84919
566.55        58.85353
566.98        58.86176
567.42        58.89364
567.85        58.80665
568.29        58.67699
568.72        58.63287
569.16        58.72367
569.60        58.76698
570.03        58.80017
570.47        58.91789
570.90         59.1026
571.34        59.01302
571.77        59.29514
572.21         59.0372
572.64        59.21755
573.08        58.55739
573.51        58.97052
573.95        59.34114
574.38        59.29739
574.82        59.32037
