SpectraSmart Spectrum 2.9.0.0
--------- Device Information -----------
Spectrum Name :  反射率_0
Saving Time :  2024/04/21 00:46:27
Spectro-Module Model Name : SE2030-DUVN
Spectro-Module Serial Number : OS361AC55029948
Wavelength Start : 200
Wavelength End : 1025
Wavelength Unit : Wavelength(nm)
Spectrum Unit : Reflectance(%)
-----------Spectrum Setting ------------
Integration Time : 20ms
Average : 10
Boxcar : 0
Background removal :  enabled
linearity correction :  enabled
SC :  disabled
Intensity correction :  disabled
DWT denoise :  enabled
savitzky-golay :  disabled
FFT :  disabled
Running average :  disabled
Kalman :  disabled
High pass :  disabled
---------------BEGIN--------------------
Wavelength(nm)             Reflectance(%)
200.29               0
200.75        24.80258
201.21        37.93645
201.67        42.01559
202.13        41.79856
202.58         38.8504
203.04        33.61949
203.50        26.96905
203.96        22.29249
204.42        21.31206
204.88        22.63344
205.34        24.44539
205.80        23.63628
206.26        19.31173
206.72        13.68889
207.18        5.903041
207.64       -5.526268
208.10       -17.63413
208.55        -29.2625
209.01       -26.69551
209.47       0.7550371
209.93        30.73366
210.39        52.53307
210.85        65.99419
211.31        72.63204
211.77        75.04708
212.23        74.81926
212.69        70.36897
213.14        57.70219
213.60        24.48274
214.06       -91.24363
214.52       -395.3151
214.98       -170.5409
215.44       -14.24049
215.90        40.60646
216.36        58.50418
216.81        58.11504
217.27        40.47734
217.73        -46.0461
218.19        996.2776
218.65        448.4092
219.11       -912.4059
219.57       -16.02194
220.02        41.01641
220.48        51.10898
220.94        45.38884
221.40        22.48524
221.86       -32.71921
222.32       -68.31731
222.77       -18.53631
223.23        24.95844
223.69        46.38803
224.15        52.48014
224.61        50.25283
225.06        43.79139
225.52        35.18745
225.98        27.48731
226.44        22.32726
226.90        17.88842
227.36        16.61626
227.81         22.0935
228.27        30.72917
228.73        39.20984
229.19        44.54937
229.65        45.16235
230.10        41.79878
230.56        35.57093
231.02        27.60723
231.48         22.5105
231.93        23.37874
232.39        28.43031
232.85         33.8527
233.31        36.35954
233.77        36.12295
234.22        34.63358
234.68        32.33625
235.14        30.10332
235.60        28.68903
236.05        27.05371
236.51        25.43699
236.97        29.93758
237.43        40.65176
237.88        48.05554
238.34        48.40831
238.80        67.12554
239.26        57.30616
239.71         52.8757
240.17        41.16045
240.63        28.41161
241.08        19.79597
241.54        19.59913
242.00        29.26401
242.46        37.72705
242.91        42.39935
243.37        45.42836
243.83        48.16518
244.28        53.28791
244.74        60.18512
245.20        65.26589
245.66         65.5924
246.11        58.58892
246.57        44.50604
247.03        24.88215
247.48        1.647645
247.94       -22.47757
248.40       -51.26391
248.85       -109.3782
249.31       -263.0967
249.77       -325.8011
250.22        -70.9149
250.68        18.41925
251.14        42.52375
251.59        45.52485
252.05         38.9384
252.51        23.93639
252.96        1.388337
253.42        -14.6395
253.88       -11.86131
254.33        3.772305
254.79        24.41025
255.25        41.47698
255.70        52.27332
256.16        58.99272
256.62         62.4811
257.07        63.29435
257.53        62.89637
257.99        61.73405
258.44        60.02664
258.90        58.67623
259.35        57.27351
259.81        56.05394
260.27        54.99491
260.72        54.18089
261.18        53.79504
261.63        53.43018
262.09        52.93259
262.55         51.7241
263.00        49.82785
263.46        47.71605
263.91        45.63818
264.37        44.33568
264.83        43.76606
265.28        43.59378
265.74         43.6073
266.19        43.35195
266.65        42.79548
267.11        42.03791
267.56        41.10316
268.02        40.11172
268.47        39.06949
268.93        37.96755
269.38        36.85741
269.84        35.89529
270.30        35.09699
270.75        34.44376
271.21        33.85278
271.66        33.11564
272.12        32.22791
272.57         31.2364
273.03        30.29084
273.48         29.5708
273.94        29.12087
274.39        28.83842
274.85        28.61691
275.31        28.23459
275.76        27.64946
276.22        26.98066
276.67        26.32631
277.13        25.89444
277.58        25.67646
278.04          25.609
278.49        25.56788
278.95        25.46014
279.40        25.21261
279.86        24.89219
280.31        24.48506
280.77        24.04944
281.22        23.58069
281.68        23.13326
282.13        22.68846
282.59        22.29222
283.04        21.93824
283.50        21.64555
283.95        21.45771
284.41        21.46016
284.86         21.6355
285.32        21.95006
285.77        22.27211
286.22        22.42847
286.68        22.40629
287.13        22.22104
287.59        22.02681
288.04        21.95459
288.50        22.01312
288.95        22.28155
289.41        22.70002
289.86        22.68461
290.32        22.14339
290.77        23.08609
291.22        22.29208
291.68        22.54037
292.13        22.89313
292.59        23.40494
293.04        24.05776
293.50        24.89674
293.95         25.9291
294.40        27.12077
294.86        28.39655
295.31        29.62461
295.77        30.77785
296.22        31.87646
296.68        33.02012
297.13        34.36076
297.58        35.94589
298.04        37.73152
298.49        39.63112
298.95        41.52364
299.40         43.3504
299.85        45.15521
300.31        46.97151
300.76        48.82475
301.21         50.7381
301.67        52.71968
302.12        54.75267
302.58        56.92491
303.03        59.21695
303.48         61.6585
303.94        64.21663
304.39        66.77604
304.84        69.30489
305.30        71.82146
305.75        74.30201
306.20        76.83612
306.66        79.42435
307.11        81.96815
307.57        84.42391
308.02        86.64569
308.47        88.64734
308.93        90.51923
309.38        92.28275
309.83        94.05347
310.29        95.89227
310.74        97.71559
311.19        99.52721
311.65        101.3069
312.10        103.0122
312.55        104.6478
313.00        106.1641
313.46        107.4876
313.91        108.5875
314.36        109.4977
314.82        110.2887
315.27        111.0607
315.72        111.8662
316.18         112.697
316.63        113.5315
317.08        114.3281
317.53         115.069
317.99        115.7595
318.44        116.4246
318.89        117.0853
319.35        117.7354
319.80        118.3665
320.25         118.924
320.70        119.3343
321.16        119.5772
321.61        119.6969
322.06        119.7641
322.51        119.9014
322.97        120.1283
323.42        120.4631
323.87        120.8295
324.32        121.1145
324.78        121.2696
325.23        121.3737
325.68        121.4797
326.13        121.7084
326.59        122.0553
327.04        122.5349
327.49         123.039
327.94        123.4309
328.39        123.6726
328.85        123.7744
329.30        123.8698
329.75        124.0278
330.20        124.2852
330.66        124.5672
331.11        124.9402
331.56        125.3534
332.01        125.7926
332.46        126.2722
332.92        126.6958
333.37        127.0625
333.82        127.3113
334.27        127.4669
334.72        127.6238
335.17        127.9471
335.63        128.4413
336.08         129.124
336.53        129.8734
336.98        130.5407
337.43        131.0655
337.88        131.4744
338.34        131.7683
338.79        132.0277
339.24        132.2537
339.69        132.4465
340.14          132.61
340.59        132.7559
341.05        132.9012
341.50        133.0668
341.95        133.3079
342.40        133.7089
342.85        134.2687
343.30        134.9439
343.75        135.6155
344.20        136.1014
344.66         136.363
345.11        136.4265
345.56        136.3837
346.01        136.3899
346.46        136.5033
346.91         136.651
347.36        136.7697
347.81        136.8797
348.26        136.9798
348.72        136.6525
349.17        136.7154
349.62        136.6267
350.07        136.6321
350.52        136.6812
350.97         136.688
351.42        136.5062
351.87        136.1004
352.32        135.5223
352.77        134.8867
353.22         134.363
353.67        133.9868
354.13        133.7288
354.58        133.4481
355.03        132.9752
355.48        132.2827
355.93        131.4405
356.38        130.5833
356.83        129.9111
357.28        129.4471
357.73        129.0959
358.18        128.7303
358.63         128.157
359.08        127.3265
359.53        126.3202
359.98        125.1881
360.43         123.996
360.88         122.787
361.33        121.5504
361.78        120.3614
362.23        119.3423
362.68         118.513
363.13        117.8456
363.58        117.2289
364.03        116.4744
364.48         115.531
364.93        114.4431
365.38        113.2977
365.83        112.2474
366.28        111.3326
366.73        110.4977
367.18        109.6862
367.63        108.8121
368.08        107.8563
368.53        106.8684
368.98        105.8608
369.43         104.831
369.88        103.7827
370.33        102.7046
370.78        101.6472
371.23        100.7231
371.68        99.96169
372.13        99.32996
372.58        98.75171
373.03         98.0868
373.48        97.28838
373.93         96.3977
374.38        95.44215
374.83         94.4854
375.28        93.57437
375.72        92.68288
376.17        91.88227
376.62        91.19077
377.07        90.59238
377.52        90.05949
377.97        89.52271
378.42        88.96359
378.87        88.39258
379.32        87.68636
379.77        86.84358
380.22        86.59803
380.67        85.73353
381.11        85.20309
381.56        84.64402
382.01         84.1091
382.46        83.60637
382.91        83.15736
383.36         82.7414
383.81        82.28705
384.26        81.78239
384.71        81.23781
385.15        80.69379
385.60        80.28136
386.05         79.9914
386.50        79.79066
386.95        79.58807
387.40        79.24911
387.85         78.7638
388.29        78.14388
388.74        77.58772
389.19        77.16499
389.64        76.88215
390.09        76.68179
390.54        76.50391
390.98        76.24234
391.43          75.915
391.88        75.55223
392.33        75.17249
392.78        74.79436
393.23        74.43324
393.67        74.05367
394.12        73.75848
394.57        73.51091
395.02        73.30784
395.47        73.15952
395.91        73.04919
396.36        72.89401
396.81        72.70283
397.26        72.53797
397.71        72.36565
398.15        72.11057
398.60        71.85146
399.05        71.46242
399.50        71.08466
399.95        71.05276
400.39         71.2856
400.84        71.43022
401.29        71.35828
401.74        70.80392
402.18        69.97244
402.63        69.71162
403.08        69.96816
403.53        69.83973
403.97        69.29848
404.42         68.9381
404.87        68.81124
405.32        68.75713
405.76        68.76749
406.21        68.84885
406.66        68.92139
407.11        68.96954
407.55        68.93749
408.00        68.58054
408.45         68.0219
408.90        67.66734
409.34        67.58843
409.79        67.64679
410.24        67.75932
410.68        67.83535
411.13          67.839
411.58        67.81143
412.03        67.76343
412.47        67.71391
412.92        67.64742
413.37        67.57063
413.81        67.48136
414.26        67.43252
414.71        67.41165
415.15        67.42811
415.60        67.43782
416.05        67.42171
416.49        67.37259
416.94        67.28693
417.39        67.18401
417.83        67.08219
418.28        66.99383
418.73        66.91969
419.17        66.83983
419.62        66.73348
420.07        66.59924
420.51        66.43623
420.96        66.32296
421.41         66.3147
421.85        66.38621
422.30         66.5869
422.74        66.79359
423.19        66.86177
423.64        66.78358
424.08        66.77782
424.53         66.8202
424.98        66.84183
425.42        66.86842
425.87        66.90839
426.31        66.97739
426.76        67.14755
427.21        67.37301
427.65        67.46739
428.10        67.39706
428.54        67.35575
428.99        67.38596
429.44        67.36029
429.88        67.28088
430.33        67.26526
430.77        67.26617
431.22        67.40517
431.66        67.60291
432.11        67.66913
432.56        67.61774
433.00        67.46632
433.45        67.19501
433.89        67.14846
434.34         67.5881
434.78        67.06342
435.23        67.61162
435.67        67.43543
436.12        68.11308
436.57        68.14095
437.01        67.94629
437.46        67.73936
437.90        68.27621
438.35        68.21848
438.79        68.44755
439.24        68.45532
439.68        68.46883
440.13        68.42976
440.57        68.33727
441.02         68.4164
441.46        68.59917
441.91        68.38884
442.35        67.92152
442.80        68.35126
443.24        69.47599
443.69        69.75519
444.13        69.04854
444.58        69.33157
445.02        69.01998
445.47        68.79179
445.91         69.0074
446.36        68.91847
446.80        68.78075
447.24        68.67239
447.69        68.66417
448.13         68.9127
448.58        69.15072
449.02        69.21555
449.47         69.0743
449.91        69.04984
450.36        69.17094
450.80        69.16308
451.25        69.04695
451.69        69.03518
452.13        69.07899
452.58        68.83674
453.02        68.39622
453.47        68.19874
453.91        68.27217
454.36         68.4178
454.80        68.51939
455.24        68.53926
455.69        68.47558
456.13        68.15058
456.58        67.72092
457.02        67.85447
457.46        68.06628
457.91        67.95391
458.35        67.55813
458.79        67.35007
459.24        67.38963
459.68        67.34514
460.13         67.2524
460.57        67.09898
461.01        66.88697
461.46        66.79778
461.90        66.87076
462.34        66.31103
462.79        66.50296
463.23        66.51697
463.68        66.67319
464.12        66.50583
464.56        66.08842
465.01        66.14226
465.45        66.49147
465.89        66.37285
466.34         65.8852
466.78        65.80579
467.22        66.14863
467.67        65.91388
468.11        65.73723
468.55        65.51762
468.99        65.46742
469.44        65.35612
469.88        65.19163
470.32         65.0625
470.77        64.96166
471.21        64.85661
471.65        64.74284
472.10         64.6337
472.54        64.53302
472.98        64.46534
473.42        64.45012
473.87        64.46915
474.31        64.44193
474.75        64.45098
475.20        64.55681
475.64        64.13065
476.08        64.51342
476.52         64.4635
476.97        64.36077
477.41         64.3131
477.85        64.31274
478.29        64.24274
478.74        63.97212
479.18        64.07835
479.62        64.15583
480.06         64.2419
480.50         64.2536
480.95        64.22558
481.39        64.08448
481.83        64.32457
482.27        64.48515
482.72        63.94089
483.16        64.17773
483.60        64.29116
484.04        64.17704
484.48        64.03471
484.93        64.27733
485.37         64.2897
485.81        64.20721
486.25        63.62901
486.69        65.38379
487.14        65.63129
487.58         64.6538
488.02        63.88291
488.46        64.30744
488.90        63.95108
489.34        63.96359
489.79        63.32067
490.23        63.83083
490.67        63.95293
491.11        64.07006
491.55        63.98566
491.99        63.74536
492.43        63.62262
492.88        63.62315
493.32        63.61002
493.76        63.53959
494.20        63.52261
494.64        63.57994
495.08        63.38488
495.52        63.44966
495.96        63.50667
496.41        63.62449
496.85        63.57981
497.29        63.37038
497.73        63.33784
498.17        63.16235
498.61        63.30626
499.05        63.55205
499.49        63.25304
499.93        62.61483
500.37        62.66801
500.82        63.31458
501.26        63.65403
501.70        63.57729
502.14        63.17434
502.58        63.07023
503.02        62.77924
503.46        62.81528
503.90        62.79431
504.34        62.78704
504.78        62.82368
505.22        62.91306
505.66        62.95462
506.10        62.92349
506.54        63.02281
506.98        63.29079
507.42        62.66405
507.86        63.24257
508.30        62.75964
508.74        62.90934
509.18        62.76114
509.62        62.65972
510.06        62.61162
510.50         62.5911
510.94        62.53352
511.38        62.42782
511.82        62.35469
512.26        62.31483
512.70        62.26159
513.14        62.21079
513.58        62.20794
514.02        62.25589
514.46        62.34193
514.90        62.42019
515.34        62.45348
515.78        62.43316
516.22        62.34401
516.66         62.0796
517.10          62.297
517.54        62.15467
517.98        62.29903
518.42        62.42085
518.86        62.45176
519.30        62.37253
519.74        62.17873
520.18        61.97105
520.62        61.98025
521.06        62.18564
521.50        62.31913
521.93        62.33135
522.37        62.34266
522.81        62.34031
523.25        62.23306
523.69        62.05977
524.13        61.93779
524.57        61.88924
525.01        61.87889
525.45        61.89786
525.89        61.93292
526.32        61.97099
526.76        62.02257
527.20        62.07151
527.64        62.09128
528.08        62.07643
528.52        62.03558
528.96        61.98285
529.40        61.93479
529.83        61.89827
530.27        61.90124
530.71        61.92588
531.15        61.94142
531.59        61.94144
532.03         61.9341
532.46        61.92865
532.90        61.95314
533.34        62.00285
533.78        62.06893
534.22        62.11267
534.66        62.07634
535.09        61.94646
535.53        61.76664
535.97        61.58118
536.41        61.47672
536.85        61.47488
537.28        61.54767
537.72        61.64405
538.16        61.71679
538.60        61.74862
539.04        61.69276
539.47        61.54494
539.91        61.68217
540.35        61.56758
540.79        61.61466
541.22        61.64523
541.66        61.65438
542.10        61.63237
542.54        61.59695
542.97        61.56801
543.41        61.59274
543.85        61.66961
544.29        61.78525
544.72        61.90191
545.16        62.00109
545.60        62.05808
546.04        62.06002
546.47        62.02837
546.91        62.03294
547.35        62.05654
547.79        62.03961
548.22         61.9589
548.66        61.81653
549.10        61.66901
549.53        61.66433
549.97        61.78566
550.41         61.8283
550.84        61.78536
551.28         61.7424
551.72         61.6946
552.15         61.7036
552.59        61.81096
553.03        61.51109
553.46         61.6777
553.90         61.6086
554.34        61.55326
554.77         61.5062
555.21        61.51361
555.65        61.51126
556.08        61.64465
556.52        61.78927
556.96        61.93268
557.39        62.00536
557.83        61.99994
558.27        61.88825
558.70        61.72164
559.14        61.62239
559.57         61.5973
560.01        61.67196
560.45        61.77685
560.88        61.71781
561.32        61.56601
561.75        61.51021
562.19        61.59237
562.63        61.64661
563.06        61.64491
563.50        61.65913
563.93        61.65854
564.37        61.57146
564.80        61.42912
565.24        61.47456
565.68         61.6661
566.11        61.74607
566.55        61.72205
566.98        61.71905
567.42        61.74299
567.85        61.75354
568.29         61.8096
568.72        61.76188
569.16        61.62655
569.60        62.05211
570.03        61.89545
570.47        62.05914
570.90        62.14687
571.34        62.28074
571.77        62.44421
572.21        62.32812
572.64        62.50246
573.08         62.3488
573.51          62.341
573.95         62.6843
574.38        62.50079
574.82        62.91213
