SpectraSmart Spectrum 2.9.0.0
--------- Device Information -----------
Spectrum Name :  反射率_0
Saving Time :  2024/04/21 00:18:04
Spectro-Module Model Name : SE2030-DUVN
Spectro-Module Serial Number : OS361AC55029948
Wavelength Start : 200
Wavelength End : 1025
Wavelength Unit : Wavelength(nm)
Spectrum Unit : Reflectance(%)
-----------Spectrum Setting ------------
Integration Time : 20ms
Average : 10
Boxcar : 0
Background removal :  enabled
linearity correction :  enabled
SC :  disabled
Intensity correction :  disabled
DWT denoise :  enabled
savitzky-golay :  disabled
FFT :  disabled
Running average :  disabled
Kalman :  disabled
High pass :  disabled
---------------BEGIN--------------------
Wavelength(nm)             Reflectance(%)
200.29               0
200.75       -40.27577
201.21       -1.931266
201.67        19.19255
202.13        27.94547
202.58        29.63717
203.04        27.36151
203.50        22.59491
203.96        18.77517
204.42        17.31855
204.88        16.38111
205.34        13.86234
205.80        5.894079
206.26        -9.42011
206.72       -29.99061
207.18       -55.28127
207.64       -82.25509
208.10       -102.6461
208.55       -115.2061
209.01       -101.9981
209.47       -54.59409
209.93       -7.983908
210.39        24.59063
210.85        44.37067
211.31        54.48549
211.77        58.97027
212.23        60.08576
212.69        56.01921
213.14        40.91306
213.60       -1.488317
214.06       -150.7088
214.52       -547.2956
214.98       -260.6032
215.44       -57.34591
215.90        14.04333
216.36        38.67841
216.81        42.49865
217.27        30.39078
217.73       -36.58866
218.19        786.9471
218.65        359.7276
219.11       -764.9669
219.57       -22.37886
220.02        25.35566
220.48        33.87091
220.94        29.51859
221.40        11.88892
221.86       -30.01151
222.32       -54.64188
222.77       -14.12455
223.23        19.34128
223.69        35.79868
224.15        41.23849
224.61        41.01028
225.06        38.26168
225.52        33.62953
225.98        27.55629
226.44        20.82534
226.90        12.35787
227.36        6.510284
227.81         11.0504
228.27        22.13094
228.73        33.74539
229.19        41.32674
229.65        42.62994
230.10        38.65428
230.56        30.92773
231.02        20.69176
231.48        13.47291
231.93        13.46147
232.39        18.66433
232.85        25.06413
233.31        29.25892
233.77        31.37046
234.22         32.9738
234.68        34.11419
235.14        34.63515
235.60        34.80751
236.05        33.85486
236.51        32.31575
236.97        36.49191
237.43        46.73507
237.88         54.1929
238.34        55.74771
238.80        72.87548
239.26        66.27943
239.71        64.44872
240.17        57.26728
240.63        49.41988
241.08        44.62039
241.54        45.35765
242.00        52.74823
242.46        60.00303
242.91        65.99974
243.37        72.32689
243.83        79.86112
244.28        88.04266
244.74        94.19669
245.20        97.15929
245.66        95.55219
246.11        88.07399
246.57        75.09705
247.03        56.84189
247.48        36.04027
247.94        17.46668
248.40       0.3847434
248.85       -25.09004
249.31       -81.72359
249.77       -108.8712
250.22       -19.86325
250.68        13.90409
251.14        24.39529
251.59        27.80094
252.05        29.04764
252.51        29.48025
252.96         30.4571
253.42        36.39057
253.88        47.63975
254.33        60.42026
254.79        71.85817
255.25        78.95522
255.70        82.26855
256.16        84.04484
256.62        85.17684
257.07        86.32827
257.53         88.0014
257.99        89.38586
258.44        89.97728
258.90        90.28076
259.35        89.65626
259.81        88.89883
260.27        87.65973
260.72        85.70359
261.18        83.77589
261.63        81.64116
262.09        79.87129
262.55        78.32788
263.00        76.83019
263.46         75.5968
263.91        74.35318
264.37         73.3576
264.83        72.47729
265.28        71.60355
265.74        70.82438
266.19        69.90868
266.65        68.92898
267.11        67.84702
267.56        66.63864
268.02        65.40556
268.47        64.11115
268.93         62.7893
269.38        61.43368
269.84         60.1245
270.30        58.86028
270.75        57.63218
271.21        56.44712
271.66        55.21724
272.12        53.98173
272.57        52.74512
273.03         51.5812
273.48         50.5078
273.94        49.56575
274.39        48.67968
274.85        47.88005
275.31        47.11688
275.76        46.35688
276.22        45.66162
276.67        44.96523
277.13        44.29968
277.58        43.60912
278.04        42.94524
278.49        42.27505
278.95        41.68779
279.40        41.12008
279.86        40.59523
280.31        40.02816
280.77        39.42484
281.22        38.73664
281.68        38.05766
282.13        37.35112
282.59        36.67238
283.04         36.0055
283.50        35.38749
283.95        34.86943
284.41        34.58019
284.86        34.50925
285.32        34.64233
285.77        34.83161
286.22        34.90112
286.68        34.83404
287.13        34.62473
287.59        34.44874
288.04        34.45583
288.50        34.65863
288.95        35.08239
289.41        35.60125
289.86        35.59413
290.32         34.9854
290.77        35.49948
291.22        34.55416
291.68        34.64355
292.13        35.01479
292.59        35.68007
293.04        36.54816
293.50        37.54339
293.95        38.63386
294.40        39.82252
294.86        41.09798
295.31        42.42656
295.77        43.79678
296.22        45.17797
296.68        46.58477
297.13        48.03752
297.58        49.55734
298.04        51.13711
298.49         52.7692
298.95        54.46495
299.40        56.19422
299.85        57.96325
300.31        59.73395
300.76        61.40883
301.21        62.99563
301.67        64.55596
302.12         66.1363
302.58        67.93575
303.03        69.94211
303.48        72.13663
303.94        74.43816
304.39        76.65508
304.84        78.73803
305.30        80.74408
305.75        82.65344
306.20        84.56559
306.66        86.51466
307.11        88.42271
307.57        90.29533
308.02        92.04633
308.47        93.69814
308.93        95.30247
309.38        96.87046
309.83        98.51293
310.29        100.2517
310.74        102.0117
311.19        103.7051
311.65        105.1767
312.10        106.3757
312.55        107.3584
313.00        108.2291
313.46        109.1613
313.91        110.1823
314.36        111.2538
314.82        112.3099
315.27        113.2308
315.72        114.0024
316.18        114.6697
316.63         115.286
317.08        115.9359
317.53        116.6316
317.99         117.325
318.44        117.9762
318.89        118.5103
319.35        118.9062
319.80        119.2097
320.25        119.4276
320.70         119.577
321.16        119.6691
321.61        119.7169
322.06        119.7845
322.51        119.9814
322.97          120.31
323.42        120.7966
323.87         121.305
324.32         121.623
324.78        121.6817
325.23        121.5746
325.68        121.4521
326.13        121.6046
326.59        122.0637
327.04        122.7972
327.49        123.5759
327.94        124.0554
328.39        124.1433
328.85         123.914
329.30        123.6218
329.75        123.5383
330.20        123.7678
330.66        124.1855
331.11        124.7723
331.56        125.3331
332.01        125.8037
332.46        126.2337
332.92        126.5949
333.37        126.9982
333.82        127.4099
334.27        127.8173
334.72        128.2164
335.17         128.618
335.63        128.9946
336.08        129.4126
336.53        129.8879
336.98        130.4955
337.43        131.2357
337.88        132.0795
338.34        132.8804
338.79        133.4682
339.24        133.7736
339.69        133.8637
340.14        133.8845
340.59        134.0768
341.05        134.5033
341.50         135.096
341.95         135.772
342.40        136.3929
342.85        136.9054
343.30        137.3608
343.75          137.74
344.20        138.0155
344.66        138.2048
345.11        138.2771
345.56        138.3336
346.01        138.5432
346.46        138.9416
346.91        139.4539
347.36        139.9077
347.81        140.1585
348.26         140.188
348.72        139.5937
349.17        139.4079
349.62        139.2823
350.07        139.5334
350.52        140.0301
350.97        140.5608
351.42        140.7628
351.87        140.5378
352.32        140.0167
352.77        139.3745
353.22        138.8756
353.67        138.5906
354.13        138.4413
354.58        138.3106
355.03        138.0767
355.48        137.6944
355.93        137.2134
356.38        136.6664
356.83        136.0895
357.28        135.4909
357.73        134.8476
358.18        134.1455
358.63        133.3783
359.08        132.5587
359.53        131.7098
359.98         130.858
360.43        130.0286
360.88        129.2243
361.33        128.4359
361.78        127.6541
362.23        126.8651
362.68        126.0664
363.13        125.2658
363.58        124.4484
364.03        123.5919
364.48        122.6882
364.93          121.73
365.38        120.7584
365.83        119.8442
366.28        119.0001
366.73        118.2129
367.18        117.4081
367.63         116.465
368.08        115.3768
368.53        114.2026
368.98        113.0456
369.43          112.05
369.88        111.2423
370.33        110.5675
370.78        109.9619
371.23        109.3312
371.68        108.6449
372.13        107.9334
372.58        107.2114
373.03        106.4887
373.48        105.7658
373.93        105.0323
374.38         104.294
374.83        103.5772
375.28        102.9011
375.72         102.249
376.17        101.6604
376.62        101.0919
377.07         100.519
377.52        99.92643
377.97         99.3173
378.42        98.71835
378.87        98.14603
379.32        97.60561
379.77        97.05824
380.22        96.42994
380.67        95.70077
381.11        94.89372
381.56        94.07172
382.01         93.3748
382.46        92.85287
382.91        92.47929
383.36         92.1625
383.81        91.75433
384.26        91.21703
384.71        90.58942
385.15        89.95013
385.60        89.49055
386.05        89.21597
386.50        89.07204
386.95        88.93463
387.40        88.62373
387.85        88.11292
388.29        87.41476
388.74        86.77803
389.19        86.31119
389.64         86.0316
390.09         85.8873
390.54        85.75033
390.98         85.4024
391.43         84.8551
391.88        84.17565
392.33        83.53558
392.78        83.12176
393.23        82.94949
393.67        83.03114
394.12        83.26602
394.57        82.96036
395.02        82.32468
395.47        81.94798
395.91        81.90593
396.36        81.64167
396.81        81.19852
397.26        80.95976
397.71        80.86693
398.15        80.68398
398.60        80.48693
399.05        80.08131
399.50         79.6433
399.95        79.79041
400.39        80.33289
400.84        80.34409
401.29        79.76165
401.74         78.9612
402.18        78.21032
402.63        78.00551
403.08         78.2589
403.53        78.16713
403.97        77.67297
404.42        77.33556
404.87        77.20969
405.32         77.0947
405.76        76.97647
406.21        77.01102
406.66         77.0731
407.11        76.79255
407.55        76.25068
408.00        75.85129
408.45        75.69205
408.90        75.57684
409.34        75.46415
409.79        75.38634
410.24        75.28489
410.68        75.13831
411.13        74.93185
411.58        74.60693
412.03        74.23872
412.47        74.04855
412.92        74.05205
413.37        74.18539
413.81         74.3485
414.26        74.45792
414.71        74.45988
415.15        74.40177
415.60        74.27166
416.05        74.11965
416.49        73.96858
416.94        73.79328
417.39        73.61239
417.83        73.44417
418.28        73.29791
418.73        73.18152
419.17        73.06657
419.62        72.91019
420.07        72.70728
420.51        72.46342
420.96        72.26815
421.41        72.18363
421.85        72.18723
422.30        72.34847
422.74         72.5369
423.19        72.56375
423.64        72.42994
424.08        72.44683
424.53        72.56371
424.98        72.56931
425.42        72.47338
425.87        72.39944
426.31         72.3621
426.76         72.3037
427.21        72.21455
427.65        72.14056
428.10        72.07034
428.54        72.00105
428.99        71.97413
429.44        72.00745
429.88        72.02415
430.33         71.9485
430.77         71.7449
431.22        71.60002
431.66        71.50815
432.11        71.52007
432.56        71.65051
433.00        71.52371
433.45        70.96421
433.89        70.88412
434.34        71.40779
434.78        70.21024
435.23        70.06213
435.67        70.84358
436.12        71.25179
436.57        71.43507
437.01         70.9327
437.46        70.61768
437.90        71.26406
438.35        71.19385
438.79        71.30405
439.24        71.19506
439.68        71.09184
440.13        70.86167
440.57        70.58549
441.02        70.60151
441.46        70.80737
441.91        70.79722
442.35        70.56222
442.80        70.60773
443.24        70.87249
443.69        71.15824
444.13        71.31853
444.58        71.18172
445.02        70.79556
445.47        70.60235
445.91        70.64269
446.36        70.62852
446.80        70.55021
447.24        70.63317
447.69        70.81583
448.13        70.87974
448.58         70.6481
449.02        70.52908
449.47        70.47684
449.91        70.34199
450.36         70.1576
450.80         69.9341
451.25        69.75426
451.69         69.7875
452.13        69.98207
452.58        69.99458
453.02        69.80278
453.47        69.68322
453.91        69.62644
454.36        69.47588
454.80        69.23202
455.24        69.00319
455.69        68.83066
456.13        68.60865
456.58        68.42186
457.02        68.37151
457.46        68.57905
457.91        68.43752
458.35        68.15649
458.79         68.0428
459.24        68.16428
459.68        68.18793
460.13         68.0929
460.57        68.24531
461.01        67.89066
461.46        67.87276
461.90        67.65926
462.34        67.37975
462.79        67.36388
463.23        67.13577
463.68        67.52511
464.12        67.33974
464.56         66.9149
465.01          66.989
465.45        67.38635
465.89        67.47001
466.34        67.23916
466.78        66.99442
467.22        66.78609
467.67        66.67564
468.11        66.27856
468.55        66.15572
468.99         66.1604
469.44        66.11282
469.88        65.99499
470.32        65.90388
470.77         65.8482
471.21        65.77782
471.65        65.69524
472.10        65.62633
472.54        65.53745
472.98        65.43045
473.42        65.31638
473.87        65.11877
474.31        64.88575
474.75        64.99951
475.20        65.35202
475.64        65.37627
476.08        65.09769
476.52        64.97782
476.97        64.99329
477.41        65.00515
477.85        65.02768
478.29        64.67392
478.74           64.59
479.18        64.81023
479.62        64.73963
480.06        64.81672
480.50         64.8233
480.95         64.7953
481.39        64.67027
481.83        64.88811
482.27        64.95353
482.72        64.80938
483.16        64.88046
483.60        65.20152
484.04        65.03262
484.48        64.82175
484.93        65.19551
485.37        64.24102
485.81         65.0593
486.25        65.02009
486.69        66.58122
487.14        66.61436
487.58        65.39487
488.02        65.05258
488.46        64.42847
488.90        64.82403
489.34        64.01331
489.79        63.76588
490.23        64.32154
490.67        64.34591
491.11        64.10089
491.55        63.93058
491.99         63.8964
492.43        63.80831
492.88        63.67436
493.32        63.61589
493.76        63.58596
494.20        63.58657
494.64        63.64066
495.08        63.38549
495.52        63.37006
495.96        63.55729
496.41        63.96639
496.85        63.92911
497.29        63.47032
497.73        63.47261
498.17        63.56519
498.61        63.54684
499.05        63.30766
499.49        63.01934
499.93        62.80459
500.37        62.93869
500.82        63.37484
501.26        63.44786
501.70        63.88799
502.14        63.48545
502.58        63.12901
503.02        62.88702
503.46        62.91224
503.90        62.95789
504.34        62.94548
504.78        62.93063
505.22        62.90566
505.66         62.8142
506.10         62.6943
506.54        62.70722
506.98        62.87763
507.42        62.57257
507.86        63.18059
508.30        62.66731
508.74        62.93694
509.18        62.74751
509.62        62.58404
510.06        62.47843
510.50        62.42633
510.94        62.33804
511.38         62.2056
511.82        62.12693
512.26        62.10114
512.70        62.08242
513.14        62.06319
513.58        62.04851
514.02        62.03335
514.46        62.01363
514.90        61.97971
515.34        61.95434
515.78        61.94407
516.22        61.91955
516.66        61.73046
517.10        61.96564
517.54        61.76189
517.98        61.79064
518.42        61.79893
518.86        61.81348
519.30        61.83071
519.74        61.81121
520.18        61.77984
520.62        61.85137
521.06        61.98161
521.50        61.94371
521.93        61.75705
522.37        61.65033
522.81        61.64279
523.25        61.60995
523.69        61.54999
524.13        61.51721
524.57        61.51136
525.01        61.51471
525.45        61.53077
525.89        61.56371
526.32         61.6064
526.76        61.66183
527.20        61.70199
527.64        61.68632
528.08        61.60997
528.52        61.48934
528.96        61.36531
529.40        61.29303
529.83        61.28456
530.27        61.35552
530.71        61.45332
531.15        61.49059
531.59         61.4506
532.03        61.36233
532.46        61.26962
532.90        61.25606
533.34        61.33006
533.78        61.45977
534.22        61.58696
534.66        61.62512
535.09        61.54822
535.53        61.40866
535.97        61.24286
536.41         61.1238
536.85        61.07399
537.28        61.07275
537.72        61.10107
538.16        61.12864
538.60        61.14328
539.04        61.15858
539.47        61.16188
539.91        61.18335
540.35        61.20821
540.79        61.22911
541.22         61.2445
541.66        61.26871
542.10        61.29698
542.54         61.3257
542.97        61.33528
543.41        61.32765
543.85         61.2952
544.29        61.24977
544.72        61.19446
545.16        61.17015
545.60        61.17308
546.04        61.17974
546.47        61.19619
546.91        61.26926
547.35        61.37727
547.79        61.44047
548.22        61.42182
548.66        61.40158
549.10        61.35084
549.53        61.23294
549.97        61.08789
550.41        61.01351
550.84         61.0181
551.28        61.08198
551.72        61.18015
552.15        61.20895
552.59        61.14205
553.03        61.26007
553.46        61.15577
553.90         61.0617
554.34        60.83342
554.77          60.938
555.21        60.63933
555.65        60.65248
556.08        60.74987
556.52        60.91846
556.96        61.07817
557.39        61.18427
557.83        61.20429
558.27        61.01708
558.70        60.71674
559.14        60.55694
559.57        60.55855
560.01        60.71727
560.45        60.91782
560.88        60.84562
561.32         60.6067
561.75        60.55712
562.19        60.73504
562.63        60.89523
563.06        60.96289
563.50        60.90945
563.93        60.74515
564.37        60.59046
564.80        60.48543
565.24        60.55097
565.68        60.74538
566.11        60.84617
566.55         60.8497
566.98         60.9325
567.42        61.07925
567.85        61.00096
568.29        60.80125
568.72        60.80519
569.16        61.06872
569.60        61.17313
570.03        61.26955
570.47         61.4981
570.90        61.87494
571.34        61.80225
571.77        61.99503
572.21        62.19049
572.64        61.93282
573.08        61.59903
573.51        61.84038
573.95        62.29387
574.38        62.16402
574.82        62.46014
