SpectraSmart Spectrum 2.9.0.0
--------- Device Information -----------
Spectrum Name :  反射率_0
Saving Time :  2024/04/21 00:26:29
Spectro-Module Model Name : SE2030-DUVN
Spectro-Module Serial Number : OS361AC55029948
Wavelength Start : 200
Wavelength End : 1025
Wavelength Unit : Wavelength(nm)
Spectrum Unit : Reflectance(%)
-----------Spectrum Setting ------------
Integration Time : 20ms
Average : 10
Boxcar : 0
Background removal :  enabled
linearity correction :  enabled
SC :  disabled
Intensity correction :  disabled
DWT denoise :  enabled
savitzky-golay :  disabled
FFT :  disabled
Running average :  disabled
Kalman :  disabled
High pass :  disabled
---------------BEGIN--------------------
Wavelength(nm)             Reflectance(%)
200.29               0
200.75        77.48164
201.21        73.42377
201.67        68.46668
202.13        65.50925
202.58        63.85935
203.04        62.83619
203.50        62.91343
203.96        65.53313
204.42        70.32466
204.88        75.83128
205.34        81.22242
205.80        85.73969
206.26        89.34316
206.72        92.66335
207.18        91.86765
207.64        79.49501
208.10        54.88505
208.55        22.35649
209.01        1.178561
209.47        14.21944
209.93        40.44412
210.39        63.09803
210.85        77.81249
211.31         83.7551
211.77        82.97039
212.23         76.0013
212.69         59.5107
213.14        30.32978
213.60       -19.32344
214.06         -152.62
214.52       -438.0569
214.98       -166.9913
215.44       -13.65792
215.90        37.05571
216.36        53.06136
216.81        52.51242
217.27        36.56217
217.73       -41.75712
218.19        897.5718
218.65        397.7549
219.11       -770.2331
219.57       -3.306521
220.02        45.69456
220.48        55.59977
220.94        53.45732
221.40        39.79417
221.86        5.120541
222.32       -18.40703
222.77        11.84028
223.23        38.72666
223.69        51.71518
224.15        54.61846
224.61        51.78291
225.06        45.83354
225.52        38.39391
225.98        31.88109
226.44          27.516
226.90        23.76212
227.36        22.29522
227.81        25.68013
228.27        31.43595
228.73        37.35189
229.19        40.91201
229.65         40.4353
230.10        36.34201
230.56        29.62214
231.02        21.40577
231.48        16.25987
231.93        17.31533
232.39        22.80472
232.85        28.70324
233.31        31.57272
233.77        31.62128
234.22        30.34325
234.68        28.33221
235.14        26.72088
235.60         26.3272
236.05         26.1081
236.51        25.99479
236.97        31.30765
237.43        41.88849
237.88        48.63017
238.34        48.28576
238.80        67.35499
239.26        59.56635
239.71        58.71712
240.17        52.68829
240.63        46.08852
241.08        41.90886
241.54        42.48753
242.00        48.46295
242.46        52.04351
242.91        51.34744
243.37        47.39857
243.83        41.75171
244.28        39.86172
244.74        44.30592
245.20        51.00695
245.66        56.48026
246.11        57.87059
246.57        54.96615
247.03        49.27221
247.48         40.8913
247.94        29.60982
248.40        12.00969
248.85       -29.94852
249.31       -154.5267
249.77        -236.112
250.22       -38.48867
250.68        38.54748
251.14        62.69637
251.59        70.45188
252.05        72.43886
252.51        71.06733
252.96        65.50544
253.42        56.76317
253.88        48.11932
254.33        41.27268
254.79         39.9814
255.25        44.01165
255.70        49.63258
256.16        54.97775
256.62        58.58989
257.07        59.67985
257.53        59.38765
257.99        58.33249
258.44        56.72657
258.90        55.41945
259.35        54.00702
259.81        52.69246
260.27        51.43561
260.72        50.32035
261.18         49.5893
261.63        48.93779
262.09        48.24873
262.55        47.01804
263.00        45.25048
263.46        43.33284
263.91        41.51294
264.37        40.49586
264.83        40.21465
265.28        40.33963
265.74        40.57436
266.19        40.37294
266.65        39.70469
267.11        38.70606
267.56        37.53078
268.02        36.49255
268.47        35.63419
268.93         34.8921
269.38        34.16845
269.84        33.38046
270.30        32.49951
270.75        31.58323
271.21        30.71765
271.66        29.95607
272.12        29.33753
272.57        28.81306
273.03        28.35306
273.48        27.88554
273.94        27.40679
274.39        26.90452
274.85        26.41696
275.31        25.94013
275.76        25.47023
276.22        25.03447
276.67        24.61665
277.13         24.2608
277.58        23.93903
278.04        23.66698
278.49        23.39902
278.95        23.13732
279.40        22.84083
279.86        22.53775
280.31        22.20632
280.77        21.89028
281.22        21.56983
281.68        21.29213
282.13        21.01153
282.59        20.72941
283.04         20.4306
283.50        20.13932
283.95        19.91633
284.41         19.8738
284.86        20.00812
285.32        20.28432
285.77        20.57059
286.22        20.68804
286.68        20.62625
287.13         20.4088
287.59        20.20374
288.04        20.16199
288.50        20.28893
288.95        20.65566
289.41        21.17428
289.86         21.2173
290.32        20.67742
290.77        21.60348
291.22        20.72976
291.68        20.91554
292.13         21.2132
292.59        21.67854
293.04        22.26188
293.50        22.95996
293.95        23.77774
294.40        24.69378
294.86        25.70602
295.31        26.79688
295.77        27.95344
296.22        29.15852
296.68        30.39799
297.13        31.65018
297.58        32.92727
298.04        34.23737
298.49        35.61314
298.95        37.12486
299.40        38.76065
299.85        40.50288
300.31        42.27944
300.76        43.95758
301.21        45.52648
301.67        47.05526
302.12        48.61027
302.58        50.38917
303.03        52.40017
303.48        54.62227
303.94        56.97512
304.39        59.28348
304.84        61.49609
305.30        63.65659
305.75        65.76099
306.20        67.91251
306.66        70.12104
307.11        72.29419
307.57        74.39416
308.02        76.29908
308.47        78.01957
308.93        79.64196
309.38        81.18119
309.83        82.71253
310.29        84.32022
310.74        85.89317
311.19        87.44597
311.65        88.96059
312.10        90.40073
312.55        91.77859
313.00        93.03425
313.46        94.07609
313.91        94.88366
314.36        95.50172
314.82        96.04836
315.27         96.7013
315.72        97.51384
316.18        98.44132
316.63        99.39029
317.08         100.205
317.53        100.8345
317.99        101.3166
318.44        101.7125
318.89        102.1071
319.35        102.5258
319.80         102.949
320.25        103.3376
320.70        103.6386
321.16        103.8375
321.61        103.9814
322.06        104.1235
322.51        104.3496
322.97        104.6668
323.42        105.0855
323.87        105.5372
324.32        105.9262
324.78         106.203
325.23        106.4273
325.68        106.6272
326.13        106.8852
326.59        107.1937
327.04        107.5743
327.49        107.9558
327.94        108.2587
328.39         108.464
328.85        108.5753
329.30        108.6965
329.75        108.8616
330.20        109.0961
330.66        109.3456
331.11        109.6788
331.56        110.0674
332.01        110.5041
332.46        110.9934
332.92        111.4457
333.37        111.8543
333.82        112.1598
334.27        112.3841
334.72        112.6047
335.17        112.9575
335.63        113.4462
336.08        114.0914
336.53        114.7944
336.98        115.4381
337.43        115.9767
337.88        116.4332
338.34        116.8098
338.79        117.1767
339.24        117.5283
339.69        117.8539
340.14        118.1512
340.59        118.4235
341.05         118.684
341.50        118.9581
341.95        119.2754
342.40        119.6786
342.85        120.1726
343.30        120.7368
343.75        121.3262
344.20        121.8752
344.66        122.3638
345.11        122.7757
345.56        123.1246
346.01        123.4384
346.46        123.7322
346.91        123.9814
347.36        124.1565
347.81        124.2925
348.26        124.4085
348.72        124.2334
349.17        124.3299
349.62        124.3945
350.07        124.5951
350.52        124.8797
350.97        125.1538
351.42        125.2532
351.87          125.13
352.32        124.8376
352.77         124.456
353.22        124.1071
353.67        123.8305
354.13        123.6134
354.58         123.392
355.03        123.1194
355.48        122.7841
355.93        122.4079
356.38        122.0387
356.83        121.7413
357.28         121.513
357.73        121.3132
358.18        121.0592
358.63        120.6295
359.08        120.0015
359.53        119.2217
359.98        118.3657
360.43         117.545
360.88        116.7924
361.33        116.0802
361.78        115.3828
362.23        114.6585
362.68        113.8985
363.13        113.1276
363.58        112.3528
364.03         111.577
364.48        110.8012
364.93        110.0176
365.38        109.2357
365.83        108.4776
366.28        107.7454
366.73        107.0301
367.18        106.3131
367.63        105.5664
368.08        104.7853
368.53        103.9842
368.98        103.1684
369.43        102.3345
369.88        101.4821
370.33        100.6131
370.78         99.7468
371.23        98.93301
371.68        98.19821
372.13        97.53561
372.58         96.9427
373.03        96.39908
373.48        95.87882
373.93        95.37431
374.38        94.84709
374.83        94.24677
375.28        93.57541
375.72        92.84047
376.17        92.11684
376.62        91.43085
377.07        90.78574
377.52        90.16149
377.97        89.56785
378.42        89.03562
378.87        88.57694
379.32        88.19128
379.77        87.83054
380.22        87.40984
380.67        86.89947
381.11         86.3134
381.56        85.68813
382.01        85.11935
382.46        84.64462
382.91        84.24889
383.36        83.87244
383.81         83.4184
384.26        82.86716
384.71        82.25056
385.15        81.63549
385.60         81.1881
386.05        80.90862
386.50        80.75015
386.95        80.60637
387.40        80.31946
387.85        79.86767
388.29        79.26464
388.74        78.71342
389.19        78.28668
389.64         77.9944
390.09        77.78316
390.54        77.58752
390.98        77.29222
391.43        76.91944
391.88        76.50806
392.33        76.10397
392.78        75.74979
393.23        75.45699
393.67        75.21215
394.12         75.0803
394.57        74.87651
395.02        74.63383
395.47        74.59328
395.91         74.6937
396.36        74.59107
396.81        74.27145
397.26        73.92747
397.71        73.61113
398.15         73.2713
398.60        72.99409
399.05        72.77744
399.50        72.63596
399.95        72.41458
400.39         72.1543
400.84        72.26723
401.29        72.60491
401.74        72.18852
402.18        71.19256
402.63        70.89681
403.08         71.2696
403.53        71.21937
403.97        70.71008
404.42        70.39731
404.87        70.31248
405.32        70.23955
405.76        70.16065
406.21        70.13499
406.66        70.12202
407.11        70.03071
407.55        69.85859
408.00        69.70169
408.45         69.5687
408.90        69.16447
409.34        68.63499
409.79        68.61991
410.24        68.98642
410.68        69.07429
411.13        68.85266
411.58        68.59367
412.03        68.33229
412.47        68.53881
412.92        68.33472
413.37        68.43588
413.81        68.53745
414.26        68.65679
414.71        68.75572
415.15        68.85973
415.60        68.92117
416.05        68.89736
416.49        68.79102
416.94        68.61137
417.39        68.41523
417.83        68.28469
418.28        68.24209
418.73        68.25739
419.17        68.30454
419.62        68.34693
420.07        68.36954
420.51        68.38293
420.96        68.39108
421.41        68.36631
421.85        68.28963
422.30        68.15698
422.74        68.00628
423.19         68.1304
423.64         68.4636
424.08        68.69039
424.53        68.70958
424.98        68.76428
425.42        68.85646
425.87        68.78873
426.31        68.63561
426.76        68.60156
427.21        68.71053
427.65        68.92979
428.10        69.13362
428.54        69.19099
428.99        69.11651
429.44        68.93597
429.88        68.71841
430.33         68.6572
430.77        68.69202
431.22        68.85973
431.66        69.07053
432.11         69.1146
432.56        69.08186
433.00        69.12702
433.45        69.04715
433.89        69.20591
434.34         69.7749
434.78        68.36522
435.23         68.7443
435.67        69.66405
436.12        70.00925
436.57        70.09512
437.01        69.47408
437.46        69.19743
437.90        70.07034
438.35        69.79499
438.79        70.29597
439.24        70.26138
439.68        70.22382
440.13        69.99546
440.57        69.72472
441.02        69.90846
441.46        70.40849
441.91        70.62165
442.35        70.47649
442.80        70.56551
443.24        70.81808
443.69        70.93484
444.13         70.8773
444.58        70.69492
445.02        70.46561
445.47        70.56299
445.91        70.91428
446.36        71.08286
446.80        71.03194
447.24        70.97832
447.69        70.96261
448.13         71.0871
448.58        71.15921
449.02        71.03523
449.47        70.76582
449.91        70.68198
450.36        70.81531
450.80        71.03299
451.25        71.23665
451.69        71.12445
452.13        70.76202
452.58        70.55973
453.02        70.52983
453.47        70.40303
453.91        70.18148
454.36         70.0677
454.80        70.04868
455.24        70.00951
455.69        69.95896
456.13        69.90228
456.58        69.80706
457.02        69.86093
457.46        69.85809
457.91        69.81377
458.35         69.7821
458.79        69.68791
459.24        69.56716
459.68        69.44176
460.13         69.4025
460.57         69.1828
461.01        68.74915
461.46         69.1768
461.90        69.00585
462.34        68.51305
462.79          68.438
463.23        68.58474
463.68        69.10878
464.12        68.98727
464.56        68.35781
465.01        68.37528
465.45        68.86121
465.89        68.96096
466.34         68.6866
466.78        68.46927
467.22        68.37167
467.67         68.3157
468.11        68.05457
468.55        68.05846
468.99        68.17506
469.44        68.14021
469.88        67.92915
470.32         67.6627
470.77        67.41664
471.21        67.25256
471.65        67.19935
472.10        67.25277
472.54        67.32596
472.98        67.31995
473.42        67.21955
473.87        67.02097
474.31        66.79308
474.75        66.85629
475.20        67.15527
475.64        67.31518
476.08        67.28916
476.52        67.25786
476.97        67.18769
477.41        67.08459
477.85        66.97248
478.29        66.55611
478.74        66.33923
479.18        66.41788
479.62        66.93713
480.06        67.13319
480.50        66.97754
480.95        66.91302
481.39        66.98225
481.83        66.80101
482.27        66.92255
482.72        67.22298
483.16        67.02911
483.60        67.33352
484.04        67.09255
484.48        66.77247
484.93        66.80392
485.37        66.74998
485.81        66.85887
486.25        66.46117
486.69        68.05476
487.14        68.71313
487.58        67.46005
488.02        67.25929
488.46        66.69973
488.90        66.37421
489.34        66.51695
489.79        66.07536
490.23        66.57488
490.67        66.58045
491.11        66.49919
491.55        66.26888
491.99        65.99481
492.43        65.87083
492.88        65.91598
493.32        66.08468
493.76        66.26907
494.20         66.3944
494.64        66.43414
495.08        66.17789
495.52        66.15649
495.96        66.03962
496.41        65.97002
496.85        66.16891
497.29        66.43988
497.73        66.34555
498.17        65.64368
498.61        65.56223
499.05        65.96944
499.49        65.98377
499.93        65.64768
500.37        65.60563
500.82        65.85058
501.26        66.06717
501.70        66.24176
502.14        66.04976
502.58        65.59665
503.02        65.40611
503.46         65.4584
503.90        65.53405
504.34        65.54756
504.78        65.53039
505.22        65.47635
505.66        65.34185
506.10        65.21213
506.54        65.23385
506.98         65.4149
507.42        65.35693
507.86        66.18559
508.30        65.47968
508.74        66.01514
509.18        65.79333
509.62        65.59489
510.06        65.45627
510.50         65.3902
510.94        65.28197
511.38        65.13541
511.82        65.08437
512.26        65.12082
512.70        65.24267
513.14         65.2915
513.58        65.27276
514.02        65.13818
514.46        64.92112
514.90        64.66431
515.34        64.47415
515.78         64.3884
516.22        64.36276
516.66        64.23582
517.10        64.55344
517.54        64.49065
517.98        64.67581
518.42        64.83652
518.86        64.93869
519.30        64.96516
519.74        64.88258
520.18        64.75732
520.62        64.78168
521.06        64.92672
521.50        64.93729
521.93        64.79923
522.37        64.69481
522.81        64.63228
523.25        64.50478
523.69        64.34556
524.13        64.26242
524.57        64.26781
525.01         64.3264
525.45        64.41602
525.89        64.50056
526.32        64.56145
526.76        64.61501
527.20        64.64946
527.64        64.64964
528.08          64.616
528.52        64.55169
528.96        64.48495
529.40        64.45461
529.83        64.46509
530.27        64.53606
530.71        64.61739
531.15        64.62426
531.59        64.54448
532.03         64.4134
532.46        64.27081
532.90        64.19509
533.34        64.19794
533.78        64.24973
534.22        64.32039
534.66         64.3645
535.09        64.35755
535.53        64.33865
535.97        64.29166
536.41        64.20808
536.85        64.09471
537.28        63.95401
537.72        63.82558
538.16        63.77726
538.60        63.81783
539.04        63.92575
539.47        64.03367
539.91        64.09073
540.35         64.0638
540.79        63.97923
541.22        63.86707
541.66        63.79182
542.10        63.76727
542.54        63.77165
542.97        63.79017
543.41        63.83249
543.85        63.88983
544.29        63.97886
544.72        64.06335
545.16         64.1376
545.60        64.18385
546.04        64.13396
546.47         64.0599
546.91        64.20284
547.35          64.493
547.79        64.65403
548.22        64.61206
548.66        64.39513
549.10        64.10403
549.53        64.01196
549.97         64.1131
550.41        64.09232
550.84        63.95504
551.28        63.88332
551.72        63.88025
552.15        63.96086
552.59        64.15914
553.03        63.97218
553.46        64.28631
553.90        64.27097
554.34        64.16123
554.77        64.07968
555.21        64.15421
555.65        63.80325
556.08         64.2031
556.52        64.41676
556.96        64.67083
557.39        64.66016
557.83        64.43636
558.27        64.28555
558.70        64.24594
559.14        64.18027
559.57        64.08907
560.01         64.1656
560.45        64.32856
560.88        64.28551
561.32        64.12038
561.75        64.04131
562.19        64.09042
562.63        64.19826
563.06        64.28748
563.50        64.13048
563.93        63.80214
564.37        63.72725
564.80        63.89611
565.24        64.10429
565.68        64.27619
566.11         64.3776
566.55        64.40674
566.98        64.40042
567.42        64.39124
567.85        64.31559
568.29        64.27342
568.72          64.334
569.16        64.49132
569.60        64.78965
570.03        64.75748
570.47        64.85914
570.90        64.92294
571.34        65.04589
571.77        65.33623
572.21        65.31194
572.64        65.33215
573.08         65.5526
573.51        65.07652
573.95        65.56743
574.38        65.59593
574.82        66.09596
