SpectraSmart Spectrum 2.9.0.0
--------- Device Information -----------
Spectrum Name :  反射率_0
Saving Time :  2024/04/21 00:55:12
Spectro-Module Model Name : SE2030-DUVN
Spectro-Module Serial Number : OS361AC55029948
Wavelength Start : 200
Wavelength End : 1025
Wavelength Unit : Wavelength(nm)
Spectrum Unit : Reflectance(%)
-----------Spectrum Setting ------------
Integration Time : 20ms
Average : 10
Boxcar : 0
Background removal :  enabled
linearity correction :  enabled
SC :  disabled
Intensity correction :  disabled
DWT denoise :  enabled
savitzky-golay :  disabled
FFT :  disabled
Running average :  disabled
Kalman :  disabled
High pass :  disabled
---------------BEGIN--------------------
Wavelength(nm)             Reflectance(%)
200.29               0
200.75       -72.16678
201.21       -13.73836
201.67        18.42599
202.13        32.98261
202.58        38.31918
203.04         39.6259
203.50        37.15873
203.96        30.71443
204.42        21.53134
204.88        9.626927
205.34       -1.523534
205.80       -8.131413
206.26       -9.413005
206.72       -2.393075
207.18        8.427875
207.64        8.961815
208.10       -5.341898
208.55       -30.06337
209.01       -44.88618
209.47       -25.92413
209.93        4.135546
210.39        27.96821
210.85        43.11049
211.31        50.00961
211.77        51.23483
212.23        48.75768
212.69        39.54543
213.14        15.69131
213.60        -41.4019
214.06       -233.3528
214.52       -712.2466
214.98       -319.9486
215.44       -67.72848
215.90        17.30481
216.36        45.05331
216.81        46.62514
217.27        25.59485
217.73       -80.61707
218.19        1210.313
218.65        539.7189
219.11       -1219.266
219.57       -58.11548
220.02          16.711
220.48         31.0265
220.94        26.00836
221.40        2.058928
221.86       -57.31254
222.32       -98.03795
222.77       -46.55725
223.23      -0.8175013
223.69        22.43746
224.15        30.50714
224.61        30.74417
225.06        27.57135
225.52        22.27301
225.98        16.20247
226.44        10.38171
226.90        3.272635
227.36       -1.388713
227.81        3.027599
228.27        12.94381
228.73        23.45557
229.19        30.22599
229.65        30.85287
230.10        26.26956
230.56        18.05895
231.02        7.935167
231.48        2.216886
231.93        4.882256
232.39        13.01551
232.85        21.59169
233.31        26.69499
233.77        28.67784
234.22        29.33765
234.68         29.0193
235.14        28.22263
235.60        27.52311
236.05        25.91517
236.51        23.81854
236.97        27.88668
237.43        38.54046
237.88        45.92999
238.34        46.14719
238.80        65.74592
239.26        55.85731
239.71        51.87707
240.17         40.9739
240.63        30.08847
241.08        24.66655
241.54        28.57007
242.00        41.02702
242.46        49.13734
242.91        49.40528
243.37        42.91209
243.83        31.64501
244.28        25.00511
244.74        28.82874
245.20         37.5722
245.66        45.64804
246.11        48.13615
246.57         44.4509
247.03         36.6243
247.48        25.91356
247.94        14.26292
248.40      -0.2043835
248.85       -31.40415
249.31       -122.7679
249.77       -198.2806
250.22       -61.22072
250.68       -3.157266
251.14         15.6805
251.59        20.79027
252.05        20.21975
252.51        16.77201
252.96        9.747564
253.42        1.913462
253.88       -1.863835
254.33       -1.032936
254.79        7.157086
255.25        21.72433
255.70        36.49987
256.16        48.28146
256.62        55.89863
257.07        58.96894
257.53        59.37524
257.99         58.4079
258.44         56.6491
258.90        55.21981
259.35        53.78776
259.81        52.50891
260.27        51.34755
260.72        50.38364
261.18         49.8418
261.63        49.40982
262.09        48.94593
262.55        47.92426
263.00        46.34551
263.46        44.59349
263.91         42.9224
264.37        42.05521
264.83        41.90883
265.28          42.137
265.74        42.42096
266.19        42.17169
266.65        41.37457
267.11        40.20725
267.56        38.85084
268.02        37.66259
268.47        36.70379
268.93        35.88923
269.38        35.16547
269.84          34.519
270.30        33.90549
270.75        33.34589
271.21        32.79052
271.66        32.08116
272.12        31.23553
272.57        30.29409
273.03        29.37915
273.48           28.64
273.94        28.12619
274.39        27.74779
274.85        27.48009
275.31        27.22104
275.76        26.92003
276.22         26.6282
276.67        26.29941
277.13        25.93937
277.58         25.5199
278.04        25.06773
278.49        24.58638
278.95        24.15757
279.40        23.75628
279.86        23.39919
280.31        23.02532
280.77        22.61896
281.22         22.1544
281.68        21.70448
282.13        21.26868
282.59        20.91396
283.04        20.62587
283.50        20.39043
283.95        20.21687
284.41        20.14479
284.86        20.15394
285.32        20.23942
285.77        20.29196
286.22        20.16285
286.68        19.85964
287.13        19.40506
287.59        18.98621
288.04         18.7845
288.50        18.80672
288.95        19.11692
289.41        19.60522
289.86        19.60074
290.32        18.97711
290.77        19.82951
291.22        18.80782
291.68        18.82375
292.13        18.90228
292.59        19.08944
293.04        19.34535
293.50         19.6897
293.95        20.12896
294.40        20.63088
294.86        21.16572
295.31        21.67465
295.77        22.14359
296.22        22.58356
296.68        23.01749
297.13        23.47627
297.58        23.98703
298.04        24.55093
298.49        25.19294
298.95          25.966
299.40        26.86228
299.85        27.87246
300.31        28.93092
300.76        29.92826
301.21        30.84027
301.67        31.70264
302.12        32.57432
302.58        33.61548
303.03         34.8404
303.48        36.25572
303.94        37.76043
304.39        39.16446
304.84        40.45078
305.30        41.69765
305.75        43.05176
306.20        44.80041
306.66        46.96741
307.11        49.41277
307.57        51.92636
308.02        54.16403
308.47        56.07016
308.93        57.79773
309.38        59.48733
309.83        61.35271
310.29        63.58749
310.74        65.97946
311.19        68.45614
311.65        70.84074
312.10        73.06557
312.55        75.18644
313.00        77.25134
313.46        79.33556
313.91        81.43241
314.36        83.49447
314.82        85.48784
315.27        87.37806
315.72        89.16114
316.18        90.85201
316.63        92.44835
317.08        93.94394
317.53        95.33186
317.99        96.60306
318.44        97.76825
318.89        98.83462
319.35        99.80968
319.80        100.7119
320.25        101.5369
320.70        102.2782
321.16        102.9336
321.61        103.5261
322.06        104.0935
322.51        104.7034
322.97        105.3521
323.42        106.0561
323.87         106.735
324.32          107.27
324.78        107.6132
325.23        107.8399
325.68        108.0078
326.13        108.2468
326.59        108.5711
327.04        109.0001
327.49        109.4643
327.94          109.88
328.39        110.2207
328.85         110.487
329.30         110.768
329.75        111.0691
330.20        111.4054
330.66        111.7257
331.11        112.0976
331.56        112.4951
332.01         112.916
332.46        113.3615
332.92        113.7712
333.37        114.1898
333.82        114.5692
334.27        114.9281
334.72        115.2915
335.17        115.7038
335.63        116.1483
336.08        116.6685
336.53        117.2437
336.98        117.8902
337.43        118.5919
337.88        119.3317
338.34        120.0136
338.79        120.5433
339.24        120.8757
339.69        121.0598
340.14        121.1842
340.59        121.3978
341.05        121.7501
341.50        122.2081
341.95        122.7589
342.40        123.3759
342.85          124.03
343.30        124.7265
343.75        125.3847
344.20        125.8815
344.66        126.2003
345.11        126.3385
345.56        126.4075
346.01        126.5947
346.46        126.9457
346.91        127.3885
347.36        127.7856
347.81        128.0078
348.26         128.045
348.72        127.6504
349.17        127.5517
349.62        127.5259
350.07        127.8017
350.52        128.2713
350.97        128.8047
351.42        129.1807
351.87        129.3111
352.32        129.2546
352.77        129.0563
353.22        128.7869
353.67         128.483
354.13        128.1477
354.58         127.756
355.03        127.3317
355.48        126.8905
355.93        126.4409
356.38        126.0314
356.83        125.7225
357.28        125.5004
357.73        125.3245
358.18        125.0851
358.63        124.6133
359.08        123.8818
359.53        122.9604
359.98          121.95
360.43        121.0028
360.88        120.1689
361.33        119.4091
361.78        118.7173
362.23        118.0801
362.68        117.4807
363.13        116.9255
363.58        116.3615
364.03        115.6971
364.48        114.9108
364.93        114.0173
365.38        113.0741
365.83        112.1877
366.28        111.3851
366.73        110.6327
367.18        109.8937
367.63        109.1064
368.08        108.2617
368.53        107.4047
368.98        106.5377
369.43        105.6459
369.88        104.7327
370.33         103.791
370.78        102.8919
371.23        102.1759
371.68        101.6726
372.13        101.3359
372.58         101.047
373.03        100.6059
373.48        99.95414
373.93        99.14497
374.38        98.25376
374.83        97.42239
375.28        96.71107
375.72        96.06593
376.17        95.50144
376.62         94.9504
377.07        94.37967
377.52        93.79327
377.97          93.199
378.42        92.62051
378.87        92.07692
379.32        91.57438
379.77        91.07529
380.22        90.51145
380.67        89.86623
381.11        89.15953
381.56        88.46101
382.01        87.91801
382.46        87.57014
382.91        87.37535
383.36        87.22093
383.81        86.92965
384.26        86.45921
384.71        85.86262
385.15        85.22134
385.60         84.7319
386.05        84.40892
386.50        84.19505
386.95        84.00592
387.40        83.72046
387.85        83.31653
388.29        82.79299
388.74        82.31741
389.19        81.89933
389.64        81.54298
390.09        81.22052
390.54        80.89737
390.98        80.51013
391.43        80.09743
391.88        79.67582
392.33        79.29031
392.78        78.96761
393.23        78.70776
393.67        78.53997
394.12        78.48936
394.57        78.21651
395.02        77.78655
395.47        77.65459
395.91        77.77686
396.36         77.6469
396.81        77.26167
397.26        76.93673
397.71        76.66534
398.15        76.30223
398.60        75.95224
399.05        75.50311
399.50        75.09122
399.95        75.10816
400.39        75.45995
400.84        75.59867
401.29        75.44604
401.74        75.13038
402.18        74.75948
402.63        74.59782
403.08        74.60597
403.53          74.382
403.97        73.92479
404.42         73.5449
404.87        73.29462
405.32        73.15627
405.76        73.13086
406.21        73.15479
406.66        73.16292
407.11        73.24313
407.55        73.29688
408.00        72.88731
408.45        72.14781
408.90         71.6544
409.34        71.51302
409.79        71.54792
410.24        71.64749
410.68        71.67667
411.13        71.59592
411.58        71.46159
412.03        71.31137
412.47        71.29786
412.92        71.24855
413.37        71.29009
413.81        71.31956
414.26        71.32169
414.71        71.26676
415.15        71.18412
415.60        71.07624
416.05        71.00484
416.49        70.98791
416.94        71.00173
417.39        71.01324
417.83        70.96187
418.28        70.84274
418.73        70.67522
419.17        70.50027
419.62        70.39476
420.07        70.37328
420.51        70.39779
420.96        70.45977
421.41        70.48605
421.85        70.43114
422.30        70.38492
422.74        70.31989
423.19        70.25488
423.64        70.19666
424.08        70.26933
424.53        70.38711
424.98         70.4368
425.42        70.41712
425.87        70.33468
426.31        70.25467
426.76        70.33952
427.21        70.56807
427.65        70.71732
428.10        70.68577
428.54        70.74018
428.99        70.57135
429.44        70.40953
429.88        70.18725
430.33        70.03142
430.77        69.91556
431.22        70.01755
431.66        70.26527
432.11        70.34927
432.56        70.29239
433.00        70.40701
433.45        70.46957
433.89        70.33932
434.34        70.21959
434.78        69.57822
435.23        69.44671
435.67         70.8236
436.12        70.32514
436.57        70.45187
437.01         70.2442
437.46        70.00299
437.90        70.48016
438.35        70.38982
438.79        70.53194
439.24        70.50297
439.68         70.4764
440.13        70.49062
440.57         70.5092
441.02        70.38445
441.46        70.17606
441.91        70.18165
442.35        70.31915
442.80        70.67777
443.24        71.08211
443.69        71.08876
444.13        70.72919
444.58        70.45769
445.02        70.35086
445.47        70.45242
445.91        70.65878
446.36        70.71058
446.80        70.57537
447.24        70.36468
447.69        70.18485
448.13        70.33336
448.58        70.57096
449.02        70.68176
449.47        70.59755
449.91         70.6004
450.36        70.70287
450.80        70.63715
451.25        70.45957
451.69        70.43685
452.13        70.52636
452.58        70.36506
453.02        69.98151
453.47        69.73264
453.91        69.62917
454.36        69.50535
454.80        69.34471
455.24        69.19765
455.69         69.0726
456.13         68.9438
456.58        68.88359
457.02        68.81264
457.46        68.79356
457.91        68.97464
458.35        68.76005
458.79        68.68543
459.24        68.61933
459.68        68.44855
460.13        68.20412
460.57        68.05127
461.01        68.05742
461.46        67.40297
461.90        67.66315
462.34        67.27182
462.79        67.28272
463.23        67.35146
463.68        67.53905
464.12        67.21739
464.56        66.54774
465.01        66.59981
465.45        67.13927
465.89        67.21891
466.34        66.89468
466.78        66.67853
467.22        66.59276
467.67        66.89247
468.11        66.55663
468.55        66.35213
468.99        66.03535
469.44        65.81654
469.88        65.70995
470.32        65.60262
470.77        65.49933
471.21        65.43117
471.65        65.39394
472.10        65.38949
472.54        65.36495
472.98        65.27766
473.42        65.12856
473.87        64.89413
474.31         64.6347
474.75        64.65402
475.20        64.88585
475.64        64.99644
476.08        64.96141
476.52        64.90295
476.97        64.77702
477.41        64.94756
477.85        64.67451
478.29        64.42091
478.74        64.53282
479.18        64.36424
479.62        64.64639
480.06        64.58527
480.50        64.72794
480.95        64.72434
481.39        64.59718
481.83        64.78558
482.27        65.17552
482.72        64.31226
483.16          64.786
483.60        64.76856
484.04        64.87877
484.48        64.50649
484.93        64.32875
485.37        64.39866
485.81        64.96096
486.25        64.47826
486.69        65.73972
487.14        66.39407
487.58        65.30791
488.02        64.44907
488.46        64.35376
488.90        64.17719
489.34        64.17703
489.79        63.42887
490.23        63.75953
490.67        63.74411
491.11        63.86397
491.55        63.81763
491.99        63.65131
492.43        63.61252
492.88        63.70011
493.32        63.81784
493.76         63.8662
494.20        63.86899
494.64        63.84072
495.08        63.41082
495.52        63.20101
495.96        63.28313
496.41        63.69509
496.85        63.77623
497.29        63.47437
497.73        63.46861
498.17        63.42031
498.61        63.38957
499.05        63.25748
499.49        63.03025
499.93        62.81037
500.37        62.82685
500.82        63.04081
501.26        63.26927
501.70        63.52863
502.14        63.21837
502.58        62.93496
503.02        62.75389
503.46        62.79704
503.90        62.84652
504.34        62.83509
504.78         62.8129
505.22        62.78703
505.66        62.67543
506.10         62.4975
506.54        62.49681
506.98        62.72548
507.42        62.13919
507.86        62.81255
508.30        62.36534
508.74        62.64506
509.18        62.58985
509.62        62.57051
510.06        62.54973
510.50        62.49598
510.94        62.34704
511.38        62.13469
511.82        62.01567
512.26        62.00557
512.70        62.04005
513.14        62.08108
513.58        62.08483
514.02        62.03489
514.46        61.94678
514.90        61.83748
515.34        61.77105
515.78        61.76534
516.22        61.77485
516.66        61.63255
517.10        61.90211
517.54        61.71007
517.98        61.73846
518.42        61.73797
518.86        61.74089
519.30        61.74804
519.74        61.71815
520.18        61.68102
520.62        61.76065
521.06        61.91303
521.50        61.90673
521.93        61.75494
522.37        61.67561
522.81        61.68358
523.25        61.65743
523.69        61.59018
524.13        61.53045
524.57        61.47902
525.01        61.41862
525.45        61.37358
525.89         61.3814
526.32        61.44637
526.76        61.56784
527.20        61.68579
527.64        61.72969
528.08        61.68908
528.52         61.5197
528.96        61.31374
529.40         61.3683
529.83        61.62405
530.27        61.70669
530.71        61.58962
531.15        61.54162
531.59        61.55988
532.03        61.47362
532.46        61.30692
532.90        61.20566
533.34        61.18349
533.78        61.20128
534.22        61.23573
534.66        61.25177
535.09        61.22998
535.53        61.20446
535.97        61.17856
536.41        61.17041
536.85        61.18447
537.28        61.21376
537.72        61.24474
538.16        61.25842
538.60        61.24984
539.04        61.22711
539.47        61.19011
539.91        61.18966
540.35        61.21405
540.79         61.2533
541.22        61.28855
541.66        61.30394
542.10        61.28858
542.54        61.24821
542.97        61.18374
543.41        61.12861
543.85        61.08435
544.29        61.05569
544.72        61.02646
545.16        61.01134
545.60        61.00089
546.04        60.96577
546.47        60.93689
546.91        61.02672
547.35        61.19674
547.79        61.29811
548.22        61.28834
548.66        61.22477
549.10        61.14078
549.53        61.09222
549.97        61.07691
550.41        60.99908
550.84        60.86454
551.28        60.72289
551.72        60.60935
552.15        60.60417
552.59        60.71857
553.03        60.73701
553.46        60.83768
553.90        60.84468
554.34        60.79963
554.77         60.6656
555.21        60.53206
555.65        60.51919
556.08        60.62967
556.52        60.90039
556.96          61.198
557.39         61.1908
557.83        60.92986
558.27        60.77502
558.70        60.77162
559.14        60.73111
559.57        60.66129
560.01        60.73622
560.45        60.87901
560.88        60.91829
561.32        60.88458
561.75        60.69957
562.19        60.48218
562.63         60.5949
563.06        60.92986
563.50        60.84602
563.93         60.4049
564.37         60.2926
564.80        60.49741
565.24        60.66155
565.68        60.74385
566.11         60.8195
566.55         60.8856
566.98        60.96072
567.42        61.09214
567.85        60.91687
568.29         61.1242
568.72        61.09209
569.16        61.09279
569.60        61.11982
570.03        61.22066
570.47        61.40689
570.90        61.61515
571.34        61.51537
571.77        61.79189
572.21        61.66266
572.64        61.53437
573.08        61.63301
573.51         61.5577
573.95        62.04015
574.38        62.13546
574.82         62.6617
