SpectraSmart Spectrum 2.9.0.0
--------- Device Information -----------
Spectrum Name :  反射率_0
Saving Time :  2024/04/21 00:40:33
Spectro-Module Model Name : SE2030-DUVN
Spectro-Module Serial Number : OS361AC55029948
Wavelength Start : 200
Wavelength End : 1025
Wavelength Unit : Wavelength(nm)
Spectrum Unit : Reflectance(%)
-----------Spectrum Setting ------------
Integration Time : 20ms
Average : 10
Boxcar : 0
Background removal :  enabled
linearity correction :  enabled
SC :  disabled
Intensity correction :  disabled
DWT denoise :  enabled
savitzky-golay :  disabled
FFT :  disabled
Running average :  disabled
Kalman :  disabled
High pass :  disabled
---------------BEGIN--------------------
Wavelength(nm)             Reflectance(%)
200.29               0
200.75       -12.87535
201.21        18.08982
201.67        35.17046
202.13        42.50182
202.58        44.44229
203.04        43.98549
203.50        40.86839
203.96        34.84691
204.42        26.79952
204.88        16.37912
205.34         6.66716
205.80        1.028508
206.26      0.04171292
206.72        6.592385
207.18        15.03335
207.64        9.469037
208.10       -14.14057
208.55       -49.59634
209.01       -69.89758
209.47       -44.70865
209.93       -4.410943
210.39        28.19993
210.85        49.59098
211.31        60.76125
211.77        65.54019
212.23        66.76901
212.69        63.26561
213.14        51.18766
213.60        18.39749
214.06       -97.01232
214.52       -413.9844
214.98       -202.5716
215.44       -43.10386
215.90        14.73635
216.36        35.08909
216.81        38.22623
217.27        28.08704
217.73       -28.13249
218.19        656.9819
218.65        293.9296
219.11       -569.8068
219.57       -2.392195
220.02        33.59895
220.48        39.67683
220.94        35.71895
221.40        20.69153
221.86        -15.0258
222.32       -37.00354
222.77       -3.775592
223.23        24.27491
223.69        37.89162
224.15        41.64537
224.61        40.04983
225.06        35.87907
225.52        29.91254
225.98        23.03503
226.44        16.19155
226.90        8.195017
227.36        3.110018
227.81        7.997727
228.27        18.89366
228.73        30.17065
229.19        37.49998
229.65        38.73752
230.10         34.8615
230.56        27.39152
231.02        17.47389
231.48        10.26528
231.93        9.818234
232.39        14.38563
232.85        20.11364
233.31        23.59851
233.77        24.89873
234.22        25.54905
234.68        25.60335
235.14        25.00122
235.60         24.1265
236.05        22.12877
236.51        19.45218
236.97        23.18415
237.43        33.96529
237.88        41.15028
238.34        40.70654
238.80        62.55529
239.26        53.41623
239.71        52.17247
240.17        45.04057
240.63        37.57281
241.08         33.4255
241.54        35.37069
242.00        43.17909
242.46         46.7258
242.91         43.2071
243.37        33.16067
243.83        19.58112
244.28         14.3457
244.74        23.45029
245.20        39.40512
245.66          53.722
246.11        58.68427
246.57        53.62436
247.03        41.15404
247.48         22.9612
247.94        1.170692
248.40       -28.99603
248.85       -97.01289
249.31       -306.4171
249.77        -503.957
250.22       -196.5859
250.68       -58.12943
251.14       -10.73077
251.59        4.880034
252.05        8.483959
252.51        6.858857
252.96       0.4159487
253.42       -6.142723
253.88       -7.621834
254.33       -5.358298
254.79        3.550122
255.25        18.71066
255.70        33.89756
256.16        46.03845
256.62         53.4933
257.07        55.50286
257.53        54.41346
257.99        52.03025
258.44        49.50451
258.90        48.40459
259.35        48.19215
259.81        48.49218
260.27        48.85809
260.72         48.9441
261.18        48.92242
261.63        48.65719
262.09        48.18207
262.55        47.14068
263.00        45.55369
263.46        43.77049
263.91        41.95304
264.37        40.70019
264.83        39.98258
265.28        39.57049
265.74        39.30503
266.19        38.80841
266.65        38.06777
267.11        37.16105
267.56        36.15723
268.02        35.24073
268.47        34.41346
268.93        33.63752
269.38        32.86076
269.84        32.06814
270.30        31.24766
270.75        30.43928
271.21         29.6605
271.66        28.86946
272.12        28.09715
272.57        27.32806
273.03        26.65732
273.48        26.19461
273.94        25.95152
274.39        25.85359
274.85        25.76766
275.31        25.43412
275.76        24.81853
276.22        24.05149
276.67        23.29618
277.13        22.84909
277.58        22.71665
278.04        22.79909
278.49        22.92127
278.95        22.90544
279.40        22.66928
279.86        22.30968
280.31        21.84856
280.77        21.38839
281.22        20.93757
281.68        20.52342
282.13        20.12212
282.59        19.76868
283.04        19.45109
283.50        19.18999
283.95        19.01417
284.41        18.97869
284.86         19.0734
285.32        19.28343
285.77        19.51226
286.22        19.63055
286.68        19.63857
287.13        19.54317
287.59        19.48603
288.04        19.58092
288.50        19.81673
288.95        20.26693
289.41        20.85842
289.86        20.98669
290.32        20.54525
290.77        21.57552
291.22        20.77316
291.68         20.9465
292.13        21.14658
292.59         21.4534
293.04         21.8735
293.50        22.49164
293.95        23.33107
294.40        24.33969
294.86        25.46902
295.31        26.62438
295.77        27.77275
296.22        28.92915
296.68        30.09676
297.13        31.27893
297.58        32.50392
298.04        33.77084
298.49        35.13768
298.95        36.71735
299.40        38.49407
299.85        40.42559
300.31        42.38707
300.76         44.1654
301.21        45.72823
301.67        47.16686
302.12        48.57372
302.58        50.18838
303.03        52.03841
303.48        54.09775
303.94        56.29166
304.39        58.45455
304.84        60.53689
305.30        62.58145
305.75        64.58665
306.20         66.6521
306.66        68.78341
307.11        70.89091
307.57        72.91185
308.02        74.69152
308.47        76.23506
308.93        77.63258
309.38        78.94582
309.83        80.31804
310.29        81.85339
310.74           83.42
311.19        84.96341
311.65        86.35274
312.10        87.53329
312.55        88.55109
313.00        89.44721
313.46        90.28981
313.91        91.09137
314.36        91.84694
314.82        92.55637
315.27        93.21442
315.72        93.83273
316.18        94.42211
316.63        95.00479
317.08        95.61156
317.53        96.23966
317.99         96.8727
318.44        97.46245
318.89        97.91893
319.35         98.2264
319.80        98.42107
320.25        98.56779
320.70        98.78146
321.16        99.08099
321.61        99.44138
322.06        99.81608
322.51        100.1355
322.97        100.3641
323.42        100.5698
323.87        100.7308
324.32        100.8283
324.78        100.8555
325.23         100.849
325.68        100.8781
326.13        101.0879
326.59        101.4785
327.04        102.0651
327.49        102.6891
327.94        103.1123
328.39        103.2727
328.85        103.2021
329.30        103.1063
329.75        103.2102
330.20        103.5843
330.66        104.1173
331.11        104.7487
331.56        105.2409
332.01        105.5293
332.46        105.6843
332.92        105.7353
333.37        105.8712
333.82        106.1008
334.27        106.3891
334.72        106.7366
335.17        107.1493
335.63        107.5879
336.08        108.1145
336.53        108.6698
336.98        109.1937
337.43        109.6633
337.88          110.08
338.34        110.4326
338.79        110.7715
339.24        111.0854
339.69        111.3682
340.14        111.6287
340.59        111.8858
341.05        112.1481
341.50         112.425
341.95        112.7153
342.40        113.0144
342.85        113.3219
343.30        113.6434
343.75        113.9637
344.20        114.2625
344.66        114.5422
345.11        114.7799
345.56         115.006
346.01        115.2701
346.46        115.5756
346.91        115.8873
347.36        116.1319
347.81        116.2507
348.26        116.2425
348.72        115.9626
349.17        115.8175
349.62        115.6823
350.07        115.6935
350.52        115.7993
350.97        115.9354
351.42        115.9884
351.87        115.9158
352.32        115.7496
352.77         115.515
353.22        115.2504
353.67        114.9655
354.13        114.6546
354.58        114.2822
355.03        113.8519
355.48        113.3717
355.93        112.8611
356.38        112.3349
356.83        111.8059
357.28        111.2701
357.73        110.7092
358.18        110.1292
358.63        109.5459
359.08        108.9623
359.53         108.386
359.98         107.766
360.43         107.016
360.88        106.1294
361.33        105.1362
361.78        104.1449
362.23        103.3309
362.68        102.7304
363.13        102.2904
363.58        101.8861
364.03        101.3155
364.48        100.5284
364.93        99.58698
365.38        98.59486
365.83        97.72419
366.28        97.01977
366.73        96.41557
367.18        95.84645
367.63        95.21353
368.08         94.4866
368.53        93.71246
368.98        92.89311
369.43        92.01433
369.88        91.08132
370.33        90.08994
370.78        89.10488
371.23        88.25896
371.68        87.59512
372.13        87.08761
372.58        86.66053
373.03        86.17314
373.48        85.57798
373.93        84.90836
374.38         84.2048
374.83        83.54748
375.28        82.96889
375.72         82.4276
376.17        81.92889
376.62        81.41558
377.07        80.86242
377.52        80.27265
377.97         79.6657
378.42        79.08774
378.87        78.56461
379.32        78.09602
379.77        77.64249
380.22        77.13251
380.67        76.54222
381.11        75.88602
381.56        75.22031
382.01        74.66329
382.46        74.25441
382.91        73.97284
383.36        73.72031
383.81         73.3411
384.26        72.80495
384.71        72.15597
385.15        71.50796
385.60        71.09937
386.05        70.94151
386.50         70.9559
386.95        70.98054
387.40        70.76932
387.85        70.28435
388.29         69.5866
388.74        68.91021
389.19        68.39227
389.64        68.06106
390.09        67.84663
390.54        67.68786
390.98        67.47853
391.43        67.23182
391.88        66.98139
392.33        66.74282
392.78        66.54241
393.23        66.38609
393.67          66.187
394.12        66.03265
394.57        65.97552
395.02        65.97185
395.47        65.83713
395.91        65.58018
396.36        65.35485
396.81        65.18214
397.26        64.98528
397.71        64.75874
398.15        64.49136
398.60          64.256
399.05        64.02158
399.50        63.82712
399.95        63.69014
400.39        63.63008
400.84        63.67813
401.29        63.75492
401.74        63.58794
402.18        63.18737
402.63        62.79687
403.08        62.47519
403.53        62.16203
403.97        61.89344
404.42        61.75019
404.87        61.70938
405.32        61.72682
405.76        61.77227
406.21        61.80468
406.66        61.79391
407.11        61.81645
407.55        61.80193
408.00        61.49048
408.45        60.99449
408.90        60.53994
409.34        60.31875
409.79        60.70723
410.24        61.45333
410.68        61.74195
411.13        61.48536
411.58        61.10483
412.03        60.74411
412.47        60.50077
412.92        60.43273
413.37        60.51975
413.81        60.67285
414.26        60.80991
414.71        60.88234
415.15        60.93161
415.60        60.95095
416.05        60.97612
416.49        61.01564
416.94        61.04105
417.39        61.03574
417.83        60.97605
418.28        60.86599
418.73        60.71788
419.17        60.56772
419.62         60.4823
420.07        60.47529
420.51        60.51984
420.96        60.60241
421.41        60.65611
421.85        60.64183
422.30        60.61395
422.74        60.56611
423.19        60.59552
423.64        60.69051
424.08        60.82975
424.53        60.93819
424.98        61.04084
425.42        61.14131
425.87        61.15878
426.31        61.15977
426.76        61.34607
427.21         61.6896
427.65        61.96894
428.10        62.07578
428.54        62.06121
428.99        61.95339
429.44        61.76973
429.88        61.54728
430.33        61.31432
430.77        61.12805
431.22        61.31853
431.66        61.78946
432.11        62.15014
432.56        62.33821
433.00        62.42712
433.45        62.22115
433.89        62.06308
434.34        62.17544
434.78        61.40648
435.23        60.95768
435.67        62.67561
436.12        62.61536
436.57        62.92691
437.01        62.48241
437.46        62.27964
437.90        63.01871
438.35        62.92072
438.79        63.16449
439.24        63.17659
439.68        63.26466
440.13        63.29512
440.57        63.30492
441.02        63.48141
441.46        63.74698
441.91        63.87091
442.35         63.8023
442.80        63.94239
443.24        64.24527
443.69        64.37133
444.13        64.24102
444.58        64.34343
445.02        64.19018
445.47        63.99488
445.91        64.52235
446.36        64.60321
446.80        64.50313
447.24        64.35516
447.69        64.25954
448.13        64.43774
448.58        64.66025
449.02        64.75842
449.47        64.65891
449.91        64.60378
450.36        64.61349
450.80        64.45008
451.25        64.22018
451.69        64.25079
452.13        64.51273
452.58         64.6431
453.02        64.58694
453.47        64.55001
453.91        64.51138
454.36        64.34802
454.80        64.09937
455.24        63.93311
455.69        63.89541
456.13        63.89347
456.58        63.77017
457.02        63.93122
457.46        63.89896
457.91        63.66211
458.35        63.31121
458.79        63.12414
459.24        63.17907
459.68        63.25881
460.13        63.33736
460.57        63.35797
461.01        63.33044
461.46        63.23051
461.90        63.07971
462.34        63.03625
462.79        62.81432
463.23        62.64966
463.68        63.55572
464.12        63.38874
464.56        62.66594
465.01        62.67143
465.45        63.23948
465.89        63.28582
466.34        62.84546
466.78        62.65303
467.22         62.7907
467.67        62.62793
468.11         62.6081
468.55        62.64594
468.99        62.48915
469.44        62.40172
469.88        62.27314
470.32        62.07478
470.77        61.85979
471.21        61.75949
471.65        61.79959
472.10        61.94487
472.54        62.09452
472.98         62.1531
473.42        62.11879
473.87        61.89864
474.31        61.56279
474.75         61.6902
475.20         62.1942
475.64        61.86872
476.08        61.68407
476.52        61.53589
476.97        61.68992
477.41        61.90392
477.85        62.06712
478.29        61.85052
478.74        61.54591
479.18        61.35343
479.62        61.78853
480.06        61.89014
480.50        61.81349
480.95        61.80238
481.39        61.78827
481.83        62.03059
482.27        62.29491
482.72         61.8067
483.16        61.97196
483.60        62.22982
484.04        62.19585
484.48        61.88097
484.93        61.79694
485.37        61.74213
485.81        61.83089
486.25         61.8074
486.69        62.31778
487.14         62.4726
487.58         62.1189
488.02        62.01663
488.46         61.7193
488.90        61.78418
489.34        61.57684
489.79        61.42233
490.23        61.68191
490.67        61.83122
491.11        61.97074
491.55        61.90025
491.99        61.68973
492.43        61.61783
492.88        61.70111
493.32        61.79086
493.76        61.81227
494.20        61.83352
494.64         61.8655
495.08        61.56669
495.52        61.51669
495.96        61.52019
496.41        61.66769
496.85        61.67613
497.29        61.50691
497.73        61.51167
498.17        61.38163
498.61        61.45648
499.05        61.57121
499.49        61.43763
499.93        61.16187
500.37        61.13344
500.82        61.32687
501.26        61.62569
501.70         61.8883
502.14        61.45914
502.58        60.98093
503.02        60.72948
503.46        60.85432
503.90        61.02144
504.34        61.12409
504.78        61.18299
505.22        61.16869
505.66        61.05771
506.10        60.91304
506.54        60.88731
506.98        61.00788
507.42        60.95852
507.86        61.34557
508.30        61.20235
508.74        61.34702
509.18        61.25742
509.62        61.15934
510.06        61.11189
510.50        61.11069
510.94        61.05933
511.38        60.96277
511.82        60.91605
512.26        60.91994
512.70        60.93275
513.14        60.92756
513.58        60.87777
514.02        60.77811
514.46        60.63729
514.90        60.49023
515.34        60.43283
515.78         60.4865
516.22        60.59473
516.66        60.55795
517.10        60.89352
517.54        60.69353
517.98        60.67151
518.42        60.60863
518.86        60.60023
519.30        60.66005
519.74        60.72556
520.18        60.78857
520.62        60.91315
521.06        61.04303
521.50        60.97107
521.93        60.73962
522.37        60.60919
522.81        60.60867
523.25        60.60484
523.69         60.5779
524.13        60.55333
524.57        60.52789
525.01        60.49934
525.45        60.49007
525.89        60.53278
526.32        60.62572
526.76        60.75522
527.20        60.88394
527.64        60.95831
528.08        60.96156
528.52         60.9101
528.96        60.82502
529.40        60.73161
529.83        60.64328
530.27        60.59065
530.71        60.55462
531.15        60.50228
531.59        60.43183
532.03        60.35558
532.46        60.30399
532.90         60.3359
533.34        60.44717
533.78        60.61407
534.22        60.76335
534.66        60.78433
535.09         60.6533
535.53        60.43201
535.97        60.18904
536.41        60.05022
536.85         60.0482
537.28        60.14268
537.72        60.28977
538.16        60.41597
538.60        60.49034
539.04        60.54025
539.47        60.55042
539.91         60.5411
540.35        60.50184
540.79        60.46665
541.22        60.36489
541.66        60.36909
542.10        60.36835
542.54        60.42453
542.97        60.47542
543.41        60.49432
543.85        60.47131
544.29        60.43679
544.72        60.39552
545.16        60.39626
545.60         60.4325
546.04        60.43846
546.47        60.45405
546.91        60.60822
547.35         60.8404
547.79        61.02854
548.22        61.07616
548.66        60.83375
549.10        60.42163
549.53        60.27319
549.97        60.39899
550.41         60.4009
550.84        60.27847
551.28        60.28183
551.72        60.39026
552.15        60.49154
552.59        60.59457
553.03        60.47498
553.46        60.57108
553.90        60.52186
554.34        60.45728
554.77        60.35413
555.21        60.27009
555.65        60.29463
556.08        60.42004
556.52        60.59134
556.96         60.7424
557.39        60.86597
557.83        60.92447
558.27        60.77623
558.70        60.51007
559.14         60.3887
559.57        60.43462
560.01        60.62518
560.45        60.82565
560.88        60.76745
561.32        60.54397
561.75        60.33128
562.19        60.24914
562.63          60.483
563.06        60.88269
563.50          60.814
563.93        60.33982
564.37        60.18319
564.80        60.34526
565.24        60.46931
565.68        60.53109
566.11        60.57644
566.55        60.59874
566.98        60.74421
567.42        61.00062
567.85        60.65553
568.29        60.49586
568.72        60.46379
569.16         60.7732
569.60        60.82292
570.03         60.8974
570.47        60.97295
570.90        61.04509
571.34        61.17455
571.77        61.13948
572.21        60.86448
572.64        61.17609
573.08        60.79568
573.51        60.92506
573.95        61.16855
574.38        61.00139
574.82         61.7863
