SpectraSmart Spectrum 2.9.0.0
--------- Device Information -----------
Spectrum Name :  光譜_0
Saving Time :  2024/04/20 23:42:37
Spectro-Module Model Name : SE2030-DUVN
Spectro-Module Serial Number : OS361AC55029948
Wavelength Start : 200
Wavelength End : 1025
Wavelength Unit : Wavelength(nm)
Spectrum Unit : Intensity(Counts)
-----------Spectrum Setting ------------
Integration Time : 1ms
Average : 10
Boxcar : 0
Background removal :  enabled
linearity correction :  enabled
SC :  disabled
Intensity correction :  disabled
DWT denoise :  enabled
savitzky-golay :  disabled
FFT :  disabled
Running average :  disabled
Kalman :  disabled
High pass :  disabled
---------------BEGIN--------------------
Wavelength(nm)          Intensity(Counts)
200.29       -17.94565
200.75       -19.31867
201.21       -20.61526
201.67       -21.41932
202.13       -21.02642
202.58       -19.41153
203.04       -16.78403
203.50       -13.99406
203.96       -12.43377
204.42       -12.50483
204.88       -13.93803
205.34       -15.97985
205.80       -17.39766
206.26       -17.73524
206.72       -17.05653
207.18        -16.0501
207.64       -15.86368
208.10       -16.62382
208.55       -17.99861
209.01       -18.56867
209.47       -16.08307
209.93       -10.44048
210.39       -2.773849
210.85        4.567208
211.31        7.923489
211.77        6.440712
212.23        1.382439
212.69        -5.53435
213.14       -11.48453
213.60       -15.37723
214.06       -17.89992
214.52       -19.05133
214.98       -18.94769
215.44        -17.8098
215.90       -15.36262
216.36       -12.48482
216.81       -10.76259
217.27       -10.52111
217.73       -11.52311
218.19       -12.61319
218.65       -11.76491
219.11       -8.584171
219.57       -3.740876
220.02        1.470268
220.48        4.971439
220.94        6.292719
221.40        6.182864
221.86        5.744438
222.32        6.724308
222.77        9.609027
223.23        13.78484
223.69        18.68075
224.15        23.37989
224.61        27.58794
225.06        31.74271
225.52        35.83222
225.98        39.78859
226.44        43.70152
226.90        47.45694
227.36        51.67003
227.81         57.3745
228.27        64.67656
228.73        73.28314
229.19        82.01484
229.65        88.96992
230.10        93.70837
230.56        96.67146
231.02        99.13825
231.48        103.2222
231.93        109.3227
232.39        116.6412
232.85        123.6511
233.31        128.0164
233.77        129.0158
234.22        127.1256
234.68        123.5349
235.14        120.2017
235.60        117.5872
236.05        115.1371
236.51        111.5125
236.97        104.5989
237.43        94.17063
237.88        81.27428
238.34        67.86938
238.80        56.90952
239.26        49.23932
239.71        44.13515
240.17          40.238
240.63        35.25238
241.08        28.58795
241.54        21.07876
242.00        13.71634
242.46        8.013382
242.91        4.428572
243.37        2.412062
243.83        1.407063
244.28       0.6174538
244.74      -0.2723251
245.20       -1.077303
245.66       -1.555542
246.11       -1.348833
246.57      -0.4330055
247.03       0.9611634
247.48        2.367891
247.94        3.137912
248.40        3.145207
248.85        2.589016
249.31        2.045073
249.77        2.432078
250.22        3.967118
250.68        6.400946
251.14        9.173762
251.59        11.37213
252.05        12.82153
252.51        13.90759
252.96        15.24881
253.42        17.78044
253.88        21.86972
254.33          27.431
254.79        34.22538
255.25         41.7998
255.70        50.18104
256.16        59.76801
256.62        71.16222
257.07        85.16483
257.53        102.0999
257.99        121.9564
258.44        144.3907
258.90        168.7513
259.35        194.9426
259.81        223.1874
260.27        254.0004
260.72        288.1873
261.18        325.6821
261.63        365.7768
262.09        407.4285
262.55        449.1768
263.00        490.1908
263.46        530.1591
263.91         568.874
264.37        606.3806
264.83        642.3068
265.28        675.9553
265.74        706.6959
266.19        733.8458
266.65        757.2009
267.11         777.053
267.56        793.6672
268.02        807.4425
268.47        818.9146
268.93        828.5624
269.38        837.1954
269.84        845.8554
270.30        855.1168
270.75        865.2375
271.21        876.3468
271.66        888.3254
272.12        901.2654
272.57        915.5044
273.03        931.1557
273.48        948.2424
273.94        966.9263
274.39        987.3654
274.85        1009.815
275.31         1034.66
275.76        1061.971
276.22        1091.556
276.67        1123.336
277.13        1157.152
277.58        1192.809
278.04        1230.223
278.49        1268.756
278.95        1307.532
279.40        1346.175
279.86        1384.399
280.31         1422.85
280.77        1462.793
281.22        1504.135
281.68        1546.179
282.13        1587.146
282.59         1624.27
283.04        1657.153
283.50        1686.976
283.95        1715.703
284.41        1746.457
284.86        1780.241
285.32        1816.208
285.77        1853.743
286.22        1891.688
286.68        1929.473
287.13        1967.533
287.59        2005.123
288.04        2041.002
288.50        2074.925
288.95        2106.786
289.41        2137.705
289.86        2169.864
290.32        2203.237
290.77         2236.46
291.22        2267.627
291.68         2293.81
292.13        2314.209
292.59        2330.033
293.04        2341.828
293.50        2350.471
293.95        2357.047
294.40        2361.889
294.86        2367.216
295.31         2376.42
295.77        2390.129
296.22        2407.573
296.68        2426.574
297.13        2443.166
297.58        2456.607
298.04         2468.79
298.49        2481.016
298.95        2495.354
299.40        2512.958
299.85        2533.167
300.31        2557.795
300.76        2589.691
301.21        2628.775
301.67        2674.037
302.12        2721.203
302.58        2763.354
303.03        2798.866
303.48        2829.436
303.94        2859.194
304.39        2895.083
304.84        2938.847
305.30        2988.286
305.75        3039.841
306.20          3087.9
306.66        3130.684
307.11        3169.499
307.57        3206.632
308.02        3245.831
308.47         3287.55
308.93        3329.741
309.38        3369.332
309.83        3401.855
310.29        3426.234
310.74        3444.119
311.19        3457.857
311.65        3471.126
312.10        3485.301
312.55        3499.562
313.00        3513.296
313.46        3525.418
313.91        3535.487
314.36        3543.985
314.82        3551.011
315.27        3556.507
315.72        3560.457
316.18         3562.81
316.63        3563.263
317.08         3561.46
317.53        3557.539
317.99        3551.808
318.44        3545.168
318.89        3539.032
319.35        3533.572
319.80        3528.114
320.25        3521.737
320.70        3512.965
321.16        3501.194
321.61        3486.743
322.06         3469.41
322.51        3448.992
322.97        3425.673
323.42        3399.511
323.87        3371.529
324.32         3343.43
324.78        3315.566
325.23        3287.558
325.68         3258.36
326.13        3226.127
326.59         3190.52
327.04        3152.359
327.49         3112.51
327.94        3072.347
328.39        3032.388
328.85        2992.197
329.30        2951.993
329.75        2912.073
330.20        2872.426
330.66        2833.318
331.11        2793.831
331.56        2752.346
332.01        2708.856
332.46        2664.097
332.92        2620.125
333.37        2580.169
333.82         2545.04
334.27        2513.951
334.72        2485.126
335.17        2455.577
335.63        2424.573
336.08        2393.158
336.53        2362.854
336.98        2336.011
337.43        2313.424
337.88        2294.551
338.34        2278.448
338.79        2263.642
339.24        2249.726
339.69        2237.071
340.14        2226.763
340.59        2220.473
341.05        2218.309
341.50        2219.447
341.95        2221.931
342.40        2222.798
342.85        2221.382
343.30        2218.567
343.75        2216.293
344.20        2217.683
344.66        2223.598
345.11        2233.157
345.56        2244.739
346.01        2255.786
346.46        2265.416
346.91        2273.999
347.36        2282.713
347.81        2293.541
348.26        2306.593
348.72        2320.842
349.17        2334.112
349.62        2343.111
350.07        2347.372
350.52        2348.394
350.97        2348.645
351.42         2351.95
351.87        2359.574
352.32         2370.53
352.77        2383.801
353.22        2397.676
353.67        2411.201
354.13        2424.475
354.58        2437.231
355.03        2449.035
355.48        2459.748
355.93        2469.467
356.38        2477.752
356.83        2484.116
357.28        2488.944
357.73        2492.742
358.18        2497.577
358.63        2506.603
359.08        2520.277
359.53        2537.442
359.98         2555.53
360.43        2570.387
360.88        2580.694
361.33        2587.354
361.78        2591.685
362.23        2596.031
362.68        2601.152
363.13        2606.316
363.58         2611.01
364.03        2614.434
364.48         2616.56
364.93        2618.178
365.38        2619.772
365.83        2621.876
366.28        2624.609
366.73        2627.429
367.18        2630.396
367.63        2633.759
368.08        2637.046
368.53        2639.716
368.98        2640.198
369.43        2636.204
369.88        2627.297
370.33        2614.295
370.78        2599.076
371.23        2584.524
371.68        2572.165
372.13        2562.491
372.58        2554.888
373.03        2548.062
373.48        2541.925
373.93        2536.746
374.38        2535.502
374.83         2542.49
375.28        2558.194
375.72         2581.69
376.17        2606.578
376.62        2622.749
377.07        2628.431
377.52        2626.071
377.97        2624.931
378.42        2640.261
378.87        2674.351
379.32        2721.286
379.77        2769.399
380.22        2800.152
380.67        2809.126
381.11        2802.718
381.56        2789.535
382.01        2783.649
382.46        2789.557
382.91        2802.625
383.36        2821.208
383.81        2842.228
384.26        2864.694
384.71        2892.362
385.15        2921.377
385.60        2944.728
386.05        2962.124
386.50        2974.105
386.95        2992.327
387.40        3036.131
387.85        3107.495
388.29        3199.751
388.74        3294.182
389.19        3360.025
389.64          3392.2
390.09        3403.188
390.54         3410.76
390.98        3443.896
391.43        3509.581
391.88        3594.489
392.33         3693.29
392.78        3795.857
393.23        3893.341
393.67        3994.419
394.12        4081.006
394.57        4105.841
395.02        4077.165
395.47         4048.66
395.91        4038.804
396.36        4043.471
396.81        4070.587
397.26        4129.963
397.71        4221.277
398.15        4328.113
398.60        4440.072
399.05        4569.379
399.50        4684.008
399.95         4708.89
400.39        4651.812
400.84        4579.849
401.29        4519.067
401.74        4485.599
402.18        4478.504
402.63        4457.973
403.08        4426.826
403.53        4429.952
403.97        4464.213
404.42        4493.816
404.87        4515.571
405.32        4539.418
405.76         4562.44
406.21        4586.741
406.66        4598.405
407.11        4566.407
407.55        4498.564
408.00        4425.366
408.45         4371.07
408.90        4366.461
409.34        4406.504
409.79        4448.111
410.24        4470.879
410.68        4477.842
411.13        4461.932
411.58        4406.899
412.03        4336.917
412.47        4305.491
412.92        4322.114
413.37         4369.03
413.81        4422.269
414.26        4444.476
414.71        4425.864
415.15        4379.437
415.60        4323.843
416.05        4288.009
416.49        4280.372
416.94        4292.069
417.39        4312.233
417.83        4322.725
418.28        4320.733
418.73        4317.426
419.17        4319.274
419.62         4335.12
420.07        4366.437
420.51        4404.528
420.96        4454.845
421.41        4522.508
421.85        4602.753
422.30        4705.742
422.74         4799.34
423.19        4800.465
423.64        4715.653
424.08        4631.998
424.53        4576.994
424.98        4522.823
425.42        4478.156
425.87        4498.999
426.31        4554.654
426.76        4517.749
427.21         4409.52
427.65        4381.965
428.10        4439.997
428.54        4495.279
428.99        4545.116
429.44        4598.501
429.88        4667.643
430.33        4819.791
430.77        5008.066
431.22          5073.4
431.66         4996.87
432.11        4874.635
432.56            4735
433.00         4585.54
433.45        4501.448
433.89        4514.027
434.34        4554.166
434.78        4891.112
435.23        4854.637
435.67        4655.716
436.12        4700.214
436.57         4667.73
437.01        4715.924
437.46        4736.479
437.90         4693.51
438.35        4682.381
438.79        4749.723
439.24        4771.505
439.68        4760.395
440.13        4753.445
440.57        4773.719
441.02        4795.751
441.46        4838.604
441.91        5027.059
442.35         5293.35
442.80        5345.875
443.24        5213.449
443.69        5210.573
444.13        5344.089
444.58         5403.71
445.02         5383.02
445.47        5382.583
445.91        5410.979
446.36        5443.606
446.80         5479.86
447.24        5524.739
447.69        5569.953
448.13        5587.942
448.58        5597.796
449.02        5612.733
449.47        5641.469
449.91         5667.99
450.36          5692.7
450.80        5731.136
451.25        5777.556
451.69        5804.165
452.13        5814.328
452.58        5840.638
453.02        5878.999
453.47        5899.434
453.91        5901.194
454.36        5900.736
454.80        5911.397
455.24        5939.341
455.69        5986.685
456.13        6073.204
456.58        6182.039
457.02        6222.421
457.46        6243.021
457.91        6313.065
458.35        6428.179
458.79        6525.636
459.24        6598.637
459.68        6675.667
460.13        6745.729
460.57        6812.878
461.01        6884.009
461.46        6839.392
461.90        6844.617
462.34        6889.923
462.79        6796.105
463.23        6743.571
463.68        6700.439
464.12        6778.913
464.56        6961.802
465.01        7118.339
465.45        7231.646
465.89        7365.451
466.34        7482.249
466.78        7508.002
467.22        7465.144
467.67        7276.025
468.11         7249.48
468.55         7223.73
468.99        7262.394
469.44        7255.733
469.88        7200.195
470.32        7166.522
470.77        7161.086
471.21        7164.511
471.65        7177.853
472.10         7205.54
472.54        7250.152
472.98        7310.425
473.42        7381.653
473.87        7475.605
474.31        7577.804
474.75        7623.471
475.20        7628.233
475.64        7696.274
476.08        7811.664
476.52        7857.387
476.97        7828.111
477.41        7795.698
477.85        7791.813
478.29        7771.239
478.74        7869.329
479.18        7930.129
479.62        7930.521
480.06        7978.479
480.50        8043.182
480.95        8136.362
481.39        8255.997
481.83         8196.44
482.27        8168.862
482.72        8288.252
483.16        8236.732
483.60        8179.999
484.04        8137.637
484.48        8215.941
484.93        8274.552
485.37        8338.428
485.81        8600.534
486.25        8836.848
486.69        12088.94
487.14         13817.6
487.58        10038.74
488.02        8762.837
488.46        8732.535
488.90        8420.387
489.34        8161.999
489.79        8125.412
490.23        8153.902
490.67        8170.127
491.11        8115.254
491.55         8101.75
491.99        8120.852
492.43        8094.914
492.88        8034.618
493.32        8010.423
493.76        8025.088
494.20        8021.686
494.64        7993.459
495.08        8000.508
495.52        8034.316
495.96        7974.102
496.41        7856.133
496.85        7909.283
497.29        8085.619
497.73        8065.091
498.17        7903.716
498.61        7794.486
499.05        7781.813
499.49        7800.994
499.93        7829.715
500.37        7833.185
500.82        7807.873
501.26         7772.39
501.70        7743.063
502.14        7793.567
502.58        7842.995
503.02        7858.754
503.46        7822.604
503.90        7780.177
504.34        7744.069
504.78        7706.833
505.22        7670.502
505.66        7648.336
506.10        7642.615
506.54        7618.565
506.98        7566.826
507.42         7635.61
507.86        7572.463
508.30        7561.395
508.74        7544.276
509.18        7517.245
509.62        7488.849
510.06        7466.028
510.50        7455.313
510.94        7459.683
511.38        7473.296
511.82        7478.267
512.26        7471.241
512.70        7460.834
513.14        7448.051
513.58        7432.171
514.02        7414.882
514.46         7395.44
514.90        7378.184
515.34        7372.194
515.78        7379.415
516.22        7390.028
516.66        7412.058
517.10        7420.768
517.54        7417.631
517.98         7404.53
518.42        7391.602
518.86        7393.496
519.30        7412.616
519.74        7449.382
520.18        7489.347
520.62         7497.69
521.06        7476.125
521.50        7459.273
521.93        7457.398
522.37        7463.354
522.81        7480.479
523.25        7516.964
523.69        7564.613
524.13        7603.162
524.57        7628.038
525.01        7646.012
525.45        7659.223
525.89        7670.812
526.32        7683.544
526.76        7696.248
527.20        7713.221
527.64        7742.394
528.08        7784.151
528.52        7834.693
528.96        7888.167
529.40        7935.514
529.83        7973.288
530.27        8003.171
530.71        8026.065
531.15        8045.371
531.59        8064.275
532.03        8082.486
532.46        8107.402
532.90        8151.675
533.34        8215.966
533.78        8293.931
534.22        8376.552
534.66        8448.963
535.09        8505.864
535.53        8551.968
535.97        8585.438
536.41        8604.213
536.85        8611.528
537.28        8609.058
537.72        8611.553
538.16          8642.7
538.60        8706.357
539.04        8795.456
539.47        8892.332
539.91        8967.156
540.35        9012.428
540.79        9037.743
541.22        9054.294
541.66        9080.898
542.10        9123.584
542.54        9174.616
542.97        9232.752
543.41        9296.718
543.85        9362.885
544.29        9432.236
544.72        9496.374
545.16        9537.285
545.60         9554.09
546.04        9564.201
546.47        9578.587
546.91        9595.229
547.35        9632.203
547.79        9722.569
548.22        9848.423
548.66        9968.534
549.10        10050.58
549.53        10054.11
549.97        9999.901
550.41         9982.17
550.84        10012.17
551.28        10043.33
551.72        10079.11
552.15        10126.95
552.59        10181.61
553.03        10323.34
553.46        10390.24
553.90        10476.51
554.34        10532.06
554.77        10564.72
555.21        10590.72
555.65        10639.32
556.08        10717.23
556.52        10818.43
556.96           10923
557.39        10987.23
557.83        11012.79
558.27        11040.02
558.70         11082.9
559.14        11146.92
559.57        11237.17
560.01        11338.71
560.45        11456.71
560.88        11617.69
561.32        11796.84
561.75        11950.08
562.19        12059.19
562.63        12087.27
563.06        12074.75
563.50        12159.36
563.93        12334.55
564.37         12471.2
564.80        12553.47
565.24        12631.42
565.68        12709.38
566.11         12792.6
566.55        12887.94
566.98         12969.6
567.42        13050.33
567.85        13207.26
568.29        13427.85
568.72        13599.62
569.16        13744.61
569.60        14001.43
570.03        14276.88
570.47        14617.12
570.90        14990.89
571.34        15070.73
571.77        15214.36
572.21        15548.11
572.64        15708.64
573.08        15725.62
573.51        15203.06
573.95        15375.63
574.38        16295.08
574.82        16425.34
