SpectraSmart Spectrum 2.9.0.0
--------- Device Information -----------
Spectrum Name :  光譜_0
Saving Time :  2024/04/20 22:58:27
Spectro-Module Model Name : SE2030-DUVN
Spectro-Module Serial Number : OS361AC55029948
Wavelength Start : 200
Wavelength End : 1025
Wavelength Unit : Wavelength(nm)
Spectrum Unit : Intensity(Counts)
-----------Spectrum Setting ------------
Integration Time : 900ms
Average : 10
Boxcar : 0
Background removal :  enabled
linearity correction :  enabled
SC :  disabled
Intensity correction :  disabled
DWT denoise :  enabled
savitzky-golay :  disabled
FFT :  disabled
Running average :  disabled
Kalman :  disabled
High pass :  disabled
---------------BEGIN--------------------
Wavelength(nm)          Intensity(Counts)
200.29       -23.97013
200.75       -27.30065
201.21       -32.22778
201.67       -37.07978
202.13       -39.30072
202.58       -38.30169
203.04       -34.87735
203.50       -30.62124
203.96       -28.09704
204.42       -28.01431
204.88       -29.64765
205.34       -31.83176
205.80        -32.6715
206.26       -31.69217
206.72       -29.60132
207.18       -27.30675
207.64        -26.1839
208.10       -26.57717
208.55       -27.90723
209.01       -29.50748
209.47       -30.41938
209.93       -30.28444
210.39       -29.37323
210.85       -28.01534
211.31       -26.64893
211.77       -25.58102
212.23        -24.9557
212.69       -24.50168
213.14       -23.84948
213.60         -22.906
214.06       -21.47495
214.52       -20.72799
214.98       -22.46378
215.44       -26.78142
215.90       -33.25164
216.36       -38.89896
216.81       -39.04818
217.27       -32.96878
217.73       -21.99102
218.19       -10.67942
218.65       -6.359672
219.11       -10.58543
219.57       -21.28637
220.02       -33.32229
220.48       -38.31604
220.94       -34.44239
221.40       -24.46882
221.86         -13.346
222.32       -9.068986
222.77       -13.39734
223.23       -23.16477
223.69       -34.57574
224.15       -41.61835
224.61        -42.6129
225.06       -40.17599
225.52       -35.29203
225.98       -29.41983
226.44       -23.63875
226.90       -17.02181
227.36       -12.44137
227.81       -14.53665
228.27       -23.47618
228.73       -38.28877
229.19       -52.96852
229.65       -56.58738
230.10       -47.79431
230.56       -32.15149
231.02       -15.47981
231.48       -5.279312
231.93       -4.046906
232.39        -9.94493
232.85       -19.45585
233.31       -26.08406
233.77       -27.99951
234.22       -27.91684
234.68       -26.25233
235.14       -23.58885
235.60       -20.96594
236.05        -16.8328
236.51       -12.07391
236.97       -17.53092
237.43       -35.11987
237.88       -45.76692
238.34       -39.85748
238.80       -89.80074
239.26       -53.96038
239.71        -47.1145
240.17       -32.82868
240.63       -22.90098
241.08       -18.98777
241.54       -20.27067
242.00        -25.3474
242.46       -27.96205
242.91       -26.95462
243.37       -24.22252
243.83       -21.19551
244.28       -19.99406
244.74       -21.06518
245.20       -23.09533
245.66       -25.07836
246.11       -25.74927
246.57       -24.68816
247.03       -22.57457
247.48       -19.49413
247.94        -15.4675
248.40       -10.87928
248.85        -5.85453
249.31       -1.558623
249.77       0.1363969
250.22      -0.9665903
250.68       -4.145363
251.14       -7.883366
251.59        -9.66388
252.05       -8.785115
252.51        -6.05349
252.96       -2.120938
253.42        1.890015
253.88        5.363132
254.33        8.572488
254.79        10.90785
255.25        11.34999
255.70         9.93542
256.16        7.091008
256.62        3.912477
257.07         2.28927
257.53        2.698136
257.99        4.463022
258.44        7.229821
258.90        10.32115
259.35        13.25794
259.81        16.24695
260.27        18.20464
260.72        17.42698
261.18        13.79119
261.63        7.772534
262.09        1.415794
262.55       -1.908108
263.00       -1.457106
263.46        1.845332
263.91        5.955974
264.37        7.467776
264.83        5.556429
265.28        1.391302
265.74        -3.38786
266.19       -6.202482
266.65       -6.251757
267.11       -4.348742
267.56       -1.395638
268.02        1.242629
268.47        3.033736
268.93         4.28506
269.38        5.419469
269.84        7.063101
270.30        9.271116
270.75        11.70386
271.21        13.55004
271.66        13.63477
272.12        11.84458
272.57        8.700024
273.03        5.384939
273.48        3.759168
273.94        4.244635
274.39        6.210851
274.85        8.711036
275.31        10.19626
275.76        10.16053
276.22        9.098057
276.67        7.318774
277.13        5.290363
277.58        3.362901
278.04        1.542045
278.49       0.1059817
278.95      -0.4867193
279.40      -0.1260964
279.86        1.026345
280.31        2.877601
280.77        5.275279
281.22        7.823653
281.68        10.14138
282.13        11.65096
282.59        11.48383
283.04        9.583769
283.50        6.624376
283.95        2.734622
284.41       -1.875289
284.86       -6.672809
285.32       -11.55532
285.77       -14.69546
286.22       -13.27743
286.68       -7.161632
287.13        2.407773
287.59        12.05815
288.04        17.17255
288.50        17.78481
288.95        11.26767
289.41       -1.126795
289.86       -3.413489
290.32        8.688971
290.77       -21.73151
291.22       0.6828213
291.68       -2.286356
292.13       -2.674455
292.59       -2.386868
293.04       -1.109185
293.50      -0.4876194
293.95       -1.541299
294.40       -3.038194
294.86       -4.809377
295.31       -6.238664
295.77       -7.059069
296.22       -7.569958
296.68       -7.447307
297.13       -6.223728
297.58       -4.007831
298.04      -0.9231411
298.49        1.775817
298.95         2.07608
299.40      -0.3338104
299.85       -4.828277
300.31       -9.601084
300.76       -11.78279
301.21       -10.58307
301.67       -6.658757
302.12       -1.801109
302.58        1.164549
303.03        1.284062
303.48       -1.197384
303.94       -4.408042
304.39       -5.284736
304.84       -3.392409
305.30       0.4257489
305.75        2.711558
306.20       -1.989887
306.66         -14.152
307.11       -31.41394
307.57        -48.4107
308.02       -56.16677
308.47       -52.42477
308.93       -40.93929
309.38       -26.73998
309.83       -11.42147
310.29        -7.95119
310.74        -6.25628
311.19       -6.661975
311.65       -4.255867
312.10        1.878714
312.55        9.909884
313.00         16.8825
313.46        18.19874
313.91        13.10842
314.36        3.612664
314.82       -6.742834
315.27        -12.6255
315.72       -12.49708
316.18       -7.756911
316.63       -1.003977
317.08        3.524733
317.53        4.544309
317.99        3.158405
318.44        1.259071
318.89          1.8368
319.35        5.506479
319.80        11.10585
320.25        16.38934
320.70        17.99856
321.16        15.29497
321.61         9.50864
322.06        3.230585
322.51       0.5151647
322.97        2.293023
323.42        7.217938
323.87        12.97689
324.32        15.85382
324.78        14.86734
325.23        11.31013
325.68        6.719373
326.13        3.500712
326.59        2.476768
327.04        2.875497
327.49        4.180019
327.94         5.63228
328.39        6.888002
328.85        8.243005
329.30        9.685994
329.75        11.08319
330.20        12.38032
330.66        13.45163
331.11        14.18999
331.56        14.58694
332.01        14.60394
332.46        14.17009
332.92        13.56134
333.37        13.14024
333.82        13.10567
334.27        13.69925
334.72        14.27914
335.17        13.83548
335.63        12.17019
336.08        9.188887
336.53         6.62665
336.98        7.277835
337.43        11.38214
337.88        18.13383
338.34        23.97258
338.79         23.2049
339.24        15.02486
339.69        1.526242
340.14        -12.3816
340.59       -18.91393
341.05       -16.13417
341.50       -6.349911
341.95        6.245591
342.40        14.86737
342.85        17.38205
343.30        15.43179
343.75        11.60906
344.20        10.18299
344.66        12.10557
345.11         15.6206
345.56        18.11073
346.01        16.06554
346.46        9.683421
346.91        -1.18894
347.36       -14.48293
347.81        -19.7582
348.26       -14.20229
348.72       -29.25756
349.17        -13.8374
349.62       -10.78228
350.07       -5.559476
350.52       0.9767269
350.97        7.344409
351.42        10.19044
351.87        8.536939
352.32        3.252957
352.77       -2.605213
353.22        -3.73136
353.67       0.8299286
354.13        9.500084
354.58        18.16445
355.03        20.08575
355.48        13.98316
355.93        2.410714
356.38       -10.39788
356.83       -17.77162
357.28       -17.81204
357.73       -12.62718
358.18       -4.733097
358.63        1.855661
359.08        5.598302
359.53        7.535921
359.98        8.266426
360.43        8.682878
360.88        9.128169
361.33        9.140129
361.78        8.399258
362.23        6.627861
362.68        4.063694
363.13        1.237149
363.58      -0.9199755
364.03       -1.019134
364.48       0.9500508
364.93        3.984629
365.38        7.349441
365.83        9.814218
366.28        10.91601
366.73        11.49669
367.18        10.25658
367.63        5.154573
368.08       -3.446962
368.53       -14.75453
368.98       -24.21606
369.43       -24.63125
369.88       -14.90334
370.33        2.585816
370.78        21.64059
371.23        32.30671
371.68        31.86704
372.13        22.73925
372.58        9.971467
373.03        1.950153
373.48       0.9656308
373.93        4.656733
374.38        8.875751
374.83        7.015612
375.28       -2.124144
375.72       -15.64095
376.17       -28.84241
376.62       -34.73505
377.07       -31.57921
377.52       -21.77457
377.97       -9.260456
378.42      -0.1615032
378.87        3.489865
379.32        3.084449
379.77       0.9465169
380.22       0.8834543
380.67         3.83746
381.11        8.493534
381.56        12.48741
382.01          12.254
382.46        7.352569
382.91      -0.4936918
383.36       -8.105381
383.81        -10.6764
384.26       -7.132143
384.71       0.7688796
385.15        10.34495
385.60        17.34491
386.05        20.26968
386.50        20.15666
386.95        17.90002
387.40         15.0241
387.85        12.22558
388.29        9.102477
388.74        5.688997
389.19        2.158584
389.64       -1.263066
390.09       -4.200992
390.54       -6.132805
390.98       -6.514642
391.43       -5.334834
391.88       -2.879333
392.33      0.05868058
392.78        2.235452
393.23        3.262549
393.67         3.37097
394.12        3.007457
394.57        2.984362
395.02        3.556098
395.47         4.43341
395.91        5.328267
396.36        5.898991
396.81        5.871526
397.26        5.098346
397.71        3.857818
398.15        2.498397
398.60        1.213133
399.05       0.4348257
399.50      -0.8570605
399.95        -4.35367
400.39       -9.923533
400.84       -16.96134
401.29       -22.32548
401.74       -21.01541
402.18       -12.54901
402.63       0.9996364
403.08        15.06991
403.53        22.33883
403.97        21.07285
404.42        13.76887
404.87        3.577189
405.32       -4.257905
405.76       -7.891625
406.21       -9.080067
406.66       -7.871696
407.11       -4.355828
407.55       0.7559806
408.00        7.668472
408.45        13.82164
408.90        14.87055
409.34        10.14459
409.79       0.8786734
410.24       -9.479763
410.68       -15.20581
411.13       -14.69848
411.58       -9.383385
412.03       -1.888681
412.47        3.473788
412.92        5.280739
413.37        4.430315
413.81        2.824271
414.26        3.488206
414.71        6.958285
415.15        12.14638
415.60        16.19918
416.05        14.78287
416.49        7.370609
416.94       -4.206879
417.39       -15.81159
417.83       -21.03123
418.28         -18.333
418.73       -9.672869
419.17        1.284943
419.62        8.606418
420.07        10.48531
420.51        8.484632
420.96        4.902509
421.41        3.458347
421.85        5.213533
422.30        8.939197
422.74        12.81326
423.19        14.14215
423.64        12.37273
424.08        8.567244
424.53        4.898034
424.98        4.605227
425.42        8.364652
425.87        15.10688
426.31        22.37385
426.76          26.291
427.21        25.95167
427.65        22.54023
428.10        18.39731
428.54        17.30121
428.99        20.13285
429.44        25.56414
429.88        31.61703
430.33        35.16187
430.77        35.41813
431.22        33.63726
431.66        31.12728
432.11        29.86402
432.56        30.58724
433.00        32.65108
433.45        35.85233
433.89        39.94261
434.34        44.57208
434.78        49.71144
435.23        54.87456
435.67        59.17501
436.12        62.44268
436.57        64.99323
437.01         66.8892
437.46        68.40738
437.90        69.72668
438.35         70.5641
438.79        71.93868
439.24        75.43987
439.68        81.18864
440.13        88.90155
440.57        96.24045
441.02        99.38689
441.46        97.82226
441.91        92.84214
442.35        87.89455
442.80        88.52264
443.24         95.9388
443.69        108.3611
444.13        122.5218
444.58        133.1173
445.02        138.6908
445.47        140.9211
445.91        141.9098
446.36        145.0164
446.80        151.2942
447.24        159.5293
447.69        168.7193
448.13        177.4642
448.58        185.0903
449.02         191.886
449.47        198.0773
449.91        203.8882
450.36        209.3578
450.80        214.4139
451.25        218.2565
451.69        219.7824
452.13        218.9516
452.58         216.058
453.02        212.9605
453.47        212.6371
453.91        215.4364
454.36        220.2669
454.80        224.4412
455.24        223.6061
455.69        216.9088
456.13        206.0681
456.58        193.5079
457.02        183.0576
457.46        176.1384
457.91        171.8271
458.35        169.6135
458.79         168.612
459.24        168.1463
459.68        168.2508
460.13        168.3434
460.57        167.4032
461.01        165.0495
461.46        161.3833
461.90        156.2203
462.34        149.4864
462.79        141.6234
463.23        133.0726
463.68        125.2211
464.12        120.1941
464.56        118.4164
465.01        119.1925
465.45        121.4603
465.89         123.336
466.34        124.1188
466.78        124.3558
467.22        123.7127
467.67        121.7783
468.11        118.6936
468.55        114.3471
468.99        110.2396
469.44        108.9311
469.88        110.7173
470.32        114.7637
470.77        118.7703
471.21        118.9478
471.65        114.5249
472.10        106.8757
472.54         98.0705
472.98        91.45728
473.42        88.10394
473.87        87.00007
474.31        87.46904
474.75        88.35902
475.20        89.12886
475.64         90.2906
476.08        91.34654
476.52        91.34335
476.97        90.24428
477.41        88.16262
477.85        86.00501
478.29        85.56001
478.74        86.85712
479.18        88.58083
479.62        89.67471
480.06        89.26112
480.50        88.15929
480.95        83.26506
481.39        72.28095
481.83        65.26521
482.27        65.90791
482.72        19.45597
483.16        27.37366
483.60        19.70811
484.04        26.39647
484.48        42.30344
484.93        62.66614
485.37        77.76202
485.81        83.79715
486.25        83.97871
486.69        80.36005
487.14        76.78089
487.58        74.81694
488.02        73.13628
488.46        71.78834
488.90        71.11251
489.34        71.03083
489.79        71.87616
490.23        73.17718
490.67        73.71688
491.11        73.19723
491.55        72.09105
491.99         70.7674
492.43         68.9743
492.88        65.67515
493.32        65.57471
493.76        70.63549
494.20        68.74147
494.64        56.66724
495.08        95.51295
495.52        77.99734
495.96        88.36904
496.41        94.30463
496.85        98.59619
497.29        99.83979
497.73         98.0194
498.17        94.48222
498.61        88.84214
499.05        83.10489
499.49        80.25713
499.93         81.1291
500.37         84.9803
500.82        91.03257
501.26        97.87268
501.70        104.5592
502.14         110.969
502.58        116.1838
503.02        118.9362
503.46        118.8354
503.90        115.9708
504.34        111.0026
504.78        105.1603
505.22        99.26748
505.66        93.80925
506.10         88.9942
506.54        84.89534
506.98        81.76617
507.42        79.66227
507.86        79.71619
508.30        83.55697
508.74        90.94499
509.18        100.9037
509.62        110.4913
510.06        115.1535
510.50         113.943
510.94        108.2555
511.38        100.9159
511.82        96.63345
512.26        96.81195
512.70        100.1187
513.14        105.2005
513.58        109.5969
514.02        112.1466
514.46        114.5521
514.90         119.087
515.34        118.9434
515.78        112.3628
516.22        118.9129
516.66        143.8401
517.10        95.33768
517.54        133.1131
517.98        128.7508
518.42        129.0759
518.86        129.1201
519.30        129.5495
519.74        129.0525
520.18        126.1511
520.62        122.8723
521.06        119.2772
521.50        115.4001
521.93        111.8098
522.37        109.2396
522.81        107.9825
523.25        107.9886
523.69        109.1084
524.13        111.0222
524.57        113.3776
525.01        115.8662
525.45        118.2013
525.89        120.0262
526.32        121.1073
526.76        121.4734
527.20         120.624
527.64        117.8905
528.08        113.4116
528.52          107.59
528.96        101.9245
529.40         98.7019
529.83        98.51198
530.27        100.9377
530.71        104.4575
531.15        106.4935
531.59        106.3888
532.03        104.7603
532.46        103.1196
532.90        103.9467
533.34        107.6499
533.78        113.2023
534.22        118.7108
534.66        121.2861
535.09        120.2378
535.53        116.5219
535.97        111.7919
536.41        108.6769
536.85        107.9583
537.28        108.8973
537.72        110.4665
538.16        111.0072
538.60        110.0815
539.04        108.3649
539.47         106.655
539.91         106.058
540.35        106.9867
540.79        109.2209
541.22        112.1724
541.66        114.9555
542.10        117.3163
542.54        119.3094
542.97        121.7508
543.41        126.0113
543.85        131.9908
544.29        138.8222
544.72        144.7031
545.16        146.8634
545.60        144.8103
546.04        139.7302
546.47        133.1511
546.91         127.527
547.35        123.8712
547.79         121.623
548.22        121.0854
548.66        122.5947
549.10        125.8822
549.53        130.8984
549.97        136.1551
550.41        139.1245
550.84        139.3351
551.28        137.4884
551.72        135.1566
552.15        135.0489
552.59        137.8484
553.03        142.5788
553.46        148.3086
553.90        153.5543
554.34        157.6333
554.77        160.8885
555.21        163.0425
555.65        163.6814
556.08        162.8268
556.52        160.5143
556.96        157.4885
557.39         155.001
557.83        153.5594
558.27        153.2669
558.70        153.6027
559.14        153.5598
559.57        152.9764
560.01        152.0866
560.45        152.0274
560.88        154.5564
561.32        159.7872
561.75        166.9332
562.19        173.7846
562.63        177.0206
563.06         175.745
563.50        170.6076
563.93        164.0019
564.37        159.7811
564.80         159.062
565.24        161.3093
565.68        163.7734
566.11         161.959
566.55        155.2173
566.98        145.0055
567.42        135.8726
567.85        134.9785
568.29        143.3878
568.72        158.4036
569.16         174.075
569.60        180.9507
570.03        176.8793
570.47        165.1218
570.90        150.7305
571.34        141.7534
571.77        140.8124
572.21        145.5788
572.64        153.5741
573.08        161.0091
573.51        165.8919
573.95        168.4934
574.38        169.6196
574.82        169.9647
