SpectraSmart Spectrum 2.9.0.0
--------- Device Information -----------
Spectrum Name :  反射率_0
Saving Time :  2024/04/25 22:51:42
Spectro-Module Model Name : SE2030-DUVN
Spectro-Module Serial Number : OS361AC55029948
Wavelength Start : 200
Wavelength End : 1025
Wavelength Unit : Wavelength(nm)
Spectrum Unit : Reflectance(%)
-----------Spectrum Setting ------------
Integration Time : 20ms
Average : 10
Boxcar : 0
Background removal :  enabled
linearity correction :  enabled
SC :  disabled
Intensity correction :  disabled
DWT denoise :  enabled
savitzky-golay :  disabled
FFT :  disabled
Running average :  disabled
Kalman :  disabled
High pass :  disabled
---------------BEGIN--------------------
Wavelength(nm)             Reflectance(%)
200.29               0
200.75         101.054
201.21        95.09785
201.67        87.68749
202.13         82.7487
202.58        80.85468
203.04         81.3893
203.50           82.84
203.96        82.77203
204.42        80.86879
204.88        78.20352
205.34        76.14134
205.80        76.09625
206.26         78.7078
206.72        85.52677
207.18         99.2528
207.64        111.3944
208.10        103.4022
208.55        86.76405
209.01        76.14977
209.47        72.33942
209.93        72.50144
210.39        75.47266
210.85        79.22823
211.31        79.67321
211.77        75.73585
212.23        68.80048
212.69        63.13172
213.14        65.41295
213.60        76.23707
214.06        93.29169
214.52         110.323
214.98        117.9375
215.44        114.3972
215.90        103.3947
216.36        90.16525
216.81         82.0447
217.27        80.93526
217.73        84.12118
218.19        88.55219
218.65        90.50827
219.11        88.85936
219.57        83.79496
220.02        76.62005
220.48        73.36892
220.94        76.78046
221.40        84.59932
221.86        90.28047
222.32        87.51008
222.77        77.82838
223.23        65.93401
223.69        56.38988
224.15        53.81569
224.61        57.59056
225.06        65.28885
225.52        73.58604
225.98        78.22732
226.44        78.35531
226.90        75.62183
227.36        72.20275
227.81        71.05843
228.27        73.02928
228.73        76.67704
229.19        80.53459
229.65        82.52731
230.10         82.3025
230.56        81.09357
231.02        79.67659
231.48        78.88424
231.93        78.81729
232.39        79.13616
232.85        79.78564
233.31        80.85053
233.77        82.21761
234.22        83.92022
234.68        85.37897
235.14        85.46348
235.60        83.95488
236.05        81.28893
236.51        78.28984
236.97          76.042
237.43         74.7623
237.88        74.21776
238.34        74.23969
238.80         74.7767
239.26        75.65104
239.71        77.24055
240.17        78.47742
240.63        78.08142
241.08        75.98244
241.54        72.45742
242.00        68.95608
242.46        67.39095
242.91        68.77322
243.37        74.83117
243.83        94.58571
244.28        151.9398
244.74         201.689
245.20        155.9062
245.66        122.5979
246.11        113.0684
246.57         115.868
247.03        134.0021
247.48        189.6208
247.94         159.597
248.40         99.4549
248.85        81.40423
249.31        76.73146
249.77        77.77737
250.22        82.59988
250.68        91.58705
251.14        104.7379
251.59        114.1622
252.05        111.4705
252.51        100.1993
252.96          87.009
253.42        78.39714
253.88        74.17666
254.33        72.14713
254.79        73.04669
255.25        77.27917
255.70        83.35004
256.16        90.27934
256.62          95.228
257.07        95.34296
257.53        91.70926
257.99        85.59946
258.44        79.28233
258.90        76.33751
259.35        75.92599
259.81        76.72968
260.27        76.84187
260.72        74.45345
261.18        70.30882
261.63        65.17728
262.09        60.51584
262.55        57.25702
263.00        55.35698
263.46        54.43974
263.91        53.78899
264.37        53.00684
264.83        51.87919
265.28        50.46813
265.74         49.1105
266.19        47.99682
266.65        47.33228
267.11        46.93392
267.56        46.54652
268.02        45.89876
268.47         44.8867
268.93        43.63776
269.38        42.32307
269.84        41.43933
270.30        41.10801
270.75        41.20347
271.21        41.44479
271.66        41.40842
272.12        40.98124
272.57        40.26857
273.03        39.52583
273.48        39.04557
273.94        38.91927
274.39        38.99006
274.85        39.05158
275.31        38.77456
275.76        38.09662
276.22        37.18785
276.67        36.23755
277.13         35.6335
277.58        35.37868
278.04        35.37885
278.49         35.3921
278.95        35.17333
279.40        34.62981
279.86        33.92402
280.31        33.13525
280.77        32.51399
281.22        32.06832
281.68        31.75974
282.13        31.50604
282.59        31.25329
283.04        30.95927
283.50        30.68452
283.95        30.39497
284.41        30.07281
284.86        29.70076
285.32        29.28603
285.77        28.88351
286.22        28.65019
286.68        28.58244
287.13        28.61316
287.59        28.58432
288.04        28.23717
288.50        27.57676
288.95        26.68491
289.41         25.7889
289.86        25.11424
290.32        24.76773
290.77        24.64285
291.22        24.67251
291.68         24.7143
292.13        24.72109
292.59        24.73902
293.04        24.77874
293.50        24.86213
293.95        24.98635
294.40         25.1137
294.86        25.24042
295.31         25.3754
295.77        25.52249
296.22        25.68774
296.68        25.84854
297.13        25.93613
297.58        25.96338
298.04        25.97322
298.49        26.04279
298.95        26.32517
299.40         26.8347
299.85        27.51836
300.31        28.27205
300.76        28.94193
301.21         29.4622
301.67        29.89182
302.12        30.23333
302.58        30.55117
303.03        30.84918
303.48        31.12036
303.94        31.42626
304.39        31.82785
304.84        32.33633
305.30        32.92467
305.75        33.48473
306.20        33.86111
306.66        34.04339
307.11        34.06487
307.57        34.03988
308.02        34.06261
308.47         34.1934
308.93        34.39811
309.38        34.64674
309.83        34.92608
310.29        35.20612
310.74        35.47482
311.19        35.69836
311.65        35.82207
312.10        35.83385
312.55        35.75562
313.00        35.59268
313.46        35.36833
313.91        35.09957
314.36        34.80647
314.82        34.56937
315.27        34.48813
315.72        34.58292
316.18        34.81812
316.63         35.0996
317.08        35.24598
317.53        35.20311
317.99        35.00528
318.44        34.74753
318.89        34.58865
319.35        34.55921
319.80        34.62139
320.25         34.6657
320.70        34.51683
321.16        34.14603
321.61        33.62164
322.06        33.08024
322.51        32.72404
322.97        32.58612
323.42        32.61324
323.87         32.6847
324.32        32.59922
324.78        32.30225
325.23        31.87139
325.68         31.3977
326.13        31.03266
326.59        30.82031
327.04         30.7336
327.49         30.7326
327.94        30.75792
328.39        30.78261
328.85        30.81166
329.30        30.87302
329.75        30.96247
330.20        31.07298
330.66        31.17157
331.11        31.25087
331.56        31.25896
332.01         31.1848
332.46        31.03278
332.92        30.83226
333.37         30.6817
333.82        30.60007
334.27        30.58636
334.72        30.58967
335.17        30.51788
335.63        30.34894
336.08         30.1148
336.53        29.90227
336.98        29.85644
337.43        30.00132
337.88        30.29347
338.34         30.5809
338.79        30.66782
339.24        30.48453
339.69        30.09156
340.14        29.65977
340.59        29.48668
341.05        29.63575
341.50        30.00859
341.95        30.42925
342.40        30.64251
342.85        30.58951
343.30        30.35951
343.75        30.04008
344.20        29.78582
344.66        29.65527
345.11        29.56832
345.56        29.52403
346.01        29.51999
346.46        29.53647
346.91        29.59405
347.36        29.59912
347.81        29.39452
348.26        28.97799
348.72         28.4311
349.17        27.89503
349.62        27.68275
350.07        27.86088
350.52        28.31989
350.97        28.89338
351.42        29.32498
351.87        29.53191
352.32        29.58103
352.77        29.50573
353.22        29.36512
353.67        29.19164
354.13        28.96924
354.58        28.72216
355.03        28.53264
355.48        28.41971
355.93         28.3829
356.38        28.37003
356.83        28.28563
357.28        28.10479
357.73        27.84529
358.18        27.56949
358.63        27.37634
359.08        27.28591
359.53        27.27408
359.98        27.25001
360.43        27.07382
360.88        26.72463
361.33        26.24602
361.78        25.77268
362.23        25.52179
362.68        25.53134
363.13        25.72239
363.58        25.93362
364.03        25.91306
364.48        25.60502
364.93        25.09855
365.38        24.51951
365.83        24.06963
366.28        23.81467
366.73         23.6918
367.18        23.65643
367.63        23.63738
368.08        23.59818
368.53        23.56143
368.98        23.51147
369.43        23.41407
369.88        23.26878
370.33         23.0863
370.78        22.88227
371.23        22.69431
371.68        22.53882
372.13        22.39947
372.58        22.31395
373.03        22.34073
373.48         22.4737
373.93        22.68943
374.38        22.87723
374.83        22.86643
375.28        22.63061
375.72         22.2147
376.17        21.76644
376.62        21.48979
377.07        21.44242
377.52        21.55772
377.97         21.7499
378.42        21.87725
378.87        21.89112
379.32        21.83802
379.77        21.73876
380.22        21.61991
380.67        21.49479
381.11        21.34928
381.56        21.19587
382.01        21.07009
382.46        20.98125
382.91        20.92746
383.36        20.88927
383.81        20.82903
384.26        20.73879
384.71        20.63106
385.15        20.51652
385.60         20.4257
386.05        20.35453
386.50        20.28756
386.95        20.22001
387.40        20.14711
387.85        20.07448
388.29        20.01152
388.74         19.9587
389.19        19.87806
389.64         19.7669
390.09        19.62157
390.54        19.50363
390.98        19.51421
391.43        19.67066
391.88        19.92739
392.33        20.16194
392.78        20.19417
393.23        20.01205
393.67        19.67997
394.12        19.36095
394.57        19.21676
395.02        19.28342
395.47         19.5038
395.91        19.80607
396.36        20.02896
396.81        20.11815
397.26        20.10304
397.71        20.02776
398.15        19.94104
398.60        19.89026
399.05        19.86259
399.50        19.82463
399.95        19.67573
400.39        19.50128
400.84        19.26488
401.29        19.07149
401.74        19.06616
402.18        19.28628
402.63        19.65431
403.08        20.06044
403.53        20.32848
403.97        20.40919
404.42        20.35347
404.87        20.20571
405.32        20.04928
405.76        19.92274
406.21        19.81079
406.66        19.73905
407.11        19.75233
407.55        19.85778
408.00        20.04675
408.45        20.26125
408.90        20.36829
409.34        20.33022
409.79        20.18877
410.24        20.03177
410.68        19.98806
411.13        20.09029
411.58        20.29761
412.03        20.55267
412.47        20.75512
412.92        20.85018
413.37        20.86981
413.81        20.84587
414.26        20.84614
414.71        20.88032
415.15        20.92987
415.60        20.95767
416.05        20.92558
416.49        20.83112
416.94         20.7104
417.39        20.59311
417.83        20.52481
418.28        20.52529
418.73        20.56145
419.17         20.6438
419.62        20.78721
420.07        20.98027
420.51        21.22085
420.96        21.41625
421.41         21.4102
421.85        21.18163
422.30        20.81751
422.74        20.45456
423.19        20.33061
423.64        20.46884
424.08         20.8116
424.53        21.22668
424.98        21.50919
425.42        21.59366
425.87        21.52443
426.31         21.3708
426.76        21.30385
427.21        21.33389
427.65        21.26836
428.10        21.18406
428.54        21.34631
428.99        21.75556
429.44        22.28762
429.88        22.72789
430.33        22.81402
430.77        22.51308
431.22        21.92387
431.66        21.28174
432.11        21.07961
432.56        21.36581
433.00        21.73832
433.45        22.03522
433.89          22.638
434.34        23.26059
434.78          22.882
435.23        21.91306
435.67        21.78894
436.12        22.44578
436.57        22.68659
437.01        22.42914
437.46        22.32476
437.90        22.42697
438.35        22.54999
438.79        22.63756
439.24        22.66674
439.68        22.63943
440.13        22.48164
440.57        22.30103
441.02        22.55546
441.46         23.0898
441.91         23.0879
442.35        22.60904
442.80        22.37074
443.24        22.36819
443.69        22.43036
444.13        22.48219
444.58        22.26905
445.02        21.88867
445.47        21.89586
445.91        22.21355
446.36        22.27816
446.80        22.05563
447.24        21.86425
447.69         21.7714
448.13         21.7376
448.58        21.78482
449.02        21.91309
449.47        22.06968
449.91        22.16769
450.36        22.18785
450.80        22.14854
451.25        22.09701
451.69        22.09418
452.13        22.15926
452.58        22.25864
453.02        22.36661
453.47        22.44942
453.91        22.49602
454.36        22.52258
454.80        22.52357
455.24         22.4826
455.69        22.41532
456.13        22.32168
456.58        22.25484
457.02        22.25978
457.46        22.35479
457.91        22.51572
458.35         22.7005
458.79        22.83972
459.24        22.92242
459.68        22.94756
460.13        22.95282
460.57        22.94882
461.01        22.96388
461.46        22.98854
461.90        23.01602
462.34        23.03473
462.79        23.03521
463.23         23.0154
463.68         23.0085
464.12        23.07632
464.56        23.22362
465.01        23.44965
465.45        23.62973
465.89        23.66705
466.34        23.56708
466.78        23.23409
467.22        22.85551
467.67        22.96697
468.11        23.49941
468.55        23.75628
468.99        23.67048
469.44        23.61777
469.88        23.67925
470.32        23.92467
470.77        24.26248
471.21         24.3638
471.65        24.19414
472.10        24.00391
472.54        23.86432
472.98        23.80143
473.42        23.84577
473.87        23.99918
474.31         24.2015
474.75        24.35501
475.20        24.43826
475.64        24.46397
476.08        24.47207
476.52        24.52265
476.97        24.63155
477.41        24.78024
477.85        24.92058
478.29        25.02723
478.74        25.09414
479.18        25.00804
479.62        24.83054
480.06        25.07589
480.50        25.24027
480.95        25.38919
481.39        25.32297
481.83        25.26448
482.27        25.21431
482.72        24.93883
483.16        24.57629
483.60        24.69389
484.04        25.31458
484.48        25.64059
484.93        25.90822
485.37         26.4724
485.81        27.13259
486.25        26.76221
486.69        35.02009
487.14        27.76565
487.58        18.24849
488.02        22.73457
488.46        25.88411
488.90        25.91801
489.34        26.48948
489.79        26.31117
490.23        27.51115
490.67        28.07095
491.11        27.76394
491.55        27.66059
491.99        27.67005
492.43        27.54282
492.88        27.35354
493.32        27.44121
493.76        27.60812
494.20         27.9015
494.64        28.22686
495.08        28.58389
495.52        28.94748
495.96        29.29655
496.41        29.55567
496.85        29.72697
497.29        29.81537
497.73        29.49675
498.17        29.12112
498.61        29.43818
499.05        30.42269
499.49        30.59045
499.93        30.66498
500.37        30.70705
500.82        30.66998
501.26        30.91185
501.70        31.29046
502.14        31.53737
502.58        31.58384
503.02        31.62013
503.46        31.64545
503.90        31.51809
504.34        31.32483
504.78        31.28115
505.22        31.42176
505.66          31.693
506.10        32.00422
506.54        32.18138
506.98        32.17978
507.42        32.08908
507.86        32.01919
508.30         31.9651
508.74        32.23679
509.18        32.54976
509.62        32.89908
510.06        33.13722
510.50        33.22524
510.94        33.21352
511.38        33.14244
511.82        33.08012
512.26        33.05522
512.70        33.04366
513.14        33.06432
513.58         33.1512
514.02        33.29376
514.46        33.47742
514.90        33.64972
515.34         33.6941
515.78        33.56755
516.22        33.43573
516.66         33.3576
517.10        33.05157
517.54        32.54052
517.98        33.18068
518.42        32.99339
518.86        33.28629
519.30         33.4528
519.74         33.6749
520.18         33.9005
520.62        34.01996
521.06        34.03638
521.50        33.96027
521.93        33.83552
522.37        33.74516
522.81        33.71404
523.25        33.71983
523.69        33.74981
524.13        33.78327
524.57         33.8084
525.01        33.83209
525.45        33.84227
525.89        33.81669
526.32           33.75
526.76        33.65118
527.20        33.53259
527.64        33.42567
528.08         33.3479
528.52        33.26272
528.96        33.16356
529.40        33.13174
529.83        33.18218
530.27        32.95241
530.71        33.07653
531.15        33.00444
531.59        32.92749
532.03        32.83066
532.46        32.75705
532.90        32.76981
533.34        32.86705
533.78         33.0272
534.22        33.17707
534.66        33.21018
535.09        33.10097
535.53        32.89506
535.97        32.65638
536.41         32.4953
536.85        32.44571
537.28         32.4817
537.72        32.55577
538.16        32.59414
538.60        32.57849
539.04         32.5088
539.47        32.43431
539.91        32.51182
540.35        32.71846
540.79         32.8915
541.22        32.99291
541.66        33.09773
542.10        33.19225
542.54        33.20903
542.97        33.19925
543.41        33.29715
543.85        33.51572
544.29         33.8295
544.72         34.1409
545.16        34.31286
545.60        34.31837
546.04        34.19711
546.47        34.08895
546.91        34.22631
547.35        34.63694
547.79          35.252
548.22        35.87635
548.66        36.18121
549.10        36.12021
549.53        35.85042
549.97         35.5685
550.41        35.49293
550.84        35.69475
551.28        36.12001
551.72        36.65482
552.15          37.085
552.59        37.33328
553.03        37.48134
553.46        37.57817
553.90         37.6727
554.34        37.78429
554.77        38.07786
555.21        38.11549
555.65        38.31546
556.08        38.56722
556.52        38.39263
556.96        38.69754
557.39        38.77214
557.83        38.90177
558.27        39.03993
558.70        39.19419
559.14        39.35808
559.57         39.5096
560.01        39.66939
560.45        39.79771
560.88        39.83167
561.32        39.79479
561.75        39.68594
562.19        39.59039
562.63         39.5852
563.06        39.68076
563.50        39.86226
563.93        40.07187
564.37        40.23888
564.80        40.32909
565.24        40.38027
565.68         40.4124
566.11        40.46117
566.55        40.56479
566.98        40.69571
567.42        40.86044
567.85        41.06719
568.29        41.33292
568.72        41.52559
569.16        41.70041
569.60        42.07356
570.03        42.46339
570.47        42.41836
570.90        42.11766
571.34        41.50522
571.77        42.03715
572.21        42.04463
572.64        42.01809
573.08        41.48932
573.51        40.14507
573.95        41.86499
574.38        44.37439
574.82        43.63157
