SpectraSmart Spectrum 2.9.0.0
--------- Device Information -----------
Spectrum Name :  反射率_0
Saving Time :  2024/04/26 00:50:25
Spectro-Module Model Name : SE2030-DUVN
Spectro-Module Serial Number : OS361AC55029948
Wavelength Start : 200
Wavelength End : 1025
Wavelength Unit : Wavelength(nm)
Spectrum Unit : Reflectance(%)
-----------Spectrum Setting ------------
Integration Time : 20ms
Average : 10
Boxcar : 0
Background removal :  enabled
linearity correction :  enabled
SC :  disabled
Intensity correction :  disabled
DWT denoise :  enabled
savitzky-golay :  disabled
FFT :  disabled
Running average :  disabled
Kalman :  disabled
High pass :  disabled
---------------BEGIN--------------------
Wavelength(nm)             Reflectance(%)
200.29               0
200.75        75.33603
201.21        65.09126
201.67        54.86475
202.13        49.55681
202.58        49.46741
203.04        53.43216
203.50        59.30921
203.96        63.07975
204.42        63.56955
204.88        62.26413
205.34        60.55914
205.80        59.86924
206.26        60.68025
206.72        63.22659
207.18        68.82368
207.64        75.39169
208.10        74.87602
208.55        69.82375
209.01        65.98833
209.47        64.46835
209.93        64.32953
210.39        65.10036
210.85        65.63742
211.31         63.8391
211.77        59.46913
212.23        53.47853
212.69        48.40092
213.14        48.20048
213.60        53.14458
214.06        62.14869
214.52        71.99113
214.98         77.6696
215.44        77.97343
215.90        74.52718
216.36        69.55329
216.81        66.18081
217.27        65.39514
217.73        65.94719
218.19        66.53957
218.65        65.47742
219.11        61.99008
219.57        55.69364
220.02        46.78891
220.48        39.53022
220.94        36.85733
221.40        38.78749
221.86        41.64863
222.32        41.05011
222.77          37.173
223.23        32.18172
223.69         28.6493
224.15        29.34068
224.61         33.6488
225.06        40.01896
225.52        45.71283
225.98        47.34419
226.44        44.45391
226.90        38.68718
227.36        32.15121
227.81        27.65626
228.27        26.20939
228.73        26.78249
229.19         28.7447
229.65        31.08828
230.10        33.23741
230.56         35.2831
231.02         37.0458
231.48        38.29831
231.93        39.06058
232.39        39.35535
232.85        39.29617
233.31        39.14334
233.77        38.95314
234.22        38.64612
234.68        38.21291
235.14        37.56734
235.60        36.77697
236.05        36.05004
236.51        35.41541
236.97         34.7699
237.43         34.1271
237.88        33.52138
238.34        33.34665
238.80        34.55866
239.26        37.45798
239.71        41.79139
240.17        46.44224
240.63        49.91504
241.08        51.76692
241.54        52.19398
242.00        51.88658
242.46        51.96818
242.91        53.15842
243.37        56.06898
243.83        65.98288
244.28        103.5464
244.74        156.2895
245.20        140.4236
245.66        119.1333
246.11        111.9246
246.57         112.535
247.03        120.8167
247.48        140.4598
247.94        104.6715
248.40        76.98718
248.85        71.50188
249.31        71.42116
249.77        73.60055
250.22        77.69834
250.68        84.65907
251.14        94.03198
251.59        98.61974
252.05        92.32159
252.51        78.94536
252.96        65.59874
253.42        58.54584
253.88        57.03473
254.33        58.76793
254.79        62.80966
255.25        67.22916
255.70         70.8842
256.16        74.24408
256.62        76.05521
257.07        75.00445
257.53        71.88042
257.99        67.08606
258.44        62.36327
258.90        60.56893
259.35        60.82581
259.81        62.04015
260.27        62.25164
260.72        59.57991
261.18        54.82358
261.63        48.90387
262.09         43.6076
262.55        40.37513
263.00        39.08894
263.46        39.02924
263.91        39.10281
264.37        38.37856
264.83        36.72221
265.28        34.43676
265.74        32.23259
266.19        30.94846
266.65        30.78926
267.11        31.26526
267.56        31.78416
268.02        31.65647
268.47        30.77193
268.93        29.38877
269.38        27.80459
269.84        26.73313
270.30        26.36921
270.75        26.50978
271.21        26.81942
271.66        26.81122
272.12        26.34763
272.57        25.59207
273.03        24.80703
273.48        24.29997
273.94        24.16353
274.39        24.24759
274.85        24.35364
275.31        24.19571
275.76         23.7122
276.22         23.0334
276.67        22.32609
277.13        21.90817
277.58        21.78714
278.04        21.87473
278.49        21.95746
278.95        21.78602
279.40        21.30176
279.86        20.65566
280.31        19.97123
280.77        19.53225
281.22        19.35421
281.68        19.35245
282.13        19.42228
282.59        19.44403
283.04        19.37822
283.50        19.30187
283.95        19.18654
284.41        18.99794
284.86        18.74491
285.32        18.44312
285.77        18.21289
286.22        18.29607
286.68        18.68588
287.13        19.26892
287.59        19.81339
288.04         19.9704
288.50        19.70022
288.95        19.11494
289.41        18.42604
289.86        17.85434
290.32        17.52374
290.77        17.35502
291.22        17.34646
291.68        17.45592
292.13        17.66477
292.59        17.99274
293.04        18.41019
293.50        18.86143
293.95        19.31082
294.40         19.7268
294.86        20.10548
295.31         20.4649
295.77        20.80951
296.22        21.13686
296.68        21.41187
297.13        21.55251
297.58         21.5749
298.04        21.53185
298.49        21.53498
298.95        21.78472
299.40        22.30421
299.85        23.02363
300.31        23.80216
300.76        24.42836
301.21        24.82243
301.67        25.06155
302.12        25.17815
302.58        25.26901
303.03        25.35438
303.48        25.41859
303.94        25.51409
304.39        25.69385
304.84        25.96726
305.30        26.31288
305.75        26.64283
306.20        26.82587
306.66        26.85248
307.11        26.75173
307.57        26.60795
308.02        26.48112
308.47        26.42231
308.93         26.4116
309.38        26.44636
309.83        26.55225
310.29        26.70911
310.74        26.89381
311.19        27.05918
311.65        27.13093
312.10        27.08986
312.55        26.96177
313.00        26.74656
313.46        26.45762
313.91         26.1132
314.36        25.73579
314.82        25.41718
315.27        25.28261
315.72        25.35309
316.18        25.58704
316.63         25.8775
317.08        26.02271
317.53        25.96365
317.99        25.74271
318.44        25.46012
318.89        25.28157
319.35        25.24285
319.80        25.29781
320.25        25.34479
320.70         25.2218
321.16        24.89661
321.61        24.42954
322.06        23.93638
322.51        23.58547
322.97        23.40672
323.42        23.35698
323.87        23.33204
324.32        23.16099
324.78        22.80244
325.23        22.31876
325.68        21.81083
326.13        21.44072
326.59        21.25128
327.04        21.21262
327.49        21.24722
327.94        21.22775
328.39        21.11599
328.85        20.93887
329.30        20.78257
329.75        20.76287
330.20        20.90381
330.66        21.13932
331.11        21.39061
331.56         21.4954
332.01        21.40533
332.46        21.14919
332.92        20.80252
333.37        20.52638
333.82        20.37593
334.27        20.33363
334.72        20.31575
335.17        20.17502
335.63        19.88158
336.08        19.48987
336.53        19.14317
336.98        19.06526
337.43        19.29262
337.88        19.75059
338.34        20.22454
338.79         20.4094
339.24        20.20547
339.69        19.69983
340.14         19.1091
340.59        18.81559
341.05        18.90991
341.50        19.26968
341.95        19.69643
342.40        19.89811
342.85        19.80637
343.30        19.53253
343.75        19.16669
344.20        18.86523
344.66        18.68615
345.11        18.53604
345.56        18.44032
346.01        18.43879
346.46         18.5116
346.91         18.6732
347.36         18.7578
347.81        18.49312
348.26        17.86688
348.72        17.00351
349.17         16.1628
349.62        15.85587
350.07        16.19024
350.52        16.98574
350.97        17.95086
351.42        18.63727
351.87        18.91168
352.32        18.89938
352.77        18.69813
353.22        18.47183
353.67        18.28607
354.13        18.08351
354.58         17.8739
355.03        17.71844
355.48        17.62636
355.93        17.61618
356.38        17.62426
356.83        17.52719
357.28        17.30451
357.73        16.98868
358.18        16.67626
358.63        16.52227
359.08        16.55569
359.53        16.72538
359.98        16.91806
360.43        16.95998
360.88        16.81103
361.33        16.52046
361.78        16.19563
362.23        16.01152
362.68        16.00546
363.13        16.11409
363.58         16.2314
364.03        16.19366
364.48        15.96835
364.93        15.62517
365.38        15.24695
365.83        14.96131
366.28         14.8107
366.73        14.74954
367.18        14.76146
367.63        14.82174
368.08        14.90162
368.53        15.00179
368.98        15.07299
369.43        15.03418
369.88        14.87873
370.33        14.63909
370.78        14.36667
371.23        14.15548
371.68        14.03963
372.13         13.9869
372.58        14.01496
373.03         14.1454
373.48        14.35697
373.93        14.63706
374.38        14.87517
374.83        14.90263
375.28        14.69551
375.72        14.29212
376.17        13.85389
376.62        13.60781
377.07        13.61501
377.52        13.80591
377.97        14.06943
378.42        14.22125
378.87        14.20843
379.32        14.09485
379.77        13.93867
380.22        13.82054
380.67        13.76399
381.11        13.73676
381.56        13.71921
382.01        13.69403
382.46        13.65132
382.91        13.59945
383.36        13.54129
383.81        13.47531
384.26        13.40433
384.71        13.33386
385.15         13.2512
385.60        13.14522
386.05        13.01199
386.50         12.8497
386.95        12.70163
387.40        12.64137
387.85        12.68045
388.29        12.79495
388.74        12.90718
389.19        12.90512
389.64        12.77781
390.09          12.554
390.54        12.33043
390.98        12.27015
391.43        12.41092
391.88        12.68168
392.33         12.9564
392.78        13.05107
393.23        12.93935
393.67        12.68685
394.12        12.41351
394.57        12.23808
395.02         12.1902
395.47        12.22574
395.91        12.30709
396.36        12.35237
396.81         12.3365
397.26        12.27738
397.71         12.1976
398.15        12.11355
398.60         12.0523
399.05        12.01198
399.50        11.96478
399.95        11.83877
400.39         11.6822
400.84        11.47232
401.29        11.29392
401.74         11.2774
402.18        11.45528
402.63        11.76481
403.08        12.09416
403.53        12.26368
403.97        12.22814
404.42        12.04065
404.87        11.78232
405.32         11.5982
405.76        11.53579
406.21        11.55345
406.66         11.6105
407.11        11.65244
407.55        11.66497
408.00        11.66548
408.45        11.65831
408.90        11.63922
409.34        11.60929
409.79        11.56421
410.24        11.51859
410.68        11.49681
411.13        11.50461
411.58        11.53888
412.03        11.57835
412.47        11.58736
412.92        11.54926
413.37        11.47389
413.81        11.39328
414.26        11.36932
414.71        11.40566
415.15        11.49033
415.60        11.56138
416.05        11.53792
416.49        11.40452
416.94        11.20025
417.39        10.98734
417.83        10.87334
418.28        10.89123
418.73        10.99116
419.17        11.13082
419.62        11.23742
420.07        11.28949
420.51        11.31114
420.96        11.28318
421.41        11.17105
421.85        10.98356
422.30        10.75577
422.74        10.54963
423.19        10.47947
423.64         10.5499
424.08        10.73306
424.53        10.95634
424.98        11.10972
425.42        11.15473
425.87        11.11342
426.31        11.00804
426.76        10.91319
427.21        10.83218
427.65        10.67388
428.10        10.51252
428.54        10.52967
428.99        10.73917
429.44        11.06968
429.88        11.38138
430.33        11.48386
430.77        11.34449
431.22        11.02163
431.66        10.66637
432.11        10.55408
432.56        10.71067
433.00         10.9961
433.45        11.27223
433.89        11.44915
434.34        11.44488
434.78         11.1931
435.23        10.87155
435.67        10.82839
436.12        11.02992
436.57        11.09349
437.01        10.97876
437.46        10.89513
437.90        10.86528
438.35        10.83163
438.79        10.79612
439.24          10.795
439.68        10.83277
440.13        10.84707
440.57        10.84785
441.02         10.9975
441.46        11.20315
441.91        11.07713
442.35        10.68392
442.80        10.44335
443.24        10.34149
443.69        10.22848
444.13        10.08399
444.58        9.885357
445.02        9.684981
445.47         9.68934
445.91         9.84908
446.36        9.906727
446.80        9.832645
447.24        9.760252
447.69        9.721107
448.13        9.696076
448.58        9.696984
449.02         9.72704
449.47        9.749747
449.91        9.706546
450.36        9.594785
450.80        9.432693
451.25        9.290268
451.69        9.265564
452.13        9.375619
452.58        9.572605
453.02        9.786425
453.47        9.901165
453.91        9.892578
454.36        9.800194
454.80         9.65959
455.24        9.534675
455.69        9.458567
456.13        9.405246
456.58        9.397006
457.02         9.45254
457.46        9.570642
457.91        9.740438
458.35        9.911391
458.79        9.989413
459.24        9.964458
459.68        9.851247
460.13        9.721364
460.57        9.656559
461.01          9.6908
461.46        9.791374
461.90        9.915433
462.34        9.979897
462.79         9.96548
463.23        9.893154
463.68        9.819841
464.12        9.835058
464.56        9.959484
465.01        10.16031
465.45        10.34875
465.89        10.43259
466.34        10.40466
466.78        10.24238
467.22        10.04468
467.67        10.07259
468.11        10.30292
468.55        10.42005
468.99        10.39278
469.44        10.38251
469.88        10.42358
470.32        10.55172
470.77        10.71422
471.21        10.74902
471.65        10.63752
472.10        10.49965
472.54        10.38707
472.98        10.35483
473.42        10.42389
473.87        10.57871
474.31        10.76541
474.75        10.89079
475.20        10.93471
475.64        10.91705
476.08        10.88228
476.52        10.90001
476.97        10.98674
477.41        11.12362
477.85        11.26514
478.29        11.36045
478.74        11.39868
479.18        11.34144
479.62        11.24151
480.06        11.37138
480.50        11.50775
480.95        11.65967
481.39         11.7129
481.83        11.73605
482.27        11.72484
482.72        11.59482
483.16        11.40941
483.60        11.43474
484.04        11.68353
484.48        11.80409
484.93        11.96401
485.37        12.32268
485.81        12.74339
486.25        12.99172
486.69        16.94818
487.14        13.31985
487.58        9.075007
488.02        11.16012
488.46        12.74883
488.90        12.73358
489.34        12.67121
489.79        12.63035
490.23        13.45454
490.67        13.91561
491.11        13.81488
491.55        13.72576
491.99        13.63145
492.43         13.5085
492.88        13.41615
493.32         13.4233
493.76        13.46523
494.20        13.67072
494.64        13.99955
495.08        14.41274
495.52        14.84235
495.96         15.1872
496.41        15.38914
496.85        15.49476
497.29        15.52758
497.73        15.33961
498.17        15.13184
498.61        15.29694
499.05         15.8322
499.49        15.97594
499.93        16.10417
500.37        16.24734
500.82        16.36068
501.26        16.60786
501.70        16.90228
502.14        17.09871
502.58        17.16537
503.02        17.22012
503.46        17.26542
503.90        17.21938
504.34        17.11768
504.78        17.06045
505.22        17.06825
505.66        17.12417
506.10        17.20208
506.54        17.25295
506.98        17.26772
507.42         17.2674
507.86        17.29067
508.30        17.39549
508.74        17.58724
509.18        17.83416
509.62        18.09128
510.06        18.28722
510.50         18.3997
510.94        18.45485
511.38        18.46266
511.82        18.44002
512.26        18.40217
512.70        18.34179
513.14        18.29871
513.58        18.33948
514.02        18.46235
514.46        18.64126
514.90         18.8102
515.34        18.82514
515.78        18.63394
516.22        18.44504
516.66        18.33227
517.10        17.95075
517.54        17.32563
517.98        18.11134
518.42        17.88269
518.86        18.24372
519.30        18.44752
519.74        18.71662
520.18        18.96875
520.62        19.04066
521.06         18.9366
521.50        18.68378
521.93        18.37437
522.37         18.1737
522.81        18.12685
523.25        18.18748
523.69         18.3075
524.13        18.40954
524.57        18.46252
525.01         18.4887
525.45        18.48361
525.89        18.43745
526.32        18.35225
526.76           18.23
527.20        18.08673
527.64        17.96016
528.08        17.86478
528.52        17.77589
528.96         17.6914
529.40        17.65264
529.83        17.66645
530.27        17.54412
530.71        17.60534
531.15        17.52722
531.59        17.41058
532.03        17.25573
532.46        17.12479
532.90        17.12319
533.34        17.25643
533.78        17.48238
534.22        17.70863
534.66        17.79876
535.09        17.72045
535.53         17.5267
535.97         17.2798
536.41         17.0829
536.85        16.97453
537.28        16.93078
537.72        16.93753
538.16        16.97082
538.60        17.01925
539.04        17.07855
539.47        17.15193
539.91        17.28382
540.35        17.45364
540.79        17.58301
541.22        17.66224
541.66        17.75009
542.10        17.84553
542.54        17.90232
542.97         17.9491
543.41        18.06284
543.85        18.24934
544.29         18.4998
544.72         18.7459
545.16        18.88667
545.60        18.90662
546.04        18.83435
546.47        18.77833
546.91        18.91978
547.35        19.27826
547.79         19.7937
548.22        20.31672
548.66        20.59502
549.10        20.58977
549.53        20.41372
549.97        20.20912
550.41        20.14116
550.84        20.26711
551.28        20.54907
551.72        20.92421
552.15        21.27695
552.59         21.5562
553.03        21.78916
553.46        21.98449
553.90        22.17215
554.34        22.36551
554.77        22.52645
555.21        22.63978
555.65        22.75291
556.08        22.88008
556.52        22.74076
556.96        22.89801
557.39        22.96805
557.83         23.1228
558.27        23.32193
558.70        23.54903
559.14        23.76067
559.57        23.92981
560.01        24.08047
560.45        24.18327
560.88        24.19277
561.32        24.13272
561.75        24.00667
562.19        23.89669
562.63        23.89547
563.06          24.016
563.50        24.23346
563.93        24.48545
564.37         24.6808
564.80        24.78568
565.24        24.83958
565.68        24.86477
566.11        24.89803
566.55        24.97341
566.98        25.07067
567.42        25.21091
567.85        25.42155
568.29        25.71393
568.72        26.00051
569.16         26.2838
569.60        26.66281
570.03        27.01681
570.47        27.05845
570.90        26.91282
571.34        26.62632
571.77        27.00738
572.21         27.1005
572.64        27.22018
573.08        26.87521
573.51        26.18268
573.95        27.40951
574.38        29.20767
574.82        28.32832
