SpectraSmart Spectrum 2.9.0.0
--------- Device Information -----------
Spectrum Name :  反射率_0
Saving Time :  2024/04/25 23:54:16
Spectro-Module Model Name : SE2030-DUVN
Spectro-Module Serial Number : OS361AC55029948
Wavelength Start : 200
Wavelength End : 1025
Wavelength Unit : Wavelength(nm)
Spectrum Unit : Reflectance(%)
-----------Spectrum Setting ------------
Integration Time : 20ms
Average : 10
Boxcar : 0
Background removal :  enabled
linearity correction :  enabled
SC :  disabled
Intensity correction :  disabled
DWT denoise :  enabled
savitzky-golay :  disabled
FFT :  disabled
Running average :  disabled
Kalman :  disabled
High pass :  disabled
---------------BEGIN--------------------
Wavelength(nm)             Reflectance(%)
200.29               0
200.75        77.51869
201.21        72.30054
201.67        66.64566
202.13        62.64679
202.58        60.53466
203.04        60.02583
203.50        60.98791
203.96        63.06348
204.42        65.52248
204.88          67.973
205.34        69.93893
205.80        71.10883
206.26        71.60638
206.72        71.53292
207.18        69.57694
207.64        63.29575
208.10         56.3625
208.55        53.21379
209.01        53.33149
209.47         55.4911
209.93        59.05361
210.39        64.55341
210.85        69.93053
211.31        70.19555
211.77        64.08388
212.23        53.43044
212.69        42.98132
213.14        40.18562
213.60        46.20645
214.06        59.05684
214.52        73.79668
214.98        82.67796
215.44        83.67767
215.90        79.23607
216.36        72.69441
216.81        68.66488
217.27        68.45638
217.73        70.39133
218.19        72.17181
218.65        70.84059
219.11        65.29608
219.57        54.94188
220.02        41.42505
220.48        33.80338
220.94        37.04959
221.40        48.68818
221.86        59.50216
222.32        60.00776
222.77        51.51357
223.23         39.4175
223.69        29.34788
224.15          26.982
224.61         31.6544
225.06        40.47366
225.52        49.36576
225.98        53.11943
226.44        50.84496
226.90        44.78563
227.36        37.95826
227.81        34.42648
228.27        35.31651
228.73        38.97211
229.19        43.56424
229.65        46.45291
230.10        47.02666
230.56        46.34506
231.02        45.42339
231.48        45.35301
231.93        46.21948
232.39        47.55314
232.85        48.76414
233.31        49.05892
233.77        48.24653
234.22        46.59981
234.68        44.62077
235.14        43.23678
235.60        42.84044
236.05        43.22406
236.51        43.94944
236.97        44.31377
237.43        44.15517
237.88        43.72329
238.34        43.31748
238.80        43.82888
239.26        45.60078
239.71        48.30212
240.17        51.24922
240.63        53.78444
241.08        55.67107
241.54        57.03791
242.00        57.81737
242.46        57.89896
242.91        57.25651
243.37        54.56767
243.83        48.91738
244.28        50.93767
244.74        91.23009
245.20        116.9228
245.66        116.6407
246.11        114.0011
246.57        110.7414
247.03        101.2032
247.48        60.10688
247.94        27.71486
248.40        58.48178
248.85        74.10901
249.31        81.40842
249.77        84.87575
250.22        86.85914
250.68        88.60208
251.14          89.976
251.59        89.18219
252.05        85.41423
252.51        80.02444
252.96        74.63143
253.42         70.8494
253.88        68.16315
254.33        66.28263
254.79        66.08875
255.25         68.0588
255.70        71.46878
256.16         75.5209
256.62        78.46754
257.07        78.63695
257.53        76.61273
257.99        72.88521
258.44        68.74517
258.90        66.57893
259.35        65.68276
259.81        65.36526
260.27        64.22715
260.72        60.89345
261.18        56.08547
261.63         50.4833
262.09         45.4863
262.55        42.09629
263.00        40.26316
263.46        39.50779
263.91        39.06622
264.37        38.35783
264.83        37.20107
265.28        35.70554
265.74        34.27451
266.19        33.26442
266.65        32.83969
267.11        32.75788
267.56        32.67607
268.02        32.17516
268.47        31.17018
268.93        29.80362
269.38        28.32536
269.84        27.37316
270.30        27.09666
270.75        27.33478
271.21        27.68437
271.66        27.54432
272.12        26.78087
272.57        25.59383
273.03        24.39642
273.48        23.73225
273.94        23.72834
274.39        24.14883
274.85        24.64071
275.31        24.68724
275.76        24.17495
276.22        23.31231
276.67        22.36337
277.13         21.7884
277.58        21.63197
278.04        21.75711
278.49        21.90033
278.95        21.74733
279.40        21.22573
279.86        20.51183
280.31        19.76784
280.77        19.32808
281.22        19.21358
281.68        19.31705
282.13        19.48145
282.59        19.51718
283.04        19.37451
283.50        19.14999
283.95        18.87492
284.41        18.60687
284.86        18.36782
285.32        18.14086
285.77        17.97513
286.22        18.00426
286.68        18.20965
287.13        18.52925
287.59         18.8062
288.04        18.80118
288.50         18.4996
288.95        17.97565
289.41        17.39898
289.86        16.93183
290.32        16.67412
290.77        16.56007
291.22        16.58946
291.68        16.72343
292.13        16.94339
292.59         17.2602
293.04        17.64414
293.50        18.04336
293.95        18.42928
294.40        18.78213
294.86        19.10288
295.31        19.41261
295.77        19.72254
296.22        20.03358
296.68        20.32988
297.13        20.55795
297.58        20.73109
298.04        20.88249
298.49        21.08652
298.95        21.48875
299.40        22.09735
299.85        22.85696
300.31        23.64166
300.76        24.26676
301.21        24.66674
301.67        24.91499
302.12         25.0539
302.58        25.19489
303.03        25.35806
303.48        25.52201
303.94        25.72723
304.39         26.0056
304.84        26.35911
305.30        26.77206
305.75        27.15256
306.20        27.36421
306.66        27.40207
307.11        27.29915
307.57        27.15766
308.02        27.06513
308.47        27.07518
308.93        27.15446
309.38        27.28602
309.83        27.47141
310.29        27.68216
310.74        27.90557
311.19        28.08649
311.65        28.13876
312.10        28.04728
312.55         27.8413
313.00        27.55788
313.46        27.27179
313.91        27.01037
314.36        26.77543
314.82        26.60567
315.27        26.54414
315.72         26.5936
316.18        26.73494
316.63        26.90508
317.08        26.97558
317.53        26.91002
317.99        26.73222
318.44        26.50815
318.89        26.34937
319.35        26.27878
319.80        26.26885
320.25        26.25575
320.70         26.1374
321.16        25.89513
321.61        25.56854
322.06        25.22558
322.51        24.96437
322.97        24.79852
323.42        24.70279
323.87        24.61897
324.32        24.45587
324.78         24.1894
325.23        23.85376
325.68        23.49466
326.13        23.18627
326.59        22.94976
327.04        22.78753
327.49        22.66796
327.94        22.53919
328.39        22.39156
328.85        22.23299
329.30        22.13507
329.75        22.18472
330.20        22.39017
330.66        22.69114
331.11        23.00912
331.56        23.17892
332.01        23.15363
332.46        22.96442
332.92        22.67242
333.37         22.4226
333.82        22.26637
334.27        22.18453
334.72         22.1405
335.17        22.06694
335.63        21.94365
336.08        21.80027
336.53        21.68921
336.98        21.69014
337.43        21.81306
337.88        22.03127
338.34        22.23063
338.79        22.27488
339.24        22.11511
339.69        21.79431
340.14        21.46013
340.59        21.36807
341.05         21.5618
341.50        21.95365
341.95        22.38004
342.40         22.6034
342.85          22.569
343.30        22.36008
343.75        22.04892
344.20        21.76743
344.66        21.56921
345.11         21.3832
345.56        21.23916
346.01        21.17804
346.46        21.18783
346.91        21.28119
347.36        21.32538
347.81        21.09959
348.26        20.59426
348.72        19.91644
349.17        19.26264
349.62        19.03795
350.07        19.32724
350.52        19.98345
350.97        20.78409
351.42        21.38978
351.87         21.6918
352.32        21.77854
352.77         21.7015
353.22         21.5501
353.67        21.36948
354.13        21.13297
354.58        20.86841
355.03        20.66373
355.48         20.5408
355.93        20.50533
356.38        20.50529
356.83        20.43935
357.28        20.28383
357.73        20.06156
358.18        19.83594
358.63        19.70808
359.08        19.69624
359.53        19.76778
359.98        19.83715
360.43        19.77479
360.88        19.55678
361.33         19.2228
361.78        18.87704
362.23        18.68795
362.68        18.68798
363.13        18.81583
363.58        18.95845
364.03        18.93989
364.48        18.72147
364.93        18.36969
365.38        17.96805
365.83         17.6478
366.28        17.45441
366.73          17.346
367.18        17.30276
367.63        17.29532
368.08        17.29771
368.53        17.31222
368.98        17.31217
369.43        17.24936
369.88        17.11892
370.33        16.94353
370.78         16.7326
371.23        16.50976
371.68        16.29512
372.13         16.0786
372.58        15.92978
373.03        15.96069
373.48        16.17345
373.93        16.52298
374.38        16.85807
374.83        16.94707
375.28        16.74564
375.72        16.31377
376.17        15.81669
376.62        15.48747
377.07        15.39808
377.52        15.47801
377.97        15.64305
378.42        15.75394
378.87        15.76399
379.32        15.72229
379.77        15.65489
380.22        15.59332
380.67        15.54856
381.11        15.50133
381.56        15.44494
382.01        15.38541
382.46        15.32131
382.91        15.25204
383.36        15.17864
383.81        15.09841
384.26        15.01254
384.71        14.92937
385.15        14.83278
385.60        14.70512
386.05        14.54148
386.50        14.34335
386.95        14.15759
387.40        14.06643
387.85        14.08439
388.29        14.18095
388.74        14.28261
389.19         14.2786
389.64        14.15406
390.09        13.93586
390.54         13.7077
390.98        13.60977
391.43        13.68297
391.88        13.87431
392.33        14.07674
392.78        14.13432
393.23        14.02438
393.67        13.79264
394.12        13.56445
394.57        13.46543
395.02        13.51953
395.47        13.68328
395.91        13.86906
396.36         13.9049
396.81        13.75175
397.26        13.45787
397.71         13.1386
398.15         12.9479
398.60        12.93543
399.05         13.0521
399.50        13.18351
399.95        13.13341
400.39        12.93167
400.84        12.58638
401.29         12.2457
401.74        12.15084
402.18        12.36967
402.63        12.80535
403.08        13.28159
403.53         13.5212
403.97        13.45633
404.42        13.17047
404.87        12.80513
405.32        12.60359
405.76        12.63278
406.21        12.81055
406.66        13.03226
407.11        13.15705
407.55        13.15312
408.00         13.0651
408.45        12.93761
408.90        12.84221
409.34        12.80813
409.79        12.80609
410.24        12.82428
410.68        12.84993
411.13        12.88001
411.58        12.92836
412.03        12.97854
412.47        13.00021
412.92        12.97823
413.37         12.9137
413.81        12.84771
414.26        12.86104
414.71         12.9562
415.15        13.11491
415.60        13.24808
416.05        13.23058
416.49         13.0401
416.94        12.73121
417.39        12.40006
417.83        12.21175
418.28        12.21741
418.73        12.35195
419.17        12.55069
419.62        12.70677
420.07        12.78853
420.51        12.83162
420.96        12.82154
421.41        12.73126
421.85         12.5687
422.30        12.35906
422.74        12.16513
423.19        12.10933
423.64        12.19535
424.08        12.39779
424.53        12.62784
424.98        12.74815
425.42        12.72053
425.87        12.57968
426.31        12.38266
426.76        12.25926
427.21        12.22212
427.65        12.15377
428.10        12.10423
428.54        12.22321
428.99        12.50777
429.44        12.89164
429.88        13.22498
430.33        13.31144
430.77         13.1226
431.22        12.71766
431.66        12.28253
432.11        12.15163
432.56        12.35726
433.00        12.74025
433.45        13.11929
433.89        13.34115
434.34        13.30063
434.78        12.93862
435.23        12.50024
435.67        12.43951
436.12        12.72469
436.57        12.89654
437.01        12.87591
437.46        12.85335
437.90        12.83851
438.35        12.78108
438.79        12.69342
439.24        12.63181
439.68        12.61393
440.13        12.56779
440.57        12.52411
441.02        12.70145
441.46        12.99751
441.91        12.94987
442.35        12.60562
442.80        12.42291
443.24        12.38123
443.69        12.30762
444.13         12.1748
444.58        11.94984
445.02        11.69757
445.47        11.66611
445.91        11.80916
446.36        11.83999
446.80        11.73237
447.24        11.64754
447.69        11.60825
448.13         11.5671
448.58        11.53506
449.02        11.52422
449.47        11.51869
449.91        11.49314
450.36        11.44789
450.80        11.38392
451.25        11.34253
451.69        11.37765
452.13        11.49488
452.58        11.66068
453.02        11.81997
453.47        11.88216
453.91        11.83303
454.36        11.70693
454.80        11.54298
455.24        11.40979
455.69        11.34141
456.13        11.31177
456.58        11.33747
457.02          11.424
457.46        11.56731
457.91        11.75774
458.35        11.94544
458.79        12.04034
459.24         12.0333
459.68        11.93527
460.13        11.81732
460.57        11.75858
461.01         11.7931
461.46        11.88894
461.90        12.00333
462.34        12.05513
462.79        12.02395
463.23        11.93013
463.68        11.82978
464.12        11.81418
464.56        11.90619
465.01        12.07835
465.45        12.23843
465.89        12.29449
466.34        12.24072
466.78        12.04463
467.22        11.81613
467.67         11.8516
468.11        12.12065
468.55        12.25524
468.99        12.22031
469.44        12.20901
469.88        12.26169
470.32        12.41682
470.77        12.61428
471.21        12.66546
471.65        12.54858
472.10        12.40361
472.54        12.28432
472.98        12.24093
473.42        12.29615
473.87        12.43592
474.31        12.61076
474.75        12.73509
475.20        12.78877
475.64        12.78807
476.08        12.76535
476.52        12.77115
476.97        12.81886
477.41        12.89476
477.85        12.96779
478.29        13.01549
478.74        13.03393
479.18        12.96852
479.62        12.85898
480.06        12.98385
480.50        13.08155
480.95        13.17775
481.39        13.16169
481.83        13.13487
482.27        13.10028
482.72        12.95792
483.16        12.77217
483.60        12.82907
484.04        13.13478
484.48        13.28749
484.93        13.47092
485.37        13.87827
485.81        14.37361
486.25        14.65435
486.69        19.08528
487.14        15.05584
487.58        10.04751
488.02        12.17299
488.46        13.78838
488.90         13.7941
489.34        13.84082
489.79        13.79602
490.23        14.57949
490.67        15.06384
491.11        15.03421
491.55        14.96193
491.99        14.81098
492.43        14.60402
492.88         14.4097
493.32        14.29518
493.76        14.20824
494.20        14.31768
494.64        14.59263
495.08        14.98204
495.52        15.41525
495.96        15.79993
496.41        16.05814
496.85        16.19137
497.29        16.21556
497.73        16.00469
498.17        15.76651
498.61        15.88367
499.05        16.36051
499.49        16.44478
499.93        16.53552
500.37        16.65697
500.82        16.75169
501.26        16.96579
501.70        17.20777
502.14        17.34176
502.58        17.34993
503.02        17.37211
503.46        17.41522
503.90        17.38567
504.34        17.31489
504.78        17.29801
505.22        17.34894
505.66        17.45018
506.10        17.55711
506.54        17.59113
506.98        17.53919
507.42         17.4317
507.86        17.33715
508.30        17.36021
508.74        17.51797
509.18        17.76838
509.62        18.04444
510.06        18.23571
510.50        18.31117
510.94        18.31224
511.38        18.26661
511.82        18.21911
512.26         18.1901
512.70        18.15618
513.14        18.14964
513.58        18.22544
514.02        18.37574
514.46          18.583
514.90        18.76362
515.34        18.74611
515.78        18.47758
516.22        18.17086
516.66        17.94941
517.10        17.54786
517.54         17.0054
517.98        17.95844
518.42        17.89899
518.86        18.31529
519.30        18.43757
519.74        18.52643
520.18        18.57852
520.62        18.55745
521.06        18.49869
521.50        18.38815
521.93        18.25406
522.37        18.15698
522.81        18.11201
523.25        18.10947
523.69        18.14123
524.13        18.18938
524.57        18.24096
525.01         18.2954
525.45        18.33438
525.89         18.3292
526.32        18.27275
526.76        18.17513
527.20        18.05094
527.64        17.93231
528.08        17.83496
528.52        17.73645
528.96        17.63909
529.40        17.59294
529.83        17.60793
530.27        17.49262
530.71        17.56988
531.15        17.52405
531.59        17.45303
532.03        17.35267
532.46        17.26862
532.90        17.27885
533.34        17.38455
533.78         17.5559
534.22        17.71767
534.66          17.759
535.09        17.65691
535.53        17.45835
535.97        17.22543
536.41        17.06069
536.85        16.99721
537.28        17.00671
537.72        17.06395
538.16        17.12666
538.60        17.17765
539.04        17.21766
539.47        17.25092
539.91        17.32503
540.35        17.42469
540.79        17.47398
541.22        17.48115
541.66        17.53093
542.10        17.62695
542.54        17.71656
542.97        17.80718
543.41        17.94102
543.85        18.11382
544.29        18.32334
544.72        18.51698
545.16        18.61976
545.60        18.62183
546.04         18.5435
546.47        18.47585
546.91        18.57371
547.35        18.85325
547.79        19.26596
548.22        19.68678
548.66        19.89972
549.10        19.87499
549.53        19.71495
549.97        19.53811
550.41        19.47464
550.84        19.57147
551.28         19.7962
551.72        20.10948
552.15         20.4361
552.59        20.73191
553.03        21.01047
553.46        21.24367
553.90        21.40615
554.34        21.50502
554.77        21.52424
555.21        21.49343
555.65        21.52984
556.08        21.66204
556.52        21.59543
556.96        21.82777
557.39        21.93943
557.83        22.07717
558.27        22.22284
558.70          22.366
559.14        22.47267
559.57        22.52907
560.01        22.55844
560.45        22.55915
560.88        22.52991
561.32         22.4979
561.75        22.45187
562.19        22.43814
562.63        22.49483
563.06         22.6214
563.50        22.80845
563.93        23.00876
564.37        23.15741
564.80        23.22994
565.24        23.25279
565.68        23.25218
566.11        23.27195
566.55        23.34321
566.98        23.44781
567.42        23.58595
567.85        23.75006
568.29        23.94795
568.72        24.11149
569.16         24.2772
569.60        24.58034
570.03        24.91481
570.47         25.0117
570.90        24.95705
571.34        24.68443
571.77        25.05105
572.21        25.09316
572.64        25.13372
573.08        24.80108
573.51        24.21796
573.95        25.28436
574.38        26.73132
574.82        26.32673
