SpectraSmart Spectrum 2.9.0.0
--------- Device Information -----------
Spectrum Name :  反射率_0
Saving Time :  2024/04/26 00:18:09
Spectro-Module Model Name : SE2030-DUVN
Spectro-Module Serial Number : OS361AC55029948
Wavelength Start : 200
Wavelength End : 1025
Wavelength Unit : Wavelength(nm)
Spectrum Unit : Reflectance(%)
-----------Spectrum Setting ------------
Integration Time : 20ms
Average : 10
Boxcar : 0
Background removal :  enabled
linearity correction :  enabled
SC :  disabled
Intensity correction :  disabled
DWT denoise :  enabled
savitzky-golay :  disabled
FFT :  disabled
Running average :  disabled
Kalman :  disabled
High pass :  disabled
---------------BEGIN--------------------
Wavelength(nm)             Reflectance(%)
200.29               0
200.75        87.19418
201.21        80.50118
201.67        73.06898
202.13        69.06791
202.58        68.98402
203.04        72.00178
203.50        76.13174
203.96        77.96904
204.42          76.843
204.88        74.11568
205.34        71.77102
205.80        71.96389
206.26        75.71614
206.72        85.29015
207.18        104.4972
207.64        121.4155
208.10        110.3699
208.55        87.49764
209.01        73.16722
209.47        68.71202
209.93         70.0486
210.39        75.10776
210.85        81.00603
211.31        81.69706
211.77        75.38965
212.23        64.51109
212.69         53.7689
213.14        50.30697
213.60         55.2816
214.06        66.69312
214.52        79.88945
214.98        87.68135
215.44        88.21696
215.90        83.77662
216.36        77.61346
216.81        74.21822
217.27        74.70966
217.73        77.26536
218.19        79.51418
218.65        78.40147
219.11        72.82639
219.57        62.34645
220.02        48.24571
220.48        38.85147
220.94        39.39994
221.40        48.10595
221.86        57.56757
222.32        59.79633
222.77        55.22534
223.23        47.96233
223.69        41.95146
224.15         41.2518
224.61        45.40218
225.06        52.33707
225.52        59.09787
225.98        61.99632
226.44        60.44054
226.90        56.13399
227.36        51.21101
227.81        48.51251
228.27        48.93619
228.73        51.20664
229.19        54.31559
229.65        56.78106
230.10        58.06921
230.56        58.77658
231.02        59.03262
231.48        58.92884
231.93        58.57123
232.39        57.94641
232.85        57.27992
233.31        57.05133
233.77        57.31349
234.22        57.92026
234.68        58.58122
235.14        58.65926
235.60        57.99294
236.05        56.90822
236.51        55.57141
236.97        54.08892
237.43        52.49532
237.88        50.66562
238.34        49.01583
238.80        48.97624
239.26        51.15066
239.71        55.40044
240.17        60.17793
240.63        63.09674
241.08        63.51805
241.54        62.00246
242.00        59.67773
242.46        58.07181
242.91        57.81917
243.37         58.7093
243.83        64.85897
244.28        97.32505
244.74         156.233
245.20        152.3372
245.66        134.8096
246.11         129.017
246.57        131.0022
247.03        140.8282
247.48        161.1734
247.94        115.9166
248.40        85.57108
248.85         80.5463
249.31        80.71511
249.77        82.18439
250.22        84.65398
250.68        88.78369
251.14          94.543
251.59        98.12506
252.05        95.85664
252.51        89.43909
252.96        81.95545
253.42        76.74974
253.88        73.43326
254.33        70.96699
254.79        70.18801
255.25        71.63023
255.70        74.57996
256.16        78.44575
256.62        81.15104
257.07        80.61745
257.53        77.58416
257.99        72.76625
258.44         67.9743
258.90        66.15837
259.35        66.39049
259.81         67.4936
260.27        67.56449
260.72        64.79039
261.18        59.98991
261.63        54.07811
262.09        48.71653
262.55        45.16177
263.00        43.37003
263.46        42.76348
263.91        42.44639
264.37        41.73415
264.83        40.43827
265.28        38.71494
265.74        37.06724
266.19        35.98753
266.65        35.65154
267.11        35.74065
267.56        35.79877
268.02        35.28749
268.47         34.1154
268.93        32.48734
269.38         30.7307
269.84        29.62869
270.30        29.37678
270.75        29.74614
271.21        30.30623
271.66        30.41316
272.12        29.90085
272.57        28.98546
273.03        27.98772
273.48        27.30431
273.94        27.06976
274.39        27.10556
274.85        27.23901
275.31        27.22068
275.76        26.96627
276.22        26.57249
276.67        26.12889
277.13          25.848
277.58        25.71057
278.04        25.67521
278.49        25.55277
278.95        25.14128
279.40        24.40662
279.86        23.50419
280.31        22.60079
280.77        22.05073
281.22        21.87366
281.68        21.96509
282.13        22.15749
282.59        22.24622
283.04        22.16477
283.50        22.00623
283.95        21.77324
284.41        21.48994
284.86         21.1719
285.32        20.81497
285.77         20.4995
286.22        20.41092
286.68        20.54644
287.13         20.8341
287.59        21.09548
288.04         21.0531
288.50        20.68546
288.95        20.07205
289.41        19.41294
289.86         18.9097
290.32        18.66631
290.77        18.60114
291.22        18.66383
291.68        18.74054
292.13        18.80295
292.59        18.88889
293.04        19.03836
293.50        19.31119
293.95        19.70094
294.40        20.15092
294.86        20.58945
295.31        20.92443
295.77        21.13859
296.22        21.26598
296.68        21.34776
297.13        21.42212
297.58        21.53179
298.04        21.68853
298.49        21.92053
298.95        22.30264
299.40        22.82897
299.85        23.46725
300.31        24.15022
300.76        24.78326
301.21        25.30863
301.67        25.75594
302.12        26.08591
302.58        26.29584
303.03        26.38609
303.48         26.3805
303.94        26.38226
304.39        26.51768
304.84        26.81648
305.30        27.23285
305.75        27.65214
306.20        27.90295
306.66        27.96581
307.11        27.88682
307.57        27.76374
308.02        27.67299
308.47        27.66943
308.93        27.72079
309.38        27.82199
309.83        27.99725
310.29        28.22327
310.74        28.47984
311.19        28.70396
311.65        28.79723
312.10        28.73816
312.55        28.55719
313.00        28.28929
313.46        28.00552
313.91        27.73464
314.36        27.48371
314.82         27.2925
315.27        27.20512
315.72         27.2288
316.18        27.34522
316.63        27.50788
317.08        27.61477
317.53        27.62861
317.99        27.55823
318.44        27.43908
318.89         27.3353
319.35         27.2579
319.80        27.19584
320.25        27.09928
320.70         26.8932
321.16        26.57513
321.61        26.17938
322.06        25.79073
322.51        25.53201
322.97        25.41613
323.42        25.41126
323.87        25.42554
324.32        25.30634
324.78        25.01344
325.23        24.59911
325.68        24.13751
326.13        23.75344
326.59        23.48409
327.04         23.3145
327.49         23.2081
327.94        23.10476
328.39         22.9862
328.85        22.86518
329.30        22.79175
329.75        22.81229
330.20        22.93117
330.66        23.10318
331.11        23.28683
331.56        23.37767
332.01        23.34545
332.46        23.20436
332.92        22.99815
333.37        22.83661
333.82        22.75176
334.27        22.73276
334.72        22.72806
335.17        22.64721
335.63        22.46934
336.08        22.22808
336.53        22.00978
336.98        21.95166
337.43        22.07728
337.88         22.3461
338.34        22.61226
338.79        22.68464
339.24        22.49555
339.69        22.09893
340.14        21.66336
340.59         21.4838
341.05         21.6172
341.50        21.96619
341.95        22.34663
342.40        22.48714
342.85        22.33105
343.30        21.98247
343.75        21.54466
344.20        21.20102
344.66        21.02012
345.11         20.9085
345.56        20.88049
346.01        20.95432
346.46        21.10194
346.91        21.33711
347.36        21.49798
347.81        21.32158
348.26        20.79162
348.72        20.02134
349.17        19.25126
349.62        18.96281
350.07        19.25965
350.52        19.97751
350.97        20.84346
351.42        21.43739
351.87        21.63671
352.32        21.55878
352.77        21.31203
353.22        21.07406
353.67        20.90993
354.13        20.76398
354.58        20.61014
355.03        20.45203
355.48        20.29049
355.93        20.15771
356.38        20.04658
356.83         19.9265
357.28        19.79045
357.73        19.63569
358.18         19.4886
358.63        19.39351
359.08        19.35601
359.53        19.36687
359.98        19.36757
360.43        19.26855
360.88        19.05695
361.33        18.75578
361.78        18.45867
362.23        18.31877
362.68        18.35909
363.13        18.52226
363.58        18.68684
364.03         18.6627
364.48        18.41184
364.93        18.00683
365.38        17.54636
365.83        17.18787
366.28        16.98486
366.73        16.88889
367.18        16.87767
367.63        16.91389
368.08        16.96776
368.53         17.0473
368.98        17.11205
369.43        17.09367
369.88        16.98362
370.33        16.80154
370.78        16.58639
371.23         16.4137
371.68        16.30941
372.13        16.24769
372.58        16.23726
373.03        16.28792
373.48        16.38432
373.93         16.5217
374.38         16.6284
374.83        16.59166
375.28        16.39805
375.72        16.07492
376.17        15.73736
376.62         15.5343
377.07        15.50769
377.52        15.60657
377.97        15.77069
378.42        15.89995
378.87        15.95315
379.32        15.95729
379.77        15.91254
380.22        15.81656
380.67        15.67887
381.11        15.50254
381.56        15.30815
382.01         15.1436
382.46        15.02478
382.91        14.94058
383.36        14.89151
383.81        14.87145
384.26         14.8707
384.71        14.89188
385.15        14.89367
385.60          14.823
386.05        14.66864
386.50        14.44069
386.95        14.20288
387.40        14.07077
387.85        14.07202
388.29        14.16808
388.74        14.28237
389.19        14.29911
389.64        14.20128
390.09        14.01915
390.54        13.82894
390.98        13.75698
391.43        13.83767
391.88        14.01545
392.33        14.19457
392.78        14.23685
393.23        14.12395
393.67        13.90261
394.12        13.67778
394.57        13.54426
395.02        13.52507
395.47         13.5855
395.91        13.68292
396.36        13.72441
396.81        13.68547
397.26        13.58396
397.71         13.4647
398.15        13.37751
398.60        13.35371
399.05        13.38027
399.50        13.39962
399.95        13.29382
400.39        13.11155
400.84         12.8378
401.29        12.58784
401.74        12.54444
402.18        12.75466
402.63         13.1373
403.08        13.54963
403.53        13.76416
403.97        13.72406
404.42        13.49902
404.87        13.18831
405.32        12.96761
405.76         12.8946
406.21        12.91567
406.66        12.98758
407.11        13.05376
407.55         13.0983
408.00        13.14403
408.45        13.18053
408.90        13.17347
409.34        13.11776
409.79        13.01562
410.24        12.91654
410.68        12.89561
411.13        12.96748
411.58        13.11794
412.03         13.2829
412.47        13.34919
412.92         13.2781
413.37        13.10206
413.81        12.90993
414.26        12.85198
414.71        12.94913
415.15        13.16137
415.60        13.36885
416.05        13.39884
416.49        13.21387
416.94        12.88168
417.39        12.52017
417.83        12.32849
418.28        12.36667
418.73        12.55854
419.17        12.81222
419.62        12.98358
420.07        13.03506
420.51        13.01285
420.96        12.93894
421.41         12.8463
421.85        12.75103
422.30        12.65379
422.74        12.56778
423.19        12.54792
423.64        12.58777
424.08        12.68508
424.53        12.79017
424.98        12.83893
425.42        12.81788
425.87         12.7376
426.31        12.62701
426.76        12.57298
427.21        12.57193
427.65        12.51724
428.10        12.45915
428.54        12.55073
428.99        12.79344
429.44        13.11753
429.88         13.3877
430.33        13.43192
430.77        13.22758
431.22        12.83251
431.66        12.41578
432.11        12.28603
432.56        12.47045
433.00        12.81255
433.45        13.15488
433.89        13.39231
434.34         13.4249
434.78        13.16439
435.23        12.81281
435.67        12.77924
436.12        13.02269
436.57        13.09368
437.01        12.93776
437.46        12.79153
437.90        12.68526
438.35        12.55905
438.79        12.43976
439.24        12.40316
439.68        12.46101
440.13        12.53293
440.57        12.60791
441.02        12.83886
441.46         13.1094
441.91         12.9762
442.35        12.52782
442.80        12.27579
443.24        12.20966
443.69        12.13892
444.13         12.0357
444.58        11.86429
445.02        11.67817
445.47        11.72638
445.91        11.93651
446.36        11.97239
446.80         11.8019
447.24        11.60313
447.69        11.43921
448.13        11.33011
448.58        11.30198
449.02        11.34536
449.47        11.41272
449.91        11.42551
450.36        11.36869
450.80        11.26309
451.25        11.16391
451.69        11.14592
452.13        11.22458
452.58        11.35874
453.02         11.4999
453.47        11.56891
453.91        11.55114
454.36        11.47839
454.80        11.37409
455.24        11.27844
455.69        11.21743
456.13        11.17183
456.58        11.17175
457.02        11.24447
457.46        11.39164
457.91        11.59726
458.35        11.80421
458.79        11.91095
459.24        11.90556
459.68        11.80393
460.13         11.6831
460.57        11.63051
461.01        11.68167
461.46        11.80118
461.90        11.94049
462.34        12.01011
462.79        11.98806
463.23        11.89781
463.68        11.80018
464.12        11.79389
464.56        11.90343
465.01        12.09775
465.45         12.2811
465.89        12.35784
466.34        12.32068
466.78        12.13657
467.22        11.91623
467.67        11.95857
468.11        12.23276
468.55        12.36775
468.99        12.32513
469.44         12.2952
469.88        12.31986
470.32        12.44075
470.77        12.60565
471.21        12.63957
471.65        12.52288
472.10        12.38885
472.54        12.28477
472.98        12.24965
473.42        12.30334
473.87        12.43904
474.31        12.60324
474.75        12.70399
475.20        12.72424
475.64        12.68216
476.08        12.63221
476.52        12.65932
476.97        12.77995
477.41        12.96802
477.85        13.15797
478.29        13.27031
478.74        13.28647
479.18        13.16717
479.62         12.9835
480.06        13.06431
480.50         13.1589
480.95        13.27953
481.39        13.29674
481.83        13.28574
482.27        13.24288
482.72        13.07772
483.16        12.86767
483.60        12.91877
484.04        13.24844
484.48        13.43401
484.93        13.64122
485.37         14.1003
485.81        14.68491
486.25        14.86954
486.69        19.45237
487.14        15.41308
487.58        10.26907
488.02        12.52522
488.46        14.18965
488.90         13.8807
489.34        14.23445
489.79        14.25911
490.23          15.147
490.67        15.62799
491.11        15.48944
491.55        15.28477
491.99        15.02215
492.43        14.78511
492.88        14.66205
493.32        14.71561
493.76        14.83323
494.20        15.07586
494.64        15.38142
495.08        15.73124
495.52        16.08633
495.96         16.4061
496.41        16.63181
496.85        16.74957
497.29        16.77479
497.73        16.57666
498.17        16.36604
498.61        16.54331
499.05        17.11111
499.49        17.26857
499.93        17.42281
500.37        17.59791
500.82        17.72739
501.26        17.96172
501.70        18.20488
502.14        18.31252
502.58        18.28056
503.02        18.27993
503.46        18.32453
503.90        18.31525
504.34        18.26704
504.78        18.24884
505.22        18.27072
505.66         18.3235
506.10        18.39072
506.54        18.44039
506.98        18.46705
507.42        18.48219
507.86        18.51611
508.30        18.61594
508.74        18.78435
509.18        18.99558
509.62        19.20883
510.06        19.35829
510.50        19.42694
510.94        19.44263
511.38        19.41989
511.82        19.38186
512.26        19.34435
512.70        19.29712
513.14        19.27772
513.58        19.34769
514.02        19.50149
514.46        19.71301
514.90        19.90716
515.34        19.92801
515.78        19.72192
516.22          19.496
516.66        19.34031
517.10        18.94341
517.54        18.33615
517.98        19.14552
518.42        18.95331
518.86        19.30577
519.30        19.46033
519.74        19.65195
520.18        19.82572
520.62        19.86217
521.06        19.77511
521.50        19.57491
521.93        19.33626
522.37        19.19488
522.81        19.18502
523.25         19.2721
523.69        19.40324
524.13        19.49419
524.57        19.51679
525.01        19.49127
525.45        19.44111
525.89        19.40329
526.32        19.38572
526.76        19.37677
527.20        19.34543
527.64         19.2545
528.08        19.10486
528.52        18.89545
528.96        18.67503
529.40        18.56774
529.83        18.60004
530.27         18.5473
530.71        18.70811
531.15        18.68163
531.59        18.55845
532.03        18.35793
532.46        18.17062
532.90        18.14624
533.34        18.30268
533.78        18.58255
534.22        18.86799
534.66        18.98709
535.09        18.89931
535.53         18.6684
535.97        18.38202
536.41        18.18231
536.85        18.11509
537.28        18.14414
537.72         18.2213
538.16        18.26896
538.60        18.26657
539.04        18.22884
539.47        18.20073
539.91        18.29139
540.35        18.49096
540.79        18.69529
541.22        18.85951
541.66        18.99182
542.10        19.07723
542.54        19.08604
542.97        19.06889
543.41        19.13853
543.85        19.31072
544.29        19.56259
544.72        19.81821
545.16        19.96672
545.60        19.98678
546.04        19.91204
546.47         19.8456
546.91        19.95645
547.35        20.26531
547.79         20.7218
548.22        21.18573
548.66        21.41437
549.10         21.3753
549.53        21.18518
549.97        20.98115
550.41         20.9157
550.84        21.03996
551.28        21.32083
551.72         21.7057
552.15        22.07462
552.59        22.37132
553.03        22.69851
553.46        22.89819
553.90        23.07255
554.34        23.19118
554.77        23.23189
555.21        23.21988
555.65        23.27408
556.08        23.42336
556.52         23.3529
556.96        23.59661
557.39         23.6924
557.83        23.80152
558.27        23.90846
558.70         24.0202
559.14        24.13056
559.57        24.22821
560.01        24.32519
560.45        24.39843
560.88        24.41276
561.32         24.3881
561.75        24.32459
562.19        24.27912
562.63        24.30427
563.06        24.40575
563.50        24.56914
563.93         24.7563
564.37        24.91786
564.80        25.03024
565.24        25.11874
565.68        25.18668
566.11        25.24469
566.55        25.31962
566.98         25.3931
567.42        25.49667
567.85        25.69065
568.29          25.982
568.72         26.2409
569.16        26.48563
569.60        26.83827
570.03        27.17076
570.47        27.23704
570.90        27.17462
571.34        26.72646
571.77         27.2205
572.21        27.31557
572.64        27.44569
573.08        27.05846
573.51        26.31788
573.95        27.51838
574.38        29.25149
574.82        28.78145
