SpectraSmart Spectrum 2.9.0.0
--------- Device Information -----------
Spectrum Name :  反射率_0
Saving Time :  2024/04/26 00:40:29
Spectro-Module Model Name : SE2030-DUVN
Spectro-Module Serial Number : OS361AC55029948
Wavelength Start : 200
Wavelength End : 1025
Wavelength Unit : Wavelength(nm)
Spectrum Unit : Reflectance(%)
-----------Spectrum Setting ------------
Integration Time : 20ms
Average : 10
Boxcar : 0
Background removal :  enabled
linearity correction :  enabled
SC :  disabled
Intensity correction :  disabled
DWT denoise :  enabled
savitzky-golay :  disabled
FFT :  disabled
Running average :  disabled
Kalman :  disabled
High pass :  disabled
---------------BEGIN--------------------
Wavelength(nm)             Reflectance(%)
200.29               0
200.75        84.83697
201.21        79.62611
201.67        73.55388
202.13        69.32244
202.58        67.29443
203.04        66.98817
203.50        67.99822
203.96        69.60391
204.42        71.15259
204.88        72.56567
205.34        73.65141
205.80        74.27241
206.26        74.51441
206.72        74.42796
207.18        72.79585
207.64        67.04842
208.10        60.17765
208.55        56.68136
209.01        56.49566
209.47        58.41716
209.93        61.78812
210.39        67.19917
210.85        72.48567
211.31        72.52819
211.77        66.08372
212.23        54.92666
212.69        44.34556
213.14        42.64149
213.60        50.99308
214.06        67.04568
214.52        84.52067
214.98        93.68549
215.44        92.30469
215.90        83.67643
216.36        72.59483
216.81        65.79066
217.27        64.92439
217.73         67.5386
218.19        70.30147
218.65        68.87614
219.11          61.729
219.57         48.3965
220.02        30.87753
220.48        20.29541
220.94        23.31689
221.40        37.02422
221.86        50.94106
222.32        54.16162
222.77        47.69514
223.23        37.19975
223.69        28.51911
224.15        27.59717
224.61        33.77436
225.06        43.99144
225.52        54.07977
225.98        58.63534
226.44        56.72869
226.90         50.7651
227.36        43.70437
227.81        39.51491
228.27        39.42523
228.73        41.86395
229.19        45.49538
229.65        48.37521
230.10        49.85268
230.56        50.62733
231.02        51.11088
231.48        51.70975
231.93        52.50025
232.39        53.30433
232.85        53.92189
233.31        54.17262
233.77         54.0022
234.22        53.46545
234.68        52.79121
235.14        52.35981
235.60        52.31775
236.05        52.62898
236.51        52.95186
236.97        52.71157
237.43        51.76846
237.88        50.20691
238.34        48.45297
238.80        47.98096
239.26        49.50739
239.71        52.83707
240.17        56.72299
240.63        59.34385
241.08        60.17067
241.54        59.61765
242.00        58.50665
242.46        57.98013
242.91        58.70004
243.37        60.99019
243.83        69.49139
244.28        103.1918
244.74        152.0006
245.20        138.8424
245.66        119.9442
246.11        113.8389
246.57        115.2916
247.03        125.2322
247.48        150.1451
247.94        115.3304
248.40        83.15346
248.85        75.88069
249.31        75.19519
249.77        77.34973
250.22        81.75632
250.68        89.18709
251.14        99.35224
251.59        105.0347
252.05        99.64747
252.51         87.0735
252.96        73.61614
253.42        64.82756
253.88        60.28741
254.33        58.18477
254.79        59.38831
255.25        64.35076
255.70        71.48259
256.16        79.53587
256.62        85.42375
257.07        86.14034
257.53        82.75014
257.99        76.57968
258.44        70.21569
258.90        67.51664
259.35        67.60028
259.81         68.9381
260.27        69.29663
260.72        66.55389
261.18        61.55865
261.63        55.37225
262.09         49.8031
262.55        46.25093
263.00        44.63396
263.46        44.26543
263.91        44.13873
264.37         43.4753
264.83        42.08728
265.28         40.1842
265.74        38.32172
266.19        37.07183
266.65        36.63974
267.11        36.67221
267.56        36.69706
268.02        36.16042
268.47        34.95673
268.93        33.29813
269.38        31.49109
269.84        30.28201
270.30         29.8695
270.75        30.04465
271.21        30.41578
271.66        30.39763
272.12         29.8329
272.57        28.91017
273.03         27.9322
273.48        27.26858
273.94        27.03408
274.39        27.05469
274.85        27.12938
275.31         26.9643
275.76        26.48894
276.22        25.83917
276.67        25.16099
277.13        24.74719
277.58        24.59696
278.04        24.62933
278.49        24.64596
278.95        24.43157
279.40         23.9246
279.86        23.26527
280.31        22.55604
280.77        22.05318
281.22        21.77352
281.68        21.66403
282.13        21.62643
282.59        21.55484
283.04        21.41165
283.50        21.25702
283.95        21.09431
284.41        20.94577
284.86         20.8049
285.32        20.65533
285.77        20.51673
286.22        20.48257
286.68        20.53769
287.13          20.643
287.59        20.67792
288.04         20.4559
288.50        19.98546
288.95        19.32808
289.41        18.67005
289.86        18.19003
290.32        17.98177
290.77        17.97229
291.22        18.10763
291.68        18.26647
292.13        18.41396
292.59        18.57815
293.04        18.79253
293.50         19.1117
293.95        19.52642
294.40        19.98207
294.86        20.40582
295.31        20.70354
295.77        20.86426
296.22         20.9304
296.68        20.95809
297.13         21.0089
297.58        21.12903
298.04        21.31688
298.49        21.59437
298.95        22.02574
299.40          22.596
299.85        23.27593
300.31        23.97198
300.76        24.54887
301.21        24.95271
301.67        25.23501
302.12        25.41027
302.58        25.55418
303.03        25.67826
303.48        25.77403
303.94        25.90451
304.39        26.13315
304.84         26.4707
305.30        26.89499
305.75        27.29271
306.20        27.49462
306.66        27.49218
307.11        27.33082
307.57        27.14507
308.02        27.06943
308.47        27.16245
308.93        27.37176
309.38        27.64025
309.83        27.90739
310.29        28.13011
310.74        28.31457
311.19        28.43979
311.65         28.4728
312.10        28.41202
312.55        28.27024
313.00        28.06038
313.46        27.81796
313.91        27.55944
314.36        27.30129
314.82        27.10211
315.27        27.03275
315.72        27.10407
316.18        27.28868
316.63        27.50877
317.08        27.61287
317.53        27.55748
317.99         27.3713
318.44        27.13649
318.89         26.9903
319.35        26.95921
319.80        27.00679
320.25        27.04271
320.70        26.92188
321.16        26.61723
321.61         26.1839
322.06        25.72312
322.51        25.38323
322.97        25.18986
323.42        25.10467
323.87        25.04636
324.32        24.88174
324.78        24.57758
325.23        24.18788
325.68        23.77529
326.13        23.44113
326.59        23.21305
327.04        23.07426
327.49        22.99576
327.94        22.93348
328.39        22.86856
328.85        22.80468
329.30        22.76506
329.75        22.75416
330.20        22.76955
330.66         22.7825
331.11        22.79061
331.56        22.74951
332.01        22.64659
332.46        22.48542
332.92        22.28583
333.37        22.10782
333.82        21.97071
334.27        21.88315
334.72        21.81676
335.17        21.71948
335.63        21.57857
336.08        21.40306
336.53        21.26605
336.98         21.2885
337.43        21.48096
337.88        21.80597
338.34        22.09249
338.79        22.10831
339.24        21.78303
339.69        21.18517
340.14        20.53736
340.59        20.22839
341.05        20.34756
341.50        20.78135
341.95        21.29578
342.40        21.54293
342.85        21.44374
343.30        21.11204
343.75        20.68965
344.20        20.42514
344.66         20.3913
345.11        20.46462
345.56        20.58007
346.01        20.64225
346.46        20.61224
346.91        20.55099
347.36        20.39981
347.81        20.05338
348.26        19.53444
348.72        18.91227
349.17        18.34689
349.62        18.18386
350.07        18.48627
350.52        19.13093
350.97        19.90157
351.42        20.46306
351.87        20.71543
352.32        20.74699
352.77         20.6229
353.22        20.45819
353.67        20.30208
354.13          20.117
354.58        19.92438
355.03        19.79984
355.48        19.75518
355.93        19.79666
356.38        19.85079
356.83        19.78354
357.28        19.57086
357.73        19.24964
358.18        18.92069
358.63        18.74531
359.08        18.75608
359.53        18.90194
359.98        19.07295
360.43        19.09858
360.88        18.94205
361.33         18.6577
361.78        18.34991
362.23        18.18757
362.68        18.20621
363.13        18.33856
363.58        18.49081
364.03        18.52047
364.48        18.39205
364.93        18.16326
365.38        17.88237
365.83        17.62212
366.28         17.4168
366.73        17.24412
367.18        17.12479
367.63        17.09592
368.08        17.14977
368.53        17.26814
368.98        17.39429
369.43        17.43426
369.88        17.36934
370.33         17.2347
370.78        17.05533
371.23        16.87949
371.68        16.73375
372.13        16.59872
372.58        16.52619
373.03        16.60062
373.48        16.81913
373.93        17.14835
374.38        17.46212
374.83        17.56569
375.28         17.4232
375.72        17.08347
376.17        16.68954
376.62        16.43804
377.07        16.38873
377.52        16.47898
377.97        16.63815
378.42        16.75033
378.87        16.77302
379.32        16.74497
379.77        16.68082
380.22        16.59536
380.67         16.4996
381.11        16.38825
381.56        16.26477
382.01        16.14993
382.46        16.05124
382.91        15.96436
383.36        15.90175
383.81        15.87748
384.26        15.88791
384.71        15.92892
385.15        15.95147
385.60        15.89375
386.05        15.74011
386.50        15.50128
386.95        15.24599
387.40        15.09752
387.85        15.08651
388.29        15.17503
388.74        15.27534
389.19        15.25212
389.64        15.08765
390.09        14.81696
390.54        14.54548
390.98        14.44913
391.43        14.57132
391.88        14.83937
392.33        15.11349
392.78        15.19063
393.23        15.04356
393.67        14.74255
394.12        14.43457
394.57        14.27029
395.02        14.28269
395.47         14.4178
395.91        14.60353
396.36        14.69292
396.81        14.64422
397.26        14.49356
397.71        14.30792
398.15         14.1698
398.60        14.11979
399.05        14.13102
399.50        14.13869
399.95        14.01311
400.39        13.80263
400.84        13.49703
401.29        13.20811
401.74         13.1105
402.18        13.25559
402.63        13.56732
403.08        13.92336
403.53        14.12696
403.97        14.12444
404.42        13.97252
404.87        13.74758
405.32        13.58511
405.76        13.52843
406.21        13.53582
406.66        13.57043
407.11        13.58579
407.55        13.57095
408.00        13.54264
408.45        13.50487
408.90        13.45336
409.34        13.39175
409.79        13.31787
410.24        13.25392
410.68        13.23223
411.13        13.25959
411.58        13.33276
412.03        13.41561
412.47        13.44582
412.92        13.39981
413.37        13.29417
413.81        13.18561
414.26        13.17758
414.71        13.27648
415.15        13.44978
415.60        13.60545
416.05         13.6145
416.49         13.4502
416.94        13.17316
417.39          12.856
417.83        12.62469
418.28        12.52984
418.73        12.52057
419.17        12.58681
419.62        12.70285
420.07        12.84696
420.51        13.02651
420.96        13.16578
421.41        13.13277
421.85        12.91066
422.30        12.56626
422.74        12.21182
423.19         12.0348
423.64        12.05704
424.08         12.2343
424.53        12.47069
424.98        12.61777
425.42          12.628
425.87        12.53703
426.31        12.39603
426.76        12.32485
427.21        12.32923
427.65        12.28618
428.10         12.2304
428.54        12.29414
428.99        12.47738
429.44        12.72727
429.88         12.9244
430.33        12.91565
430.77          12.684
431.22        12.27857
431.66        11.86563
432.11         11.7475
432.56        11.94782
433.00        12.31597
433.45        12.67869
433.89        12.89289
434.34        12.85655
434.78        12.50723
435.23         12.0754
435.67        11.99143
436.12         12.2229
436.57        12.33162
437.01        12.25355
437.46        12.18862
437.90        12.15132
438.35        12.08927
438.79        12.00937
439.24        11.95693
439.68        11.94371
440.13        11.90235
440.57        11.85761
441.02        12.00876
441.46        12.25901
441.91        12.17749
442.35        11.81628
442.80        11.61476
443.24        11.55345
443.69         11.4657
444.13        11.33152
444.58        11.12983
445.02        10.91837
445.47        10.92587
445.91        11.08877
446.36        11.10387
446.80        10.94372
447.24        10.77356
447.69        10.64429
448.13        10.56001
448.58        10.54082
449.02        10.57873
449.47        10.63797
449.91        10.65975
450.36         10.6321
450.80        10.56957
451.25        10.50725
451.69        10.49005
452.13        10.52897
452.58        10.59299
453.02        10.66159
453.47        10.69704
453.91        10.69348
454.36        10.67175
454.80        10.62575
455.24        10.54633
455.69        10.44849
456.13        10.33049
456.58        10.25506
457.02        10.29823
457.46        10.46983
457.91         10.7361
458.35        11.01153
458.79        11.15054
459.24        11.13026
459.68        10.98207
460.13        10.80453
460.57        10.71811
461.01        10.76652
461.46         10.9039
461.90        11.06679
462.34        11.14244
462.79        11.10389
463.23        10.98254
463.68         10.8538
464.12        10.83941
464.56        10.96826
465.01        11.19708
465.45        11.41647
465.89        11.50958
466.34        11.46541
466.78        11.26505
467.22        11.02404
467.67        11.03818
468.11        11.28505
468.55        11.41573
468.99        11.39369
469.44        11.39222
469.88        11.44713
470.32        11.59902
470.77        11.78956
471.21        11.83884
471.65        11.72525
472.10        11.57767
472.54        11.45452
472.98        11.41768
473.42        11.49006
473.87        11.65578
474.31        11.85025
474.75        11.96343
475.20         11.9748
475.64        11.91205
476.08        11.83547
476.52        11.83816
476.97        11.94132
477.41        12.11676
477.85        12.30634
478.29        12.44106
478.74        12.50106
479.18        12.44463
479.62         12.3268
480.06        12.44193
480.50        12.54802
480.95        12.66242
481.39        12.66651
481.83        12.64141
482.27        12.58759
482.72        12.41485
483.16        12.20579
483.60        12.26725
484.04         12.6192
484.48        12.85069
484.93        13.10063
485.37        13.56458
485.81        14.09088
486.25        14.18858
486.69        18.54428
487.14        14.59093
487.58        9.772002
488.02        12.14639
488.46        13.42181
488.90        13.51417
489.34           13.75
489.79        13.67661
490.23        14.22762
490.67         14.6652
491.11        14.78518
491.55        14.74799
491.99        14.52796
492.43        14.34653
492.88        14.27359
493.32        14.27201
493.76        14.27094
494.20        14.44709
494.64        14.76118
495.08        15.16017
495.52        15.57918
495.96        15.93677
496.41        16.16282
496.85        16.26138
497.29        16.26057
497.73        16.05058
498.17          15.842
498.61        16.01593
499.05        16.56924
499.49        16.71811
499.93        16.85556
500.37        17.01111
500.82        17.12737
501.26        17.35839
501.70        17.61381
502.14        17.75081
502.58        17.75992
503.02        17.79943
503.46        17.87823
503.90        17.89734
504.34        17.87218
504.78        17.87305
505.22        17.90925
505.66         17.9712
506.10        18.03342
506.54        18.04955
506.98        18.01631
507.42        17.95591
507.86        17.92032
508.30         17.9883
508.74        18.16991
509.18        18.42959
509.62        18.71315
510.06        18.93115
510.50        19.05523
510.94        19.11638
511.38        19.12554
511.82        19.10239
512.26        19.06287
512.70        18.99511
513.14        18.94438
513.58        18.98706
514.02        19.12334
514.46        19.32797
514.90         19.5201
515.34        19.53196
515.78        19.30852
516.22        19.06206
516.66        18.89408
517.10        18.50886
517.54         17.9384
517.98        18.80695
518.42        18.66846
518.86        19.05101
519.30        19.20316
519.74        19.36993
520.18        19.50352
520.62        19.49592
521.06        19.36848
521.50        19.12973
521.93        18.86363
522.37        18.72136
522.81        18.73661
523.25        18.86712
523.69        19.04553
524.13        19.16333
524.57        19.18786
525.01        19.15161
525.45        19.07861
525.89        19.00832
526.32        18.95433
526.76        18.90101
527.20        18.84616
527.64        18.79765
528.08        18.75776
528.52        18.71023
528.96        18.64492
529.40        18.59374
529.83        18.56665
530.27         18.3692
530.71        18.36347
531.15         18.2541
531.59        18.15519
532.03        18.05738
532.46        17.99715
532.90        18.03471
533.34        18.16287
533.78        18.35187
534.22        18.53206
534.66        18.60202
535.09        18.53661
535.53        18.37716
535.97        18.16519
536.41        17.97236
536.85        17.83144
537.28        17.73145
537.72        17.68037
538.16        17.68845
538.60         17.7528
539.04        17.85633
539.47        17.98369
539.91          18.155
540.35        18.34007
540.79        18.46222
541.22        18.52202
541.66        18.59766
542.10        18.69262
542.54        18.75533
542.97        18.80132
543.41        18.88961
543.85        19.02406
544.29        19.20192
544.72        19.38011
545.16         19.4959
545.60        19.53944
546.04        19.52793
546.47        19.53378
546.91        19.68132
547.35        19.97934
547.79        20.38638
548.22        20.79389
548.66        21.01408
549.10        21.02227
549.53        20.90998
549.97         20.7815
550.41        20.74298
550.84        20.83627
551.28        21.04072
551.72        21.32195
552.15         21.6118
552.59        21.87288
553.03        22.11685
553.46        22.32634
553.90        22.49368
554.34         22.6247
554.77        22.69475
555.21         22.7129
555.65        22.76551
556.08        22.87537
556.52        22.74697
556.96        22.92081
557.39        22.97853
557.83        23.08475
558.27        23.21361
558.70        23.36153
559.14        23.50542
559.57        23.62535
560.01        23.73606
560.45         23.8127
560.88        23.81403
561.32         23.7609
561.75        23.66621
562.19        23.58862
562.63        23.56512
563.06        23.61481
563.50        23.76606
563.93        23.97923
564.37        24.16319
564.80        24.28887
565.24        24.40264
565.68         24.4976
566.11        24.55477
566.55        24.59764
566.98        24.62587
567.42        24.67784
567.85        24.80886
568.29        25.04162
568.72        25.28085
569.16        25.52891
569.60        25.89381
570.03        26.25607
570.47        26.31575
570.90        26.17044
571.34        25.94782
571.77        26.25212
572.21        26.33105
572.64        26.30709
573.08        26.07382
573.51        25.37548
573.95        26.58298
574.38        28.25134
574.82        27.74376
