SpectraSmart Spectrum 2.9.0.0
--------- Device Information -----------
Spectrum Name :  反射率_0
Saving Time :  2024/04/25 22:55:32
Spectro-Module Model Name : SE2030-DUVN
Spectro-Module Serial Number : OS361AC55029948
Wavelength Start : 200
Wavelength End : 1025
Wavelength Unit : Wavelength(nm)
Spectrum Unit : Reflectance(%)
-----------Spectrum Setting ------------
Integration Time : 20ms
Average : 10
Boxcar : 0
Background removal :  enabled
linearity correction :  enabled
SC :  disabled
Intensity correction :  disabled
DWT denoise :  enabled
savitzky-golay :  disabled
FFT :  disabled
Running average :  disabled
Kalman :  disabled
High pass :  disabled
---------------BEGIN--------------------
Wavelength(nm)             Reflectance(%)
200.29               0
200.75        79.46915
201.21        74.86571
201.67        70.52657
202.13        67.57088
202.58        65.95844
203.04         65.8017
203.50        66.75705
203.96        68.07479
204.42        69.29337
204.88        70.35759
205.34        71.29435
205.80        72.37749
206.26        74.00116
206.72        76.89085
207.18        82.08795
207.64        86.88528
208.10        84.35107
208.55        77.94949
209.01        73.69733
209.47        72.21296
209.93        72.29923
210.39        73.61811
210.85        74.65727
211.31        72.45657
211.77        66.64707
212.23        58.51384
212.69        51.43727
213.14        50.67775
213.60        56.77065
214.06        68.22733
214.52         80.9712
214.98        88.66486
215.44        89.65273
215.90         85.8887
216.36        80.02615
216.81        75.78548
217.27        74.41777
217.73        74.62373
218.19         74.7953
218.65        72.77026
219.11        67.58955
219.57        58.66211
220.02        46.93275
220.48        39.18306
220.94        39.48905
221.40         46.6064
221.86        53.86838
222.32        54.06006
222.77         47.9592
223.23        39.52305
223.69        32.87826
224.15        32.30993
224.61        37.19174
225.06        45.20832
225.52        53.11962
225.98        56.83593
226.44          55.617
226.90        51.28438
227.36        45.94803
227.81         42.4153
228.27         41.7029
228.73         42.6875
229.19        44.68725
229.65        46.69657
230.10        48.23773
230.56        49.60654
231.02        50.76023
231.48        51.61381
231.93        52.17739
232.39        52.42503
232.85        52.42503
233.31        52.38954
233.77        52.33081
234.22        52.18357
234.68        51.81448
235.14        50.94674
235.60        49.63474
236.05        48.18246
236.51        46.78664
236.97        45.55529
237.43        44.52534
237.88        43.66225
238.34        43.34231
238.80        44.57113
239.26        47.65144
239.71        52.41509
240.17        57.41169
240.63        60.60263
241.08        61.46343
241.54        60.32345
242.00        58.44811
242.46        57.72985
242.91        59.19264
243.37        63.99707
243.83        79.56367
244.28        128.3839
244.74        179.4422
245.20        147.1983
245.66        118.8515
246.11        108.8273
246.57        107.0617
247.03        110.5651
247.48        117.2474
247.94        85.73612
248.40        71.02852
248.85        69.96004
249.31        71.21106
249.77         73.2419
250.22        76.20943
250.68        80.84627
251.14        86.90128
251.59        89.68131
252.05        85.42023
252.51        76.85508
252.96         68.1581
253.42        63.21148
253.88        61.54822
254.33        61.75954
254.79        64.40049
255.25        69.47007
255.70        75.66685
256.16        82.28423
256.62        86.88486
257.07        87.09567
257.53        83.89867
257.99        78.25193
258.44        72.49117
258.90        70.18685
259.35        70.40302
259.81         71.7907
260.27        72.05802
260.72        69.01623
261.18        63.60438
261.63        56.92406
262.09        50.99777
262.55         47.4646
263.00        46.17096
263.46        46.27478
263.91        46.54459
264.37        45.98668
264.83        44.42243
265.28        42.16719
265.74        39.93066
266.19        38.51277
266.65        38.16181
267.11        38.42066
267.56        38.70149
268.02        38.33779
268.47        37.20798
268.93        35.56705
269.38        33.77414
269.84        32.65683
270.30        32.42596
270.75        32.82974
271.21        33.40478
271.66         33.4663
272.12        32.84255
272.57        31.75923
273.03        30.58905
273.48        29.80096
273.94        29.53875
274.39        29.59752
274.85        29.73637
275.31        29.59787
275.76        29.09402
276.22        28.38319
276.67        27.63922
277.13        27.19802
277.58        27.06378
278.04        27.14728
278.49        27.21077
278.95        26.99374
279.40        26.42951
279.86        25.67812
280.31        24.89071
280.77        24.40431
281.22        24.23248
281.68        24.27903
282.13        24.37905
282.59        24.34095
283.04        24.11108
283.50        23.79699
283.95        23.43164
284.41        23.08322
284.86        22.77735
285.32        22.50226
285.77        22.31123
286.22        22.34878
286.68         22.5962
287.13         22.9795
287.59        23.33243
288.04        23.39567
288.50        23.14675
288.95        22.65026
289.41        22.07874
289.86        21.59069
290.32        21.29346
290.77        21.12857
291.22        21.09056
291.68        21.12948
292.13        21.23389
292.59        21.42709
293.04        21.72519
293.50        22.14914
293.95        22.67579
294.40        23.25532
294.86        23.82556
295.31        24.30795
295.77        24.69001
296.22        25.00226
296.68          25.267
297.13        25.49396
297.58        25.72203
298.04        25.97131
298.49        26.30957
298.95         26.8771
299.40        27.67464
299.85        28.64636
300.31        29.66524
300.76        30.53692
301.21        31.18357
301.67        31.67601
302.12        32.02447
302.58        32.31232
303.03        32.55752
303.48        32.75813
303.94        33.00363
304.39        33.39274
304.84         33.9437
305.30        34.62105
305.75        35.28473
306.20        35.72839
306.66        35.92801
307.11        35.92659
307.57        35.86564
308.02        35.87749
308.47        36.03366
308.93        36.29327
309.38         36.5984
309.83         36.8942
310.29         37.1466
310.74         37.3576
311.19        37.54193
311.65        37.71751
312.10        37.88174
312.55        38.03137
313.00        38.10495
313.46        38.01607
313.91        37.75389
314.36         37.3704
314.82        37.01073
315.27        36.87463
315.72        37.00621
316.18        37.33636
316.63        37.72484
317.08        37.91378
317.53         37.8294
317.99        37.53845
318.44        37.16751
318.89        36.92125
319.35        36.84613
319.80        36.88866
320.25        36.93659
320.70        36.81163
321.16         36.4777
321.61        36.00357
322.06        35.50695
322.51        35.15987
322.97        34.98825
323.42        34.94433
323.87        34.92469
324.32        34.76252
324.78        34.41393
325.23        33.94778
325.68        33.44144
326.13        33.02436
326.59        32.73149
327.04        32.54264
327.49         32.4257
327.94        32.33222
328.39        32.24312
328.85        32.16915
329.30        32.13323
329.75        32.11957
330.20        32.12655
330.66        32.12799
331.11         32.1525
331.56        32.20406
332.01        32.27552
332.46        32.34665
332.92        32.38438
333.37        32.37783
333.82        32.30362
334.27        32.18545
334.72        32.00817
335.17        31.75092
335.63         31.4276
336.08        31.05762
336.53        30.74234
336.98        30.64726
337.43        30.79245
337.88         31.1298
338.34        31.47577
338.79        31.57555
339.24        31.34214
339.69         30.8523
340.14        30.28614
340.59        29.96697
341.05        29.97749
341.50        30.21373
341.95        30.53135
342.40        30.71838
342.85         30.7163
343.30        30.60505
343.75        30.41316
344.20         30.1911
344.66        29.97348
345.11        29.70978
345.56         29.4721
346.01        29.37134
346.46        29.41125
346.91        29.57703
347.36        29.71269
347.81        29.56304
348.26         29.1035
348.72        28.45034
349.17        27.79625
349.62        27.53663
350.07        27.75928
350.52        28.32194
350.97        29.01877
351.42        29.53713
351.87        29.77586
352.32        29.81836
352.77        29.71308
353.22        29.54111
353.67        29.34447
354.13        29.10209
354.58        28.83054
355.03        28.60311
355.48        28.43755
355.93         28.3358
356.38        28.26774
356.83        28.16897
357.28        28.01971
357.73         27.8338
358.18        27.63122
358.63        27.44351
359.08        27.28308
359.53        27.14776
359.98        27.01539
360.43        26.85367
360.88        26.65948
361.33        26.43869
361.78        26.24612
362.23        26.16928
362.68        26.21258
363.13        26.33697
363.58        26.44398
364.03         26.3819
364.48        26.12242
364.93        25.72022
365.38        25.26474
365.83        24.90158
366.28         24.6772
366.73        24.54879
367.18        24.48755
367.63        24.44345
368.08        24.39143
368.53        24.35157
368.98        24.30152
369.43        24.19893
369.88        24.04338
370.33        23.84771
370.78        23.65173
371.23        23.52987
371.68        23.50204
372.13        23.54026
372.58        23.62964
373.03        23.74123
373.48        23.84886
373.93        23.95285
374.38        24.00791
374.83        23.94643
375.28        23.76375
375.72        23.47294
376.17        23.16372
376.62        22.94438
377.07        22.84872
377.52        22.84559
377.97        22.89569
378.42        22.92986
378.87        22.92128
379.32         22.8908
379.77        22.83661
380.22        22.75425
380.67        22.64597
381.11        22.50839
381.56        22.35592
382.01        22.22495
382.46        22.12629
382.91        22.05561
383.36         21.9959
383.81         21.9153
384.26        21.81019
384.71        21.69628
385.15        21.58331
385.60        21.50175
386.05        21.44347
386.50        21.38441
386.95        21.32625
387.40        21.27397
387.85        21.23045
388.29        21.20465
388.74        21.16616
389.19        21.02993
389.64        20.79591
390.09        20.47849
390.54        20.20203
390.98        20.17609
391.43        20.43567
391.88        20.88671
392.33        21.33145
392.78        21.47965
393.23        21.29418
393.67        20.87873
394.12        20.42949
394.57        20.14771
395.02         20.0834
395.47        20.16365
395.91        20.33232
396.36         20.4622
396.81        20.50914
397.26        20.50087
397.71        20.45255
398.15        20.36109
398.60        20.26592
399.05        20.17209
399.50        20.06768
399.95        19.88282
400.39        19.70799
400.84        19.48879
401.29        19.32257
401.74        19.34234
402.18        19.57658
402.63        19.95248
403.08        20.34567
403.53          20.556
403.97        20.53493
404.42        20.34288
404.87        20.05916
405.32        19.82737
405.76        19.70108
406.21        19.64562
406.66        19.65224
407.11         19.7156
407.55        19.82823
408.00        19.99185
408.45        20.15975
408.90        20.22366
409.34        20.15451
409.79         19.9837
410.24        19.79004
410.68        19.68837
411.13        19.70925
411.58        19.82301
412.03        19.98071
412.47        20.09693
412.92        20.12726
413.37        20.09855
413.81        20.05126
414.26        20.06501
414.71        20.14461
415.15        20.26407
415.60        20.35495
416.05        20.32982
416.49        20.17487
416.94        19.93845
417.39        19.68341
417.83        19.51418
418.28        19.47117
418.73         19.5105
419.17        19.61681
419.62        19.76247
420.07        19.92674
420.51        20.11886
420.96        20.27256
421.41        20.27507
421.85        20.10713
422.30        19.82811
422.74        19.53684
423.19        19.41924
423.64        19.49013
424.08        19.71157
424.53         19.9723
424.98        20.10739
425.42        20.07577
425.87         19.9194
426.31        19.71816
426.76        19.65158
427.21        19.72769
427.65        19.75933
428.10        19.79357
428.54        20.03064
428.99        20.45849
429.44        20.97946
429.88        21.38733
430.33        21.43213
430.77        21.08456
431.22        20.43106
431.66        19.74628
432.11        19.53472
432.56        19.84308
433.00        20.40101
433.45        20.95247
433.89        21.36721
434.34        21.46029
434.78        20.97245
435.23        20.28243
435.67        20.22664
436.12         20.7512
436.57        21.04869
437.01        20.99954
437.46        20.96942
437.90        20.98099
438.35         20.9278
438.79        20.82709
439.24        20.76316
439.68        20.76219
440.13        20.71874
440.57        20.66511
441.02         20.9334
441.46        21.36001
441.91        21.20139
442.35        20.59314
442.80        20.34924
443.24        20.44843
443.69        20.57278
444.13        20.63545
444.58        20.49154
445.02        20.21769
445.47        20.26486
445.91        20.55917
446.36        20.60601
446.80        20.37708
447.24        20.15601
447.69        20.02198
448.13        19.96772
448.58        20.01817
449.02        20.16739
449.47        20.34412
449.91        20.42824
450.36        20.39515
450.80        20.27773
451.25        20.14357
451.69        20.08553
452.13        20.13135
452.58        20.23652
453.02        20.36615
453.47        20.47042
453.91        20.53249
454.36        20.57331
454.80        20.58425
455.24        20.54472
455.69          20.469
456.13        20.35573
456.58        20.26502
457.02        20.25664
457.46         20.3497
457.91        20.51715
458.35        20.70583
458.79        20.82654
459.24        20.86658
459.68        20.83534
460.13        20.78637
460.57        20.75664
461.01         20.7788
461.46        20.83367
461.90        20.90248
462.34        20.95319
462.79        20.97079
463.23        20.95841
463.68        20.95131
464.12        21.01344
464.56        21.15133
465.01         21.3585
465.45        21.51889
465.89        21.54092
466.34         21.4292
466.78        21.10032
467.22        20.72532
467.67        20.79015
468.11        21.23211
468.55        21.42133
468.99        21.30568
469.44        21.23445
469.88        21.28253
470.32        21.51171
470.77        21.82914
471.21        21.92119
471.65        21.75381
472.10         21.5592
472.54        21.41439
472.98        21.36655
473.42        21.44544
473.87        21.63898
474.31        21.88049
474.75        22.06201
475.20        22.15772
475.64        22.18714
476.08        22.18344
476.52        22.19649
476.97        22.24479
477.41        22.31508
477.85        22.38663
478.29        22.47309
478.74        22.57658
479.18        22.58503
479.62        22.52453
480.06        22.81742
480.50        22.99436
480.95        23.12434
481.39        23.04964
481.83        23.00892
482.27        23.01405
482.72        22.84838
483.16        22.60608
483.60        22.76146
484.04        23.32676
484.48        23.57665
484.93        23.78318
485.37        24.33779
485.81           25.07
486.25        24.93075
486.69        32.75692
487.14        25.94686
487.58        17.09034
488.02        21.18286
488.46        24.31327
488.90        24.42419
489.34        24.85471
489.79        24.59065
490.23        25.62902
490.67        26.22515
491.11        26.14073
491.55        26.20092
491.99        26.29018
492.43        26.25379
492.88        26.14967
493.32        26.22992
493.76        26.33344
494.20        26.60014
494.64        26.95769
495.08        27.36637
495.52        27.79318
495.96         28.2272
496.41        28.57752
496.85        28.80637
497.29        28.91752
497.73        28.63262
498.17         28.2938
498.61        28.60717
499.05        29.55682
499.49        29.72873
499.93        29.83305
500.37        29.92303
500.82        29.94922
501.26         30.2564
501.70        30.70039
502.14        31.01233
502.58        31.12212
503.02        31.21418
503.46        31.28551
503.90        31.20029
504.34        31.02592
504.78        30.94667
505.22        30.99854
505.66        31.14319
506.10        31.34795
506.54        31.50607
506.98        31.58251
507.42        31.69077
507.86        31.89286
508.30        31.82208
508.74        32.21946
509.18        32.46787
509.62        32.72332
510.06         32.8715
510.50         32.8986
510.94        32.83503
511.38        32.73821
511.82        32.71736
512.26         32.7994
512.70        32.95066
513.14         33.1374
513.58        33.30167
514.02        33.41169
514.46        33.47943
514.90        33.50473
515.34        33.45642
515.78        33.31567
516.22        33.22396
516.66        33.21257
517.10        32.95288
517.54        32.45095
517.98        33.07954
518.42        32.86645
518.86          33.134
519.30        33.27792
519.74        33.47241
520.18        33.66003
520.62         33.7258
521.06        33.67367
521.50        33.52161
521.93        33.32281
522.37        33.17216
522.81        33.10216
523.25        33.09261
523.69        33.12915
524.13        33.18728
524.57        33.25132
525.01        33.32204
525.45        33.38876
525.89        33.43358
526.32        33.44247
526.76        33.41279
527.20        33.33149
527.64        33.19356
528.08        33.01329
528.52        32.77391
528.96        32.49681
529.40        32.30364
529.83         32.2283
530.27         31.9167
530.71        31.98747
531.15        31.90914
531.59        31.86242
532.03        31.82917
532.46        31.83838
532.90        31.92918
533.34         32.0856
533.78        32.28233
534.22        32.44309
534.66        32.46133
535.09        32.31602
535.53        32.05849
535.97        31.75847
536.41        31.53543
536.85        31.43052
537.28        31.41842
537.72        31.46942
538.16        31.53459
538.60        31.59499
539.04        31.64045
539.47        31.68315
539.91        31.82325
540.35         32.0281
540.79        32.15243
541.22        32.19318
541.66         32.2785
542.10        32.41026
542.54        32.50933
542.97        32.59787
543.41        32.76328
543.85         33.0082
544.29        33.32067
544.72        33.63467
545.16        33.86123
545.60        33.97973
546.04        34.00954
546.47        34.04818
546.91        34.26355
547.35        34.67017
547.79        35.22224
548.22        35.76476
548.66        36.03168
549.10        35.99445
549.53        35.79199
549.97        35.59633
550.41        35.58786
550.84        35.82676
551.28        36.27096
551.72        36.82025
552.15        37.28455
552.59         37.5955
553.03        37.80424
553.46        37.93945
553.90        38.07938
554.34        38.24619
554.77        38.39231
555.21        38.51413
555.65        38.66538
556.08        38.85211
556.52        38.83411
556.96        39.07429
557.39        39.19357
557.83         39.3423
558.27        39.49466
558.70        39.65828
559.14        39.84018
559.57         40.0242
560.01        40.20668
560.45        40.34958
560.88        40.42599
561.32        40.44206
561.75        40.32402
562.19        40.17048
562.63        40.13936
563.06        40.24603
563.50         40.4315
563.93        40.63869
564.37        40.81651
564.80        40.93024
565.24        41.01509
565.68        41.08112
566.11        41.14749
566.55        41.25212
566.98        41.37506
567.42        41.54077
567.85        41.78104
568.29        42.11387
568.72         42.4071
569.16        42.70925
569.60        43.14988
570.03        43.52025
570.47        43.55456
570.90        43.37148
571.34        42.46629
571.77        43.15697
572.21        43.19488
572.64        43.12868
573.08        42.54407
573.51        41.37097
573.95        43.11517
574.38        45.56559
574.82        44.83183
