SpectraSmart Spectrum 2.9.0.0
--------- Device Information -----------
Spectrum Name :  反射率_0
Saving Time :  2024/04/26 00:49:23
Spectro-Module Model Name : SE2030-DUVN
Spectro-Module Serial Number : OS361AC55029948
Wavelength Start : 200
Wavelength End : 1025
Wavelength Unit : Wavelength(nm)
Spectrum Unit : Reflectance(%)
-----------Spectrum Setting ------------
Integration Time : 20ms
Average : 10
Boxcar : 0
Background removal :  enabled
linearity correction :  enabled
SC :  disabled
Intensity correction :  disabled
DWT denoise :  enabled
savitzky-golay :  disabled
FFT :  disabled
Running average :  disabled
Kalman :  disabled
High pass :  disabled
---------------BEGIN--------------------
Wavelength(nm)             Reflectance(%)
200.29               0
200.75        79.52364
201.21        72.77261
201.67        65.63919
202.13        62.15664
202.58        62.75079
203.04        66.52181
203.50         71.9594
203.96        76.19318
204.42        78.07536
204.88        78.39182
205.34        78.31989
205.80        79.30846
206.26        82.20432
206.72        88.48189
207.18        99.82239
207.64        106.9158
208.10        95.38015
208.55        78.69835
209.01        69.53661
209.47        67.71008
209.93        70.22556
210.39        75.99571
210.85        82.40108
211.31        83.53242
211.77        77.70233
212.23        67.31413
212.69        56.99739
213.14        53.92524
213.60        59.25796
214.06        70.77603
214.52        84.39408
214.98        93.79229
215.44        96.95132
215.90        95.78728
216.36        92.01272
216.81        87.84488
217.27        84.70129
217.73        82.12286
218.19        79.53097
218.65        76.05556
219.11        71.02092
219.57        63.51112
220.02        54.85727
220.48        51.62422
220.94        56.61851
221.40        67.83102
221.86        76.72598
222.32        74.84914
222.77         64.0923
223.23        49.84508
223.69        38.24242
224.15        35.56984
224.61        40.99725
225.06        51.33343
225.52        61.95315
225.98        66.73787
226.44        64.65537
226.90         58.2665
227.36        51.03449
227.81        47.69576
228.27        49.45994
228.73        54.27457
229.19        59.99792
229.65        63.54409
230.10        64.18701
230.56        63.33358
231.02        61.94862
231.48        61.04277
231.93        60.76868
232.39        60.68877
232.85        60.63897
233.31        60.52503
233.77        60.26958
234.22        60.02695
234.68        59.61153
235.14        58.61951
235.60        57.09332
236.05        55.25047
236.51        53.59517
236.97        52.75826
237.43        52.89118
237.88        54.01801
238.34        55.86084
238.80        57.69128
239.26         58.9094
239.71        59.60552
240.17        59.73703
240.63        59.98211
241.08        60.69076
241.54        61.64353
242.00        62.61694
242.46        63.31481
242.91        63.86451
243.37        64.11164
243.83        66.56874
244.28        89.07413
244.74         141.301
245.20        144.9598
245.66        131.8037
246.11        125.6265
246.57        123.1697
247.03        120.6574
247.48        100.0166
247.94        49.96863
248.40        57.06557
248.85        66.23967
249.31        72.18477
249.77        76.97414
250.22        82.35576
250.68        90.22761
251.14        100.6152
251.59        106.7965
252.05        102.2833
252.51        90.21417
252.96        77.11808
253.42        69.09581
253.88        65.77498
254.33        65.39005
254.79        67.88768
255.25        72.44597
255.70        77.76559
256.16        83.42876
256.62        87.71479
257.07         88.9416
257.53        87.77427
257.99        84.61757
258.44        80.71844
258.90        78.53419
259.35        77.39471
259.81          76.798
260.27         75.3942
260.72        71.84812
261.18        66.93269
261.63        61.22298
262.09        56.18094
262.55        52.79875
263.00        50.97374
263.46        50.26075
263.91        49.77538
264.37        48.89023
264.83        47.41333
265.28        45.48999
265.74        43.63792
266.19        42.36409
266.65        41.87995
267.11         41.8519
267.56        41.83882
268.02        41.34248
268.47        40.24844
268.93        38.75843
269.38        37.12728
269.84        36.00941
270.30        35.57607
270.75        35.63565
271.21        35.87051
271.66        35.80457
272.12        35.30555
272.57        34.53273
273.03         33.7021
273.48        33.04289
273.94        32.65922
274.39        32.42519
274.85        32.26583
275.31        32.06153
275.76        31.75859
276.22        31.42117
276.67        31.05848
277.13         30.7819
277.58        30.54891
278.04         30.3571
278.49        30.09657
278.95        29.69004
279.40         29.1005
279.86        28.43467
280.31        27.73838
280.77        27.20049
281.22        26.81791
281.68        26.56919
282.13        26.40016
282.59        26.27644
283.04        26.15955
283.50        26.08733
283.95        25.99339
284.41        25.80439
284.86        25.50255
285.32        25.12055
285.77        24.75319
286.22        24.61279
286.68        24.70492
287.13        24.93476
287.59        25.13482
288.04        25.03992
288.50        24.63631
288.95        24.01079
289.41        23.33909
289.86        22.77447
290.32        22.42425
290.77        22.21708
291.22        22.16941
291.68        22.26806
292.13        22.49099
292.59        22.83795
293.04        23.25047
293.50        23.63622
293.95        23.95463
294.40        24.19899
294.86        24.39114
295.31        24.58119
295.77        24.79346
296.22        25.02542
296.68        25.25551
297.13        25.42051
297.58        25.53263
298.04        25.63013
298.49        25.80112
298.95        26.21302
299.40        26.87186
299.85        27.71217
300.31        28.57751
300.76        29.23372
301.21        29.60863
301.67        29.79853
302.12        29.87432
302.58        29.99992
303.03        30.20183
303.48        30.44056
303.94        30.74576
304.39        31.12782
304.84        31.58015
305.30        32.09501
305.75        32.56084
306.20        32.81508
306.66        32.85379
307.11        32.71381
307.57        32.53776
308.02        32.46523
308.47         32.5632
308.93        32.78675
309.38        33.07597
309.83        33.36728
310.29        33.61844
310.74        33.83122
311.19        33.99976
311.65        34.11332
312.10        34.16842
312.55        34.17084
313.00        34.09446
313.46        33.91224
313.91        33.62897
314.36        33.28078
314.82        32.97948
315.27        32.87404
315.72        32.99424
316.18        33.28788
316.63        33.63398
317.08        33.80714
317.53        33.74324
317.99        33.49572
318.44        33.17994
318.89        32.98498
319.35        32.95206
319.80        33.03118
320.25        33.11296
320.70        33.02179
321.16        32.72206
321.61        32.28095
322.06        31.81407
322.51        31.49126
322.97        31.34082
323.42         31.3159
323.87        31.32076
324.32        31.20027
324.78        30.91172
325.23        30.51722
325.68        30.08549
326.13        29.72951
326.59        29.48277
327.04         29.3333
327.49        29.25079
327.94        29.19019
328.39        29.13431
328.85        29.08524
329.30         29.0843
329.75        29.15321
330.20         29.2883
330.66        29.44969
331.11        29.60283
331.56         29.6522
332.01        29.57199
332.46        29.37127
332.92        29.09775
333.37        28.88348
333.82        28.76225
334.27        28.72846
334.72        28.71406
335.17        28.59498
335.63        28.34896
336.08        28.02792
336.53         27.7534
336.98         27.7217
337.43         27.9634
337.88         28.4067
338.34        28.87136
338.79        29.11548
339.24        29.04682
339.69        28.73594
340.14        28.32772
340.59        28.08211
341.05        28.06762
341.50        28.20361
341.95        28.38757
342.40        28.46781
342.85        28.40551
343.30        28.27045
343.75        28.08294
344.20        27.87649
344.66        27.67667
345.11        27.43634
345.56        27.23057
346.01        27.17252
346.46        27.26345
346.91        27.48562
347.36        27.66353
347.81        27.51438
348.26         27.0132
348.72        26.28749
349.17        25.56692
349.62        25.30824
350.07        25.60945
350.52        26.30344
350.97        27.14351
351.42         27.7546
351.87         28.0186
352.32        28.03899
352.77        27.87961
353.22        27.64681
353.67        27.39578
354.13         27.0994
354.58        26.78599
355.03        26.54689
355.48        26.40299
355.93        26.35592
356.38        26.35846
356.83        26.31513
357.28        26.19865
357.73        26.02933
358.18        25.84284
358.63        25.69794
359.08        25.61005
359.53        25.56245
359.98        25.51592
360.43        25.41316
360.88         25.2449
361.33        25.02809
361.78        24.82265
362.23        24.72414
362.68        24.74348
363.13        24.83943
363.58        24.92778
364.03        24.87893
364.48        24.66649
364.93        24.34019
365.38        23.96507
365.83        23.64483
366.28        23.41862
366.73        23.25865
367.18        23.16138
367.63        23.11969
368.08        23.11792
368.53        23.15537
368.98        23.19638
369.43        23.18059
369.88         23.0961
370.33        22.95962
370.78        22.79291
371.23        22.64018
371.68        22.52011
372.13        22.41707
372.58         22.3514
373.03         22.3553
373.48        22.42371
373.93        22.54444
374.38        22.65351
374.83        22.65024
375.28          22.517
375.72        22.27484
376.17        22.01182
376.62        21.83246
377.07        21.77054
377.52        21.79273
377.97        21.86177
378.42        21.91615
378.87        21.92988
379.32        21.91848
379.77        21.88479
380.22        21.83114
380.67        21.75872
381.11        21.66381
381.56        21.54116
382.01        21.39443
382.46        21.23071
382.91         21.0567
383.36        20.88917
383.81        20.75154
384.26        20.65054
384.71        20.58268
385.15         20.5252
385.60        20.45666
386.05        20.36025
386.50        20.23564
386.95         20.1015
387.40        19.99307
387.85        19.92679
388.29        19.89633
388.74        19.87878
389.19        19.80888
389.64        19.67763
390.09        19.48686
390.54        19.31676
390.98        19.29913
391.43        19.45848
391.88        19.74164
392.33        19.99479
392.78        19.99278
393.23        19.72126
393.67        19.26286
394.12        18.82385
394.57        18.62506
395.02        18.70886
395.47        18.99914
395.91        19.37609
396.36         19.5949
396.81        19.58115
397.26        19.39542
397.71        19.13872
398.15        18.94398
398.60        18.87414
399.05        18.88574
399.50          18.904
399.95        18.77432
400.39        18.56309
400.84         18.2517
401.29        17.96477
401.74        17.88526
402.18        18.06509
402.63        18.41837
403.08         18.8127
403.53        19.03709
403.97        19.03567
404.42        18.87109
404.87        18.62288
405.32        18.43183
405.76        18.34576
406.21        18.32471
406.66        18.34481
407.11        18.38033
407.55        18.42299
408.00        18.48294
408.45        18.53882
408.90        18.53382
409.34        18.45641
409.79        18.32145
410.24        18.18451
410.68        18.12607
411.13        18.16437
411.58        18.27885
412.03        18.41675
412.47        18.48692
412.92        18.45011
413.37        18.33578
413.81        18.20179
414.26        18.15401
414.71        18.20372
415.15        18.31985
415.60        18.42399
416.05        18.40981
416.49        18.25667
416.94        18.01851
417.39        17.75907
417.83        17.58509
418.28        17.53851
418.73        17.57227
419.17        17.67306
419.62        17.81742
420.07        17.98322
420.51        18.17465
420.96        18.32351
421.41        18.31206
421.85        18.12342
422.30        17.82608
422.74        17.51217
423.19        17.35176
423.64        17.36195
424.08        17.50459
424.53         17.7067
424.98        17.86852
425.42        17.95658
425.87        17.98918
426.31        17.97437
426.76        17.97892
427.21        17.98708
427.65        17.85233
428.10        17.67982
428.54        17.75551
428.99        18.10052
429.44        18.60034
429.88        19.02756
430.33        19.08937
430.77        18.74481
431.22        18.09721
431.66        17.42264
432.11        17.21031
432.56        17.51031
433.00        18.06939
433.45        18.63223
433.89        19.03207
434.34        19.08679
434.78        18.58352
435.23        17.89316
435.67         17.7965
436.12         18.2517
436.57        18.53301
437.01        18.51405
437.46        18.48182
437.90        18.44895
438.35        18.34061
438.79        18.18641
439.24          18.081
439.68        18.05374
440.13        18.00092
440.57        17.95889
441.02        18.22954
441.46        18.66688
441.91         18.6146
442.35        18.14823
442.80        17.93205
443.24        17.94299
443.69        17.91845
444.13        17.82564
444.58        17.61735
445.02        17.37896
445.47        17.47334
445.91        17.80398
446.36        17.88852
446.80        17.68448
447.24         17.4574
447.69        17.29042
448.13        17.19714
448.58        17.20951
449.02        17.31609
449.47        17.45706
449.91         17.5335
450.36         17.5234
450.80        17.45182
451.25        17.37499
451.69        17.36798
452.13        17.44868
452.58        17.57401
453.02        17.70339
453.47        17.77639
453.91        17.77955
454.36        17.74201
454.80        17.66945
455.24        17.56841
455.69        17.46196
456.13        17.34127
456.58        17.26666
457.02        17.30048
457.46         17.4536
457.91        17.69642
458.35        17.94773
458.79        18.07288
459.24        18.05278
459.68        17.91223
460.13        17.74357
460.57        17.64862
461.01        17.67197
461.46        17.77505
461.90        17.90421
462.34        17.96901
462.79        17.94191
463.23        17.84464
463.68        17.74246
464.12        17.74704
464.56        17.88136
465.01        18.11849
465.45        18.32709
465.89        18.38402
466.34        18.28468
466.78        17.97258
467.22        17.61934
467.67        17.67764
468.11        18.10409
468.55        18.35024
468.99        18.33882
469.44        18.32028
469.88        18.34952
470.32        18.49485
470.77         18.7052
471.21         18.7612
471.65        18.64381
472.10         18.5332
472.54        18.46976
472.98        18.45546
473.42        18.50677
473.87        18.63185
474.31        18.78371
474.75        18.88237
475.20        18.91468
475.64        18.89245
476.08        18.86153
476.52        18.89231
476.97        19.00128
477.41        19.16962
477.85        19.34344
478.29         19.4736
478.74        19.54794
479.18        19.48564
479.62        19.34839
480.06        19.56041
480.50        19.73174
480.95        19.90059
481.39        19.89899
481.83        19.88311
482.27        19.85176
482.72        19.63943
483.16        19.34941
483.60        19.41171
484.04        19.84185
484.48        20.04372
484.93        20.25489
485.37        20.71889
485.81        21.30676
486.25        21.35338
486.69        28.31632
487.14        22.37127
487.58         14.6929
488.02        18.26829
488.46        20.38114
488.90         20.5333
489.34        20.86741
489.79        20.78122
490.23        21.73818
490.67        22.24188
491.11        22.09789
491.55        22.08831
491.99        22.13754
492.43        22.06416
492.88        21.92432
493.32        21.96412
493.76        22.06597
494.20        22.31858
494.64        22.65059
495.08        23.12092
495.52        23.63334
495.96        23.86937
496.41        23.83252
496.85        23.96988
497.29         24.2687
497.73        24.07701
498.17         23.6745
498.61        23.89988
499.05        24.74702
499.49        24.92148
499.93        25.00979
500.37        25.08495
500.82        25.10607
501.26        25.36407
501.70        25.73867
502.14        26.00156
502.58        26.08512
503.02        26.13443
503.46        26.14764
503.90        26.01413
504.34        25.81429
504.78        25.74061
505.22        25.82941
505.66        26.03313
506.10        26.28356
506.54         26.4609
506.98        26.53033
507.42        26.53123
507.86        26.52439
508.30        26.60346
508.74        26.78593
509.18        27.02851
509.62        27.27869
510.06        27.45479
510.50        27.53405
510.94        27.55328
511.38         27.5313
511.82        27.49443
512.26        27.46067
512.70        27.41815
513.14        27.40343
513.58        27.47841
514.02        27.63735
514.46        27.85284
514.90        28.05252
515.34        28.08778
515.78         27.9087
516.22        27.70709
516.66        27.56119
517.10        27.18658
517.54        26.61514
517.98        27.31344
518.42        27.12793
518.86        27.47935
519.30        27.70216
519.74         27.9928
520.18        28.27613
520.62        28.40399
521.06        28.37502
521.50        28.20881
521.93        27.97804
522.37        27.81569
522.81        27.76162
523.25        27.78317
523.69        27.84674
524.13        27.89766
524.57        27.91459
525.01        27.91309
525.45        27.89843
525.89        27.87555
526.32        27.84339
526.76        27.79904
527.20        27.72908
527.64        27.62535
528.08        27.49771
528.52        27.32977
528.96        27.14711
529.40        27.06343
529.83        27.10192
530.27        26.95161
530.71         27.1043
531.15        27.06805
531.59        26.98876
532.03        26.86693
532.46        26.75637
532.90        26.74143
533.34        26.82796
533.78        26.98575
534.22         27.1395
534.66        27.18042
535.09        27.08197
535.53        26.88986
535.97        26.66609
536.41        26.51482
536.85        26.46871
537.28        26.50314
537.72        26.57552
538.16        26.61853
538.60        26.61637
539.04        26.57318
539.47        26.53404
539.91        26.63358
540.35        26.85384
540.79         27.0563
541.22        27.20543
541.66        27.35654
542.10        27.49504
542.54        27.56536
542.97        27.60433
543.41        27.71645
543.85        27.91236
544.29        28.17376
544.72         28.4296
545.16        28.58181
545.60        28.61172
546.04        28.54764
546.47         28.4973
546.91        28.64097
547.35        28.99685
547.79        29.51114
548.22          30.027
548.66         30.2769
549.10         30.2271
549.53        30.01022
549.97        29.78691
550.41        29.73179
550.84        29.90408
551.28        30.26046
551.72        30.72124
552.15        31.13606
552.59        31.44306
553.03        31.67939
553.46        31.84834
553.90        31.98577
554.34        32.11024
554.77        32.17359
555.21        32.18501
555.65         32.2639
556.08        32.43687
556.52        32.28462
556.96        32.55767
557.39        32.63232
557.83        32.74126
558.27        32.86141
558.70        33.00625
559.14        33.17873
559.57        33.35574
560.01        33.53987
560.45        33.69667
560.88        33.75475
561.32        33.72828
561.75          33.679
562.19        33.64684
562.63        33.51741
563.06        33.37723
563.50        33.48108
563.93        33.78533
564.37        33.99538
564.80        34.07515
565.24         34.2019
565.68        34.35699
566.11        34.44588
566.55        34.49308
566.98        34.51376
567.42         34.5664
567.85        34.73882
568.29        35.06314
568.72        35.39857
569.16        35.73815
569.60        36.19661
570.03        36.60323
570.47          36.576
570.90        36.28247
571.34        35.80808
571.77        36.34251
572.21        36.38236
572.64        36.30532
573.08        36.17009
573.51        34.93041
573.95         36.3986
574.38        38.49742
574.82        37.59713
