SpectraSmart Spectrum 2.9.0.0
--------- Device Information -----------
Spectrum Name :  反射率_0
Saving Time :  2024/04/26 00:53:28
Spectro-Module Model Name : SE2030-DUVN
Spectro-Module Serial Number : OS361AC55029948
Wavelength Start : 200
Wavelength End : 1025
Wavelength Unit : Wavelength(nm)
Spectrum Unit : Reflectance(%)
-----------Spectrum Setting ------------
Integration Time : 20ms
Average : 10
Boxcar : 0
Background removal :  enabled
linearity correction :  enabled
SC :  disabled
Intensity correction :  disabled
DWT denoise :  enabled
savitzky-golay :  disabled
FFT :  disabled
Running average :  disabled
Kalman :  disabled
High pass :  disabled
---------------BEGIN--------------------
Wavelength(nm)             Reflectance(%)
200.29               0
200.75        82.29623
201.21        75.92291
201.67        68.19466
202.13        63.09601
202.58        61.24065
203.04        61.75884
203.50        63.80506
203.96        65.93894
204.42        67.37256
204.88        68.35219
205.34        69.21312
205.80        70.48174
206.26        72.67078
206.72        76.81647
207.18        83.46218
207.64        85.40746
208.10        74.74397
208.55        62.39611
209.01        56.16506
209.47        55.24897
209.93        57.44264
210.39        62.27251
210.85        67.53143
211.31        68.21478
211.77        62.94448
212.23        53.57357
212.69        44.44302
213.14        42.37104
213.60        48.31991
214.06         60.2501
214.52        73.60672
214.98        81.35888
215.44        81.68135
215.90        76.92115
216.36        69.94933
216.81        64.71845
217.27        62.60464
217.73        62.29499
218.19        62.11179
218.65        59.80158
219.11         54.3757
219.57        45.24137
220.02        33.63308
220.48        27.07967
220.94         29.6621
221.40         39.5432
221.86        48.91014
222.32        49.69698
222.77        42.98205
223.23        33.20621
223.69        25.30477
224.15        24.34696
224.61        29.65893
225.06        38.62988
225.52        47.43806
225.98        51.16916
226.44        49.00017
226.90        43.10406
227.36        36.23655
227.81        32.11103
228.27        31.86173
228.73         34.0087
229.19        37.28178
229.65        39.82423
230.10        41.04526
230.56        41.60299
231.02        41.88132
231.48        42.23819
231.93        42.75401
232.39        43.25153
232.85        43.60989
233.31        43.75375
233.77        43.64935
234.22        43.31966
234.68        42.90387
235.14        42.58562
235.60        42.44077
236.05        42.46747
236.51        42.46367
236.97        42.05273
237.43        41.15385
237.88        39.84587
238.34        38.42324
238.80        37.90749
239.26        38.80793
239.71        40.93523
240.17        43.63439
240.63         46.0733
241.08        47.93089
241.54        49.36223
242.00        50.24448
242.46        50.41262
242.91        49.78895
243.37        47.04316
243.83        41.06569
244.28        42.11398
244.74        82.02375
245.20        108.6613
245.66        109.0117
246.11        106.8334
246.57        104.2759
247.03         96.7644
247.48        62.59712
247.94        31.84467
248.40         56.3676
248.85        69.32055
249.31        75.57521
249.77        78.88907
250.22        81.22423
250.68        83.86358
251.14         86.2651
251.59        84.79373
252.05        77.86974
252.51        68.23118
252.96        59.79159
253.42        55.70904
253.88         55.0713
254.33        56.65719
254.79        60.08399
255.25        64.07301
255.70        67.65197
256.16        70.93167
256.62        72.58078
257.07        71.28505
257.53        67.81228
257.99        62.63226
258.44        57.56027
258.90         55.4768
259.35        55.55136
259.81        56.66976
260.27        56.81064
260.72        54.03091
261.18        49.12183
261.63        43.06353
262.09         37.7261
262.55        34.68475
263.00        33.78426
263.46        34.18328
263.91        34.68049
264.37        34.20309
264.83        32.64292
265.28        30.36578
265.74        28.16098
266.19        26.99704
266.65        27.06376
267.11         27.7991
267.56        28.55128
268.02        28.56025
268.47        27.72027
268.93        26.32011
269.38        24.66764
269.84        23.49229
270.30        23.00934
270.75        23.02229
271.21        23.22856
271.66        23.19142
272.12        22.77637
272.57        22.13136
273.03        21.48851
273.48        21.10789
273.94        21.06528
274.39        21.23163
274.85        21.39658
275.31        21.26482
275.76        20.78184
276.22        20.07196
276.67        19.35302
277.13        19.01341
277.58        19.06092
278.04        19.36932
278.49        19.65048
278.95        19.54131
279.40         18.9773
279.86        18.15679
280.31        17.27614
280.77        16.72126
281.22        16.53771
281.68        16.60153
282.13        16.77881
282.59        16.90251
283.04        16.91644
283.50        16.90228
283.95        16.83013
284.41        16.65838
284.86        16.39419
285.32        16.04909
285.77        15.74226
286.22        15.71296
286.68        15.96471
287.13        16.40413
287.59        16.81864
288.04        16.88896
288.50        16.58205
288.95        16.00348
289.41        15.36355
289.86        14.88683
290.32        14.68185
290.77        14.65796
291.22        14.77839
291.68        14.95244
292.13        15.15091
292.59        15.40372
293.04        15.70634
293.50        16.04415
293.95        16.40113
294.40         16.7454
294.86        17.06587
295.31        17.36703
295.77        17.65304
296.22        17.92973
296.68        18.18669
297.13        18.37753
297.58        18.51869
298.04        18.64298
298.49        18.81577
298.95        19.16798
299.40        19.70802
299.85         20.3849
300.31        21.09713
300.76        21.69888
301.21          22.129
301.67        22.44528
302.12        22.65637
302.58        22.81881
303.03        22.94693
303.48        23.03833
303.94        23.16476
304.39        23.40881
304.84        23.78214
305.30        24.24838
305.75        24.69804
306.20        24.96589
306.66        25.03537
307.11        24.95134
307.57        24.81293
308.02        24.70591
308.47        24.68774
308.93        24.72792
309.38        24.82667
309.83        25.01142
310.29        25.25883
310.74        25.54949
311.19        25.81415
311.65        25.94483
312.10        25.91916
312.55        25.76925
313.00        25.53425
313.46        25.29299
313.91        25.07275
314.36        24.87202
314.82        24.72751
315.27        24.68143
315.72        24.74026
316.18        24.89348
316.63        25.08238
317.08        25.18479
317.53        25.16536
317.99        25.03976
318.44        24.88453
318.89        24.82812
319.35        24.89192
319.80        25.04429
320.25        25.17616
320.70        25.11001
321.16        24.81399
321.61        24.34995
322.06        23.86024
322.51        23.55898
322.97        23.48601
323.42        23.58719
323.87        23.73198
324.32        23.69931
324.78         23.4314
325.23        23.00534
325.68        22.53831
326.13         22.2216
326.59        22.10698
327.04        22.15059
327.49        22.27243
327.94        22.34379
328.39        22.32154
328.85        22.23484
329.30        22.15222
329.75        22.15514
330.20        22.26358
330.66        22.42385
331.11        22.59201
331.56         22.6608
332.01        22.59993
332.46         22.4304
332.92        22.20598
333.37        22.04538
333.82        21.98634
334.27        22.02116
334.72        22.08217
335.17         22.0511
335.63        21.90075
336.08        21.66622
336.53        21.46773
336.98        21.49933
337.43        21.79072
337.88        22.28044
338.34        22.76459
338.79        22.95707
339.24        22.76687
339.69        22.27643
340.14        21.71226
340.59         21.4705
341.05        21.64248
341.50        22.10365
341.95        22.62966
342.40        22.89193
342.85        22.81647
343.30        22.51958
343.75        22.12612
344.20        21.85221
344.66        21.76788
345.11          21.763
345.56         21.8079
346.01        21.85878
346.46        21.88576
346.91        21.93358
347.36        21.90543
347.81        21.63681
348.26         21.1354
348.72         20.4852
349.17        19.87988
349.62        19.72001
350.07        20.08102
350.52        20.82014
350.97        21.68249
351.42        22.27774
351.87        22.49232
352.32         22.4285
352.77        22.19216
353.22         21.9603
353.67        21.79866
354.13        21.66006
354.58         21.5134
355.03        21.35164
355.48        21.17492
355.93        21.01502
356.38        20.88522
356.83        20.78693
357.28        20.71624
357.73        20.66131
358.18        20.60815
358.63        20.53818
359.08        20.44649
359.53        20.34271
359.98        20.22226
360.43         20.0799
360.88        19.92022
361.33        19.74149
361.78        19.58056
362.23        19.49793
362.68        19.49572
363.13        19.54724
363.58        19.58577
364.03        19.50712
364.48        19.29115
364.93        18.97716
365.38        18.62053
365.83        18.30961
366.28        18.08008
366.73        17.91385
367.18        17.80776
367.63        17.75496
368.08        17.74147
368.53        17.76133
368.98         17.7958
369.43        17.81151
369.88        17.79836
370.33        17.76789
370.78        17.70171
371.23        17.57705
371.68        17.39924
372.13        17.17003
372.58        16.96971
373.03        16.93269
373.48        17.07743
373.93        17.35923
374.38        17.64576
374.83         17.7319
375.28        17.57571
375.72        17.22957
376.17          16.836
376.62        16.58775
377.07          16.542
377.52        16.63542
377.97        16.78858
378.42        16.87372
378.87        16.85091
379.32        16.76627
379.77        16.65305
380.22        16.55412
380.67        16.48162
381.11        16.41463
381.56        16.34177
382.01        16.25815
382.46        16.16227
382.91        16.06299
383.36        15.96178
383.81        15.85637
384.26        15.75065
384.71        15.64893
385.15        15.55198
385.60        15.46989
386.05        15.39559
386.50        15.31841
386.95        15.24316
387.40        15.17982
387.85        15.13296
388.29         15.1061
388.74        15.07497
389.19        14.98604
389.64        14.83622
390.09        14.63312
390.54        14.44974
390.98         14.4086
391.43        14.53506
391.88        14.77439
392.33        15.00979
392.78        15.06869
393.23        14.93209
393.67        14.66181
394.12        14.38459
394.57        14.22538
395.02        14.21383
395.47        14.30143
395.91        14.44769
396.36        14.55996
396.81        14.60358
397.26        14.59249
397.71        14.53622
398.15        14.43295
398.60         14.3153
399.05         14.1932
399.50        14.05789
399.95        13.85652
400.39        13.65202
400.84        13.40868
401.29        13.21222
401.74        13.18938
402.18        13.37068
402.63        13.69539
403.08        14.04427
403.53        14.22452
403.97        14.18897
404.42        13.99221
404.87        13.72526
405.32        13.55122
405.76        13.51924
406.21        13.57945
406.66        13.68095
407.11        13.75697
407.55        13.79042
408.00        13.80207
408.45        13.79531
408.90        13.76343
409.34         13.7105
409.79        13.63642
410.24        13.56675
410.68        13.53971
411.13        13.56605
411.58        13.64212
412.03        13.74104
412.47        13.81481
412.92        13.83714
413.37        13.81495
413.81        13.78435
414.26        13.81814
414.71        13.91797
415.15        14.06488
415.60        14.17765
416.05        14.14597
416.49        13.95255
416.94        13.65082
417.39        13.33061
417.83         13.1449
418.28        13.14245
418.73        13.26186
419.17        13.44906
419.62        13.61368
420.07        13.72493
420.51         13.8117
420.96        13.84364
421.41        13.76716
421.85        13.58586
422.30        13.33914
422.74        13.10467
423.19        13.02669
423.64        13.11424
424.08          13.335
424.53        13.60131
424.98         13.7774
425.42        13.82065
425.87        13.76266
426.31        13.64286
426.76        13.56816
427.21        13.54492
427.65        13.45087
428.10        13.35919
428.54        13.46978
428.99        13.78803
429.44        14.22829
429.88        14.61477
430.33         14.7151
430.77        14.49557
431.22        14.03567
431.66        13.53857
432.11        13.36692
432.56         13.5577
433.00        13.93165
433.45        14.31848
433.89        14.60227
434.34         14.6717
434.78        14.43365
435.23        14.09449
435.67        14.08714
436.12        14.36678
436.57        14.43915
437.01        14.26685
437.46        14.15065
437.90        14.12751
438.35         14.1131
438.79        14.09809
439.24        14.10775
439.68        14.14619
440.13         14.1476
440.57         14.1323
441.02        14.32303
441.46         14.6061
441.91        14.47063
442.35        14.01244
442.80        13.79626
443.24        13.80733
443.69        13.83643
444.13        13.82462
444.58        13.67971
445.02        13.45487
445.47        13.44812
445.91        13.61943
446.36        13.65724
446.80        13.54018
447.24        13.44992
447.69        13.40862
448.13        13.35919
448.58         13.3138
449.02        13.28747
449.47         13.2762
449.91         13.2714
450.36        13.27355
450.80        13.27732
451.25        13.29723
451.69        13.34459
452.13        13.42048
452.58        13.50826
453.02         13.5867
453.47        13.61916
453.91        13.60306
454.36        13.55463
454.80        13.48936
455.24        13.43382
455.69         13.4066
456.13         13.3928
456.58        13.41564
457.02        13.48798
457.46        13.61233
457.91        13.77564
458.35        13.93551
458.79        14.01684
459.24         14.0138
459.68        13.93432
460.13         13.8413
460.57        13.79624
461.01        13.83137
461.46         13.9221
461.90        14.03189
462.34        14.09179
462.79        14.08298
463.23        14.01844
463.68        13.95325
464.12        13.97931
464.56        14.11306
465.01        14.32711
465.45        14.51014
465.89        14.55183
466.34        14.44866
466.78        14.16518
467.22         13.8408
467.67        13.83785
468.11        14.12448
468.55        14.26787
468.99        14.22598
469.44        14.21818
469.88        14.28802
470.32        14.48378
470.77         14.7277
471.21        14.78526
471.65        14.63031
472.10        14.42697
472.54        14.25663
472.98        14.20605
473.42        14.30512
473.87        14.52792
474.31        14.79157
474.75         14.9591
475.20        15.00023
475.64        14.94804
476.08        14.86242
476.52         14.8356
476.97         14.8924
477.41        15.00529
477.85         15.1269
478.29        15.21292
478.74         15.2508
479.18          15.182
479.62        15.05447
480.06        15.19449
480.50        15.29913
480.95         15.4013
481.39        15.37108
481.83        15.32835
482.27        15.27446
482.72        15.08625
483.16        14.85401
483.60         14.9251
484.04        15.31765
484.48        15.56562
484.93        15.81578
485.37         16.2644
485.81          16.804
486.25        16.81787
486.69        21.98705
487.14        17.54055
487.58        11.62039
488.02        14.18136
488.46        16.19189
488.90        16.21748
489.34         16.1797
489.79        16.07055
490.23        16.98963
490.67        17.55168
491.11         17.4991
491.55        17.36928
491.99        17.14552
492.43        16.93363
492.88         16.8149
493.32        16.81682
493.76        16.83348
494.20        17.01257
494.64        17.30175
495.08        17.65649
495.52        18.02885
495.96        18.36887
496.41        18.60604
496.85        18.72837
497.29        18.75197
497.73        18.52382
498.17        18.27741
498.61        18.46118
499.05        19.07094
499.49        19.20531
499.93        19.32137
500.37        19.45142
500.82        19.54101
501.26        19.78296
501.70         20.0754
502.14        20.24907
502.58        20.27847
503.02        20.31939
503.46        20.37658
503.90        20.34785
504.34        20.25899
504.78        20.20193
505.22        20.19461
505.66        20.22412
506.10        20.27154
506.54        20.30146
506.98        20.30846
507.42        20.30615
507.86         20.3343
508.30        20.45249
508.74        20.66297
509.18        20.93483
509.62        21.20539
510.06        21.37362
510.50        21.41599
510.94        21.37136
511.38         21.2813
511.82        21.21311
512.26        21.19226
512.70        21.19314
513.14         21.2321
513.58        21.33495
514.02        21.48516
514.46         21.6704
514.90        21.82266
515.34        21.79691
515.78        21.54729
516.22         21.2744
516.66        21.07982
517.10        20.68141
517.54        20.11288
517.98        20.95884
518.42        20.83533
518.86        21.22319
519.30        21.38777
519.74        21.56489
520.18         21.7116
520.62        21.72975
521.06        21.63898
521.50        21.44491
521.93        21.21369
522.37        21.06726
522.81        21.03796
523.25        21.09734
523.69         21.2055
524.13        21.29628
524.57        21.34482
525.01        21.36573
525.45        21.36651
525.89        21.35873
526.32        21.34371
526.76        21.31611
527.20        21.26209
527.64        21.17233
528.08        21.05352
528.52        20.89339
528.96        20.72013
529.40        20.63235
529.83        20.65114
530.27        20.54012
530.71        20.65812
531.15        20.60353
531.59        20.48652
532.03        20.31737
532.46         20.1695
532.90        20.16334
533.34        20.30923
533.78        20.55898
534.22        20.81387
534.66        20.93009
535.09        20.87208
535.53        20.69528
535.97        20.46475
536.41        20.28865
536.85        20.20545
537.28         20.1882
537.72         20.2145
538.16        20.24894
538.60        20.27845
539.04        20.30073
539.47        20.32955
539.91        20.43357
540.35        20.59225
540.79        20.71029
541.22        20.77312
541.66        20.84336
542.10        20.91877
542.54        20.95097
542.97        20.97314
543.41        21.07335
543.85         21.2584
544.29        21.51368
544.72        21.76872
545.16        21.92164
545.60         21.9529
546.04        21.88951
546.47        21.83235
546.91        21.95142
547.35        22.26581
547.79        22.72304
548.22         23.1824
548.66        23.40454
549.10        23.35712
549.53         23.1533
549.97        22.93661
550.41        22.86795
550.84        23.00093
551.28         23.2972
551.72        23.68316
552.15        24.02441
552.59        24.26619
553.03        24.44129
553.46        24.56683
553.90        24.68802
554.34        24.82326
554.77        24.93063
555.21        24.99435
555.65          25.069
556.08        25.16947
556.52        24.98356
556.96        25.12964
557.39        25.18401
557.83        25.33286
558.27        25.53309
558.70        25.75446
559.14        25.93241
559.57         26.0383
560.01        26.10383
560.45        26.12387
560.88        26.09624
561.32        26.04922
561.75        25.95877
562.19        25.88896
562.63        25.91209
563.06        26.03244
563.50        26.23024
563.93        26.44643
564.37        26.60028
564.80        26.66241
565.24        26.66822
565.68        26.65034
566.11        26.66247
566.55        26.74019
566.98        26.85852
567.42        27.01867
567.85        27.21502
568.29        27.45605
568.72        27.66126
569.16         27.8547
569.60        28.18499
570.03        28.53094
570.47        28.54925
570.90        28.35888
571.34        28.09748
571.77        28.41529
572.21        28.51055
572.64        28.63451
573.08         28.1904
573.51        27.34575
573.95        28.59919
574.38        30.52688
574.82        29.81626
