SpectraSmart Spectrum 2.9.0.0
--------- Device Information -----------
Spectrum Name :  反射率_0
Saving Time :  2024/04/25 22:58:24
Spectro-Module Model Name : SE2030-DUVN
Spectro-Module Serial Number : OS361AC55029948
Wavelength Start : 200
Wavelength End : 1025
Wavelength Unit : Wavelength(nm)
Spectrum Unit : Reflectance(%)
-----------Spectrum Setting ------------
Integration Time : 20ms
Average : 10
Boxcar : 0
Background removal :  enabled
linearity correction :  enabled
SC :  disabled
Intensity correction :  disabled
DWT denoise :  enabled
savitzky-golay :  disabled
FFT :  disabled
Running average :  disabled
Kalman :  disabled
High pass :  disabled
---------------BEGIN--------------------
Wavelength(nm)             Reflectance(%)
200.29               0
200.75        78.56371
201.21        76.90157
201.67         74.3472
202.13        72.00916
202.58        70.12626
203.04        68.67976
203.50        67.91048
203.96        68.28886
204.42        69.64902
204.88        71.63957
205.34        73.63779
205.80        75.19559
206.26        76.55445
206.72        78.22727
207.18         80.9907
207.64        84.84089
208.10        85.81077
208.55        83.18857
209.01        80.57085
209.47        78.81305
209.93        77.31821
210.39        76.02221
210.85        73.72455
211.31         68.5717
211.77        60.98013
212.23        52.02396
212.69        44.82447
213.14        44.18115
213.60          50.513
214.06        62.60975
214.52        76.54591
214.98        86.10597
215.44        89.45224
215.90        88.16827
216.36        84.55307
216.81        81.87182
217.27        81.31443
217.73        81.81675
218.19        82.01306
218.65        80.04522
219.11        75.15181
219.57        66.83833
220.02        56.36057
220.48        50.72171
220.94        53.65696
221.40        63.21251
221.86        72.24874
222.32        73.45234
222.77        67.66752
223.23        59.14396
223.69          51.953
224.15        50.30743
224.61        53.75746
225.06        60.18646
225.52        66.76877
225.98        69.96723
226.44        69.15936
226.90         65.9618
227.36        62.18052
227.81        60.18859
228.27        60.82045
228.73        62.91056
229.19        65.74493
229.65        68.29739
230.10        70.03357
230.56        71.34838
231.02        72.10428
231.48        72.12342
231.93         71.4801
232.39        70.29918
232.85        68.94119
233.31        68.07624
233.77         67.8468
234.22        68.13944
234.68        68.55272
235.14        68.29028
235.60         67.1885
236.05        65.59254
236.51        64.02428
236.97        63.13343
237.43        63.06932
237.88        63.74659
238.34        64.88867
238.80        66.02853
239.26        66.75869
239.71        67.31803
240.17        67.37334
240.63        67.03125
241.08         66.5308
241.54        65.77935
242.00         65.2011
242.46        65.36971
242.91        66.83162
243.37        70.63053
243.83        82.54622
244.28        120.8172
244.74        162.6935
245.20        138.2941
245.66        116.1555
246.11        109.0821
246.57        109.8379
247.03        118.5477
247.48        145.0426
247.94        126.3914
248.40        96.41247
248.85        87.88426
249.31        85.90977
249.77        86.29224
250.22        88.10573
250.68        91.38071
251.14        95.71806
251.59        97.21582
252.05        92.98947
252.51        85.67889
252.96        78.36858
253.42        73.89205
253.88        71.75331
254.33        70.87305
254.79         72.2599
255.25        76.55444
255.70        82.48418
256.16        89.01242
256.62        93.49026
257.07        93.33498
257.53        89.60475
257.99        83.45465
258.44        77.18412
258.90        74.36893
259.35        74.10843
259.81        75.05602
260.27        75.13678
260.72        72.36665
261.18         67.5867
261.63        61.73938
262.09        56.49279
262.55        53.05054
263.00        51.33513
263.46        50.77281
263.91        50.50465
264.37        49.96756
264.83        48.94519
265.28        47.56559
265.74        46.18999
266.19        45.05363
266.65        44.37165
267.11        43.94883
267.56        43.54849
268.02        42.91085
268.47        41.94103
268.93        40.76947
269.38        39.54488
269.84        38.72065
270.30        38.39967
270.75        38.45168
271.21        38.64063
271.66        38.61644
272.12        38.26985
272.57        37.68921
273.03        37.03559
273.48        36.46109
273.94        36.05461
274.39        35.73414
274.85         35.4336
275.31        35.03415
275.76        34.50355
276.22        33.91579
276.67        33.35147
277.13        33.03015
277.58        32.91151
278.04        32.95708
278.49        32.94598
278.95         32.6538
279.40        32.01547
279.86        31.18234
280.31        30.29417
280.77        29.69142
281.22        29.38855
281.68        29.30862
282.13        29.29342
282.59         29.1689
283.04        28.87858
283.50        28.52855
283.95        28.14184
284.41        27.78247
284.86        27.46279
285.32        27.16365
285.77        26.92851
286.22        26.89655
286.68         27.0467
287.13        27.30621
287.59        27.50223
288.04        27.35642
288.50        26.86183
288.95        26.10162
289.41        25.28969
289.86        24.63549
290.32        24.25748
290.77        24.07176
291.22        24.05057
291.68        24.10941
292.13        24.21452
292.59        24.39001
293.04        24.63255
293.50        24.93806
293.95        25.28214
294.40        25.62611
294.86        25.93189
295.31        26.15789
295.77        26.30598
296.22        26.40128
296.68         26.4695
297.13         26.5236
297.58        26.59958
298.04        26.71634
298.49        26.92526
298.95        27.33809
299.40         27.9478
299.85        28.70613
300.31         29.4963
300.76        30.14495
301.21        30.58534
301.67        30.88379
302.12        31.05511
302.58        31.18604
303.03        31.28949
303.48        31.35667
303.94        31.46085
304.39        31.67882
304.84         32.0213
305.30        32.45628
305.75         32.8562
306.20        33.03361
306.66        32.97758
307.11        32.74257
307.57        32.46189
308.02        32.25699
308.47        32.19701
308.93        32.23917
309.38        32.36338
309.83        32.57031
310.29        32.82656
310.74        33.11494
311.19        33.36944
311.65        33.48576
312.10        33.44158
312.55        33.26855
313.00        33.00397
313.46        32.72738
313.91         32.4683
314.36        32.22633
314.82        32.04928
315.27        31.98965
315.72        32.05512
316.18        32.22766
316.63        32.43261
317.08        32.52015
317.53        32.44867
317.99        32.24418
318.44        31.99586
318.89        31.85318
319.35        31.84367
319.80        31.93246
320.25        32.01324
320.70        31.91284
321.16        31.60062
321.61        31.14114
322.06         30.6624
322.51        30.35596
322.97        30.25434
323.42        30.30598
323.87        30.40127
324.32        30.35749
324.78        30.12339
325.23         29.7686
325.68        29.37092
326.13         29.0596
326.59        28.87353
327.04         28.7922
327.49        28.78485
327.94        28.80736
328.39        28.83891
328.85        28.88111
329.30         28.9624
329.75        29.08084
330.20        29.23002
330.66         29.3817
331.11        29.51852
331.56        29.57355
332.01        29.53209
332.46        29.39561
332.92        29.21689
333.37        29.13283
333.82        29.16975
334.27        29.31673
334.72        29.46775
335.17        29.43847
335.63        29.18842
336.08        28.77691
336.53        28.37175
336.98        28.24673
337.43         28.4574
337.88        28.92689
338.34        29.42871
338.79        29.63942
339.24          29.455
339.69        28.97466
340.14        28.43428
340.59        28.24323
341.05        28.49367
341.50        29.04132
341.95        29.65653
342.40         30.0121
342.85        30.03149
343.30         29.8312
343.75        29.51456
344.20        29.26124
344.66          29.138
345.11        29.04717
345.56        28.99818
346.01        29.00655
346.46        29.05481
346.91        29.17123
347.36        29.22518
347.81         28.9973
348.26        28.48182
348.72        27.77937
349.17        27.11009
349.62        26.91643
350.07        27.28436
350.52        28.05477
350.97        28.95573
351.42        29.57081
351.87        29.78235
352.32        29.70901
352.77         29.4617
353.22        29.22473
353.67        29.06652
354.13        28.92858
354.58        28.79727
355.03        28.69682
355.48        28.62509
355.93        28.60457
356.38        28.58969
356.83        28.48949
357.28        28.28779
357.73        28.00408
358.18        27.71004
358.63        27.52187
359.08        27.46602
359.53        27.51463
359.98        27.58248
360.43        27.53675
360.88         27.3499
361.33        27.05571
361.78        26.75966
362.23        26.63326
362.68         26.7021
363.13        26.89852
363.58        27.08411
364.03        27.04535
364.48        26.74181
364.93        26.25741
365.38        25.71249
365.83        25.29843
366.28        25.07703
366.73         24.9878
367.18        24.99465
367.63        25.03681
368.08        25.07609
368.53        25.12971
368.98        25.15511
369.43        25.07993
369.88        24.89849
370.33        24.63111
370.78        24.33603
371.23        24.12121
371.68        24.02145
372.13        24.00697
372.58         24.0632
373.03        24.15705
373.48        24.26248
373.93        24.38548
374.38        24.48032
374.83        24.47712
375.28        24.36662
375.72        24.15356
376.17        23.92309
376.62        23.77856
377.07        23.74887
377.52        23.80309
377.97        23.88697
378.42        23.91125
378.87        23.84883
379.32        23.72656
379.77        23.57888
380.22        23.45176
380.67        23.35755
381.11         23.2876
381.56        23.20899
382.01        23.07838
382.46        22.89284
382.91        22.66937
383.36        22.46783
383.81         22.3804
384.26         22.4185
384.71        22.54598
385.15        22.67119
385.60        22.67776
386.05        22.53149
386.50        22.26509
386.95        21.95487
387.40        21.73789
387.85        21.66164
388.29        21.68349
388.74        21.74751
389.19        21.73955
389.64         21.6411
390.09        21.47534
390.54        21.32547
390.98        21.32539
391.43        21.50011
391.88        21.78411
392.33         22.0397
392.78        22.06903
393.23        21.85677
393.67        21.47754
394.12        21.10098
394.57        20.88908
395.02        20.87948
395.47        21.01254
395.91         21.2281
396.36        21.38693
396.81        21.44257
397.26        21.42032
397.71        21.34678
398.15        21.24073
398.60        21.14603
399.05        21.06007
399.50        20.96319
399.95        20.77083
400.39        20.57447
400.84        20.32317
401.29        20.11526
401.74        20.08354
402.18        20.26313
402.63        20.58612
403.08        20.94092
403.53        21.14589
403.97        21.15405
404.42        21.01588
404.87        20.80137
405.32        20.63633
405.76        20.56263
406.21         20.5482
406.66        20.57169
407.11        20.61149
407.55        20.66096
408.00        20.72453
408.45        20.78421
408.90        20.78858
409.34         20.7266
409.79        20.61561
410.24        20.49823
410.68        20.43531
411.13        20.44539
411.58        20.51241
412.03        20.61186
412.47         20.7029
412.92        20.75299
413.37        20.77273
413.81        20.77636
414.26        20.80555
414.71        20.85712
415.15        20.91982
415.60        20.94746
416.05        20.88668
416.49        20.73351
416.94        20.52557
417.39        20.31156
417.83        20.17173
418.28        20.13891
418.73        20.17767
419.17        20.27964
419.62        20.42875
420.07        20.60547
420.51        20.81034
420.96        20.97655
421.41        20.99064
421.85        20.83302
422.30        20.57111
422.74        20.29074
423.19        20.15899
423.64        20.19198
424.08        20.35587
424.53        20.57505
424.98         20.7507
425.42         20.8492
425.87        20.87994
426.31        20.86175
426.76        20.88462
427.21        20.93242
427.65        20.84117
428.10         20.6925
428.54        20.75544
428.99        21.04836
429.44         21.4551
429.88        21.79446
430.33        21.85361
430.77        21.59807
431.22        21.09962
431.66        20.56937
432.11        20.44166
432.56        20.75023
433.00        21.18388
433.45        21.54298
433.89        21.95992
434.34        22.23054
434.78        21.75965
435.23        20.94787
435.67        20.89583
436.12         21.5437
436.57        21.91844
437.01        21.88065
437.46         21.8599
437.90        21.88042
438.35          21.819
438.79        21.69891
439.24        21.61849
439.68        21.60799
440.13         21.5565
440.57        21.51086
441.02         21.8234
441.46        22.32024
441.91        22.25239
442.35        21.71858
442.80        21.44261
443.24        21.43777
443.69        21.56087
444.13         21.7105
444.58        21.55773
445.02        21.18193
445.47        21.15963
445.91        21.43069
446.36        21.46194
446.80        21.22903
447.24        21.03444
447.69        20.93887
448.13        20.89918
448.58        20.93444
449.02        21.04622
449.47        21.18669
449.91        21.27561
450.36        21.29462
450.80        21.25997
451.25        21.20929
451.69        21.19021
452.13        21.21971
452.58        21.26814
453.02        21.32606
453.47        21.38173
453.91        21.43149
454.36        21.49176
454.80        21.53654
455.24        21.51574
455.69        21.43683
456.13        21.30335
456.58        21.20666
457.02        21.25151
457.46        21.45769
457.91         21.7775
458.35        22.10065
458.79        22.25111
459.24        22.20417
459.68        22.00348
460.13          21.766
460.57        21.62377
461.01        21.63336
461.46        21.74608
461.90        21.90518
462.34        22.01952
462.79        22.05535
463.23        22.03608
463.68        22.00957
464.12        22.06022
464.56        22.20366
465.01        22.42533
465.45        22.60525
465.89        22.65523
466.34        22.57781
466.78        22.27849
467.22        21.93326
467.67        22.04786
468.11        22.55365
468.55        22.78845
468.99        22.68047
469.44        22.57748
469.88        22.56272
470.32        22.71115
470.77        22.96696
471.21        23.07062
471.65        22.99489
472.10         22.9523
472.54         22.9737
472.98        23.02473
473.42        23.11414
473.87        23.26145
474.31        23.41335
474.75         23.4845
475.20        23.46778
475.64        23.37818
476.08        23.28454
476.52        23.29122
476.97        23.42194
477.41         23.6486
477.85        23.89495
478.29        24.08182
478.74        24.18653
479.18        24.11345
479.62        23.93841
480.06        24.18478
480.50        24.37413
480.95        24.55854
481.39        24.53828
481.83        24.51662
482.27        24.49331
482.72        24.26039
483.16        23.94888
483.60        24.07278
484.04        24.63106
484.48        24.95686
484.93        25.33966
485.37        25.82683
485.81        26.23587
486.25        26.55775
486.69        35.18654
487.14        27.62677
487.58        18.06536
488.02        22.58455
488.46         25.5937
488.90         25.8282
489.34        25.87606
489.79        25.63627
490.23        26.94509
490.67        27.59437
491.11        27.32761
491.55        27.26807
491.99        27.32784
492.43        27.23992
492.88        27.07568
493.32        27.14716
493.76        27.27044
494.20        27.54435
494.64        27.88128
495.08        28.24741
495.52        28.63048
495.96        29.02968
496.41        29.35222
496.85        29.62596
497.29        29.80868
497.73         29.3752
498.17        28.75377
498.61        29.05035
499.05        30.23542
499.49        30.49354
499.93        30.52121
500.37        30.59566
500.82        30.65848
501.26         30.9451
501.70        31.30678
502.14        31.50744
502.58        31.49919
503.02         31.5055
503.46         31.5343
503.90        31.43075
504.34        31.26321
504.78        31.22063
505.22        31.33183
505.66        31.55183
506.10        31.80114
506.54        31.94292
506.98        31.94359
507.42        31.84834
507.86        31.75219
508.30        31.80103
508.74        32.02309
509.18        32.36396
509.62        32.73024
510.06        32.97124
510.50        33.04591
510.94        33.00686
511.38        32.91851
511.82        32.88062
512.26        32.92664
512.70        33.02304
513.14        33.15091
513.58        33.28166
514.02        33.39119
514.46        33.48368
514.90        33.55221
515.34        33.55183
515.78        33.45685
516.22        33.41307
516.66        33.43828
517.10         33.1836
517.54        32.65355
517.98        33.22249
518.42        32.95163
518.86        33.20552
519.30        33.38969
519.74        33.66548
520.18        33.94574
520.62         34.0668
521.06        34.02015
521.50        33.83799
521.93        33.59745
522.37        33.43322
522.81        33.38741
523.25        33.42419
523.69        33.51118
524.13        33.59705
524.57         33.6605
525.01        33.71604
525.45        33.76191
525.89        33.79256
526.32         33.8011
526.76        33.78111
527.20        33.72701
527.64        33.64611
528.08        33.55088
528.52        33.41726
528.96        33.24775
529.40        33.13626
529.83        33.11008
530.27        32.81337
530.71        32.89418
531.15        32.82692
531.59         32.8048
532.03        32.80334
532.46        32.85077
532.90        32.98398
533.34         33.1832
533.78        33.42317
534.22        33.62194
534.66        33.66362
535.09        33.52644
535.53        33.26655
535.97         32.9572
536.41        32.72472
536.85        32.61347
537.28        32.59549
537.72        32.64708
538.16         32.7287
538.60        32.82044
539.04        32.90762
539.47        32.98603
539.91         33.1342
540.35        33.31494
540.79        33.38638
541.22        33.36423
541.66        33.41262
542.10        33.53862
542.54        33.64564
542.97        33.74423
543.41        33.90542
543.85        34.12449
544.29        34.39785
544.72         34.6498
545.16        34.77613
545.60        34.75982
546.04        34.62764
546.47        34.51138
546.91        34.63283
547.35        35.01724
547.79        35.60448
548.22        36.20171
548.66          36.481
549.10        36.39848
549.53        36.11065
549.97        35.82011
550.41        35.75475
550.84        35.98552
551.28        36.45353
551.72         37.0312
552.15        37.48549
552.59        37.73773
553.03        37.85445
553.46        37.88992
553.90        37.96098
554.34        38.10255
554.77        38.23596
555.21        38.33028
555.65        38.45995
556.08        38.63789
556.52        38.38541
556.96        38.62694
557.39        38.66348
557.83        38.78114
558.27        38.95062
558.70        39.16636
559.14        39.36581
559.57        39.53861
560.01        39.77768
560.45        40.02382
560.88        40.14365
561.32        40.13363
561.75         39.9662
562.19        39.74985
562.63        39.65279
563.06        39.69974
563.50        39.81429
563.93        39.95771
564.37        40.13794
564.80        40.30863
565.24        40.43298
565.68        40.50453
566.11         40.5682
566.55        40.65518
566.98        40.71943
567.42        40.80102
567.85        40.97559
568.29        41.27236
568.72        41.54214
569.16        41.80983
569.60        42.22855
570.03        42.60156
570.47        42.53374
570.90        42.23608
571.34        41.54333
571.77         42.1005
572.21        42.20515
572.64        42.20638
573.08        41.69315
573.51        40.57206
573.95        42.24383
574.38        44.60765
574.82        43.65014
