SpectraSmart Spectrum 2.9.0.0
--------- Device Information -----------
Spectrum Name :  反射率_0
Saving Time :  2024/04/26 00:36:11
Spectro-Module Model Name : SE2030-DUVN
Spectro-Module Serial Number : OS361AC55029948
Wavelength Start : 200
Wavelength End : 1025
Wavelength Unit : Wavelength(nm)
Spectrum Unit : Reflectance(%)
-----------Spectrum Setting ------------
Integration Time : 20ms
Average : 10
Boxcar : 0
Background removal :  enabled
linearity correction :  enabled
SC :  disabled
Intensity correction :  disabled
DWT denoise :  enabled
savitzky-golay :  disabled
FFT :  disabled
Running average :  disabled
Kalman :  disabled
High pass :  disabled
---------------BEGIN--------------------
Wavelength(nm)             Reflectance(%)
200.29               0
200.75        85.46057
201.21        80.64008
201.67        75.24859
202.13        72.31659
202.58        72.19903
203.04        74.26377
203.50        77.05341
203.96         78.2001
204.42        77.25353
204.88        75.20299
205.34        73.43909
205.80        73.42815
206.26        75.85714
206.72        82.27899
207.18        95.35764
207.64        107.2575
208.10        100.4371
208.55        85.28403
209.01        75.82957
209.47        73.33548
209.93        75.06955
210.39        79.59068
210.85        84.74094
211.31        85.81818
211.77        81.33858
212.23        73.19079
212.69        64.88644
213.14        61.80551
213.60        64.76553
214.06        72.34956
214.52        81.31152
214.98        86.62279
215.44        86.95218
215.90        83.88546
216.36        79.70212
216.81        77.45524
217.27        78.04616
217.73        80.27299
218.19        82.31255
218.65        81.88005
219.11        78.17625
219.57        70.64333
220.02        60.73589
220.48         55.9053
220.94        59.86447
221.40        70.40976
221.86        79.51498
222.32        79.09349
222.77        70.56059
223.23        58.96506
223.69        49.52454
224.15        47.58039
224.61        52.47007
225.06         61.4669
225.52        70.74086
225.98        75.28572
226.44        74.23665
226.90        69.72858
227.36        64.49944
227.81        62.26503
228.27        64.06615
228.73        68.20217
229.19        73.11764
229.65        76.55663
230.10        77.87777
230.56        78.16874
231.02        77.91022
231.48        77.61482
231.93         77.4185
232.39        77.11242
232.85        76.89155
233.31        77.22352
233.77        78.12376
234.22        79.57288
234.68        80.88391
235.14        80.71855
235.60         78.8035
236.05        75.63512
236.51        72.25146
236.97        70.00721
237.43        69.19363
237.88        69.63813
238.34        70.78436
238.80        71.49458
239.26         71.0763
239.71        69.97456
240.17        68.37958
240.63        67.30056
241.08        67.17332
241.54        67.59892
242.00          68.294
242.46        68.82681
242.91         69.2461
243.37        69.57906
243.83        71.52141
244.28        85.93359
244.74        116.5297
245.20        116.6878
245.66         109.005
246.11        107.8574
246.57        112.5748
247.03        128.4562
247.48        172.7997
247.94         145.131
248.40        96.73101
248.85        82.26472
249.31        78.50709
249.77        79.23057
250.22        82.83481
250.68        89.65541
251.14        99.43166
251.59        105.4087
252.05        101.2044
252.51        90.22254
252.96        78.32241
253.42        70.94807
253.88        67.64847
254.33        66.53268
254.79        67.95763
255.25        71.75579
255.70        76.74051
256.16        82.42175
256.62        86.46029
257.07        86.53136
257.53        83.54478
257.99        78.34286
258.44        73.12662
258.90        71.32898
259.35        71.94543
259.81        73.62415
260.27        74.13145
260.72        71.34205
261.18        66.20391
261.63        59.79783
262.09        54.06563
262.55        50.53067
263.00        49.08022
263.46        48.96916
263.91        49.09212
264.37        48.61483
264.83        47.33851
265.28        45.50202
265.74        43.69147
266.19         42.4893
266.65        42.12335
267.11        42.23178
267.56        42.32853
268.02        41.87754
268.47        40.76799
268.93        39.21255
269.38        37.54677
269.84         36.5541
270.30        36.42501
270.75        36.93102
271.21        37.59608
271.66        37.70741
272.12        37.10347
272.57        36.01715
273.03         34.8665
273.48        34.19059
273.94        34.13484
274.39        34.44196
274.85        34.83119
275.31         34.8786
275.76        34.47063
276.22        33.79861
276.67        33.00207
277.13        32.38283
277.58        31.96086
278.04        31.68181
278.49        31.40949
278.95        31.03876
279.40        30.50802
279.86        29.92776
280.31        29.32977
280.77        28.87675
281.22        28.55124
281.68        28.33661
282.13        28.15121
282.59        27.93302
283.04        27.64801
283.50        27.34697
283.95        27.02952
284.41        26.72677
284.86        26.43285
285.32         26.1459
285.77        25.87645
286.22        25.70719
286.68        25.62468
287.13        25.58686
287.59        25.49863
288.04        25.20216
288.50         24.7078
288.95        24.05553
289.41        23.39117
289.86        22.82603
290.32        22.44566
290.77         22.1921
291.22        22.05581
291.68         21.9819
292.13        21.94857
292.59        21.96729
293.04         22.0332
293.50        22.14376
293.95        22.27983
294.40        22.41064
294.86        22.50799
295.31         22.5405
295.77         22.5097
296.22        22.43792
296.68        22.34027
297.13        22.21274
297.58        22.09131
298.04        22.00398
298.49        22.01208
298.95        22.23882
299.40        22.68024
299.85        23.27788
300.31        23.92113
300.76         24.4505
301.21        24.79701
301.67        25.02051
302.12        25.11144
302.58         25.1066
303.03        25.02307
303.48        24.87347
303.94        24.77071
304.39        24.85734
304.84        25.15848
305.30         25.6208
305.75        26.09927
306.20        26.37272
306.66        26.40886
307.11        26.26537
307.57         26.0632
308.02        25.91907
308.47        25.89597
308.93        25.94922
309.38        26.05648
309.83        26.21455
310.29        26.39432
310.74        26.58723
311.19        26.74846
311.65        26.80522
312.10        26.74288
312.55        26.58523
313.00        26.34954
313.46        26.07768
313.91        25.79255
314.36        25.51045
314.82        25.29408
315.27        25.22402
315.72        25.31254
316.18        25.52844
316.63         25.7984
317.08        25.97634
317.53        26.01454
317.99        25.93782
318.44        25.80407
318.89        25.71357
319.35        25.68819
319.80         25.7024
320.25        25.69947
320.70        25.59149
321.16        25.36637
321.61        25.06253
322.06        24.75165
322.51        24.53667
322.97        24.43103
323.42        24.40829
323.87        24.40343
324.32        24.31005
324.78        24.10059
325.23        23.81668
325.68        23.50472
326.13        23.24223
326.59        23.05298
327.04         22.9323
327.49        22.86764
327.94        22.84015
328.39        22.84133
328.85        22.86982
329.30        22.94548
329.75        23.06389
330.20        23.21543
330.66         23.3708
331.11        23.52114
331.56         23.6151
332.01        23.63769
332.46        23.58815
332.92        23.48779
333.37        23.40405
333.82        23.35421
334.27        23.34589
334.72        23.33834
335.17        23.25787
335.63        23.09527
336.08         22.8783
336.53        22.70849
336.98        22.75104
337.43        23.02684
337.88        23.47905
338.34         23.9304
338.79        24.13691
339.24        24.01537
339.69        23.64065
340.14        23.18342
340.59        22.94612
341.05        23.00521
341.50        23.26756
341.95         23.6025
342.40        23.81776
342.85        23.86299
343.30         23.8157
343.75        23.70333
344.20        23.57116
344.66        23.44446
345.11        23.26787
345.56        23.10925
346.01         23.0748
346.46        23.16583
346.91        23.36941
347.36        23.52018
347.81        23.34936
348.26        22.83667
348.72        22.10985
349.17        21.39127
349.62        21.12411
350.07         21.4079
350.52        22.08656
350.97        22.92501
351.42        23.56561
351.87        23.89163
352.32        23.99212
352.77        23.92865
353.22        23.80537
353.67        23.66772
354.13        23.48553
354.58        23.25685
355.03        23.02486
355.48        22.80899
355.93        22.63268
356.38        22.49782
356.83        22.38787
357.28        22.29425
357.73        22.20994
358.18        22.14205
358.63        22.10138
359.08        22.08354
359.53          22.087
359.98        22.06047
360.43        21.92788
360.88        21.68418
361.33         21.3512
361.78        21.02944
362.23        20.88318
362.68        20.93709
363.13        21.12968
363.58        21.33269
364.03        21.34538
364.48        21.12118
364.93        20.72851
365.38        20.26122
365.83        19.86946
366.28        19.60948
366.73        19.44546
367.18        19.35442
367.63        19.29848
368.08         19.2575
368.53        19.24193
368.98        19.25299
369.43        19.28418
369.88        19.32986
370.33        19.38793
370.78        19.42148
371.23        19.37943
371.68         19.2553
372.13         19.0558
372.58        18.86462
373.03        18.82404
373.48        18.95713
373.93        19.21784
374.38        19.47838
374.83        19.54007
375.28        19.36561
375.72        19.01241
376.17         18.6228
376.62        18.38728
377.07         18.3611
377.52        18.47609
377.97        18.65879
378.42        18.79113
378.87        18.82899
379.32         18.8124
379.77        18.74822
380.22        18.64167
380.67         18.5033
381.11        18.32745
381.56        18.14009
382.01        17.99881
382.46        17.91748
382.91        17.88423
383.36        17.87014
383.81        17.82238
384.26        17.72832
384.71        17.60857
385.15        17.47258
385.60        17.34459
386.05        17.22427
386.50        17.09694
386.95        16.97804
387.40        16.89794
387.85        16.86497
388.29        16.87512
388.74         16.8931
389.19        16.84503
389.64        16.72406
390.09        16.54161
390.54        16.37498
390.98        16.35367
391.43        16.50361
391.88         16.7655
392.33        17.01669
392.78        17.07739
393.23        16.92871
393.67        16.63546
394.12        16.33389
394.57        16.15585
395.02        16.13186
395.47        16.20951
395.91        16.34513
396.36         16.4388
396.81        16.45551
397.26        16.41359
397.71        16.32406
398.15        16.18447
398.60        16.03275
399.05        15.88212
399.50        15.72923
399.95        15.52328
400.39        15.33632
400.84        15.12612
401.29        14.97777
401.74        15.01177
402.18        15.25199
402.63        15.63045
403.08        16.02803
403.53        16.25525
403.97         16.2639
404.42         16.1075
404.87        15.85931
405.32        15.65465
405.76        15.54348
406.21        15.49215
406.66        15.48821
407.11        15.51799
407.55        15.57429
408.00        15.66451
408.45        15.75818
408.90        15.78102
409.34        15.71477
409.79        15.57943
410.24        15.43518
410.68        15.36998
411.13        15.40538
411.58        15.52011
412.03        15.66541
412.47        15.75633
412.92        15.75467
413.37        15.68434
413.81        15.59775
414.26        15.59139
414.71        15.67336
415.15         15.8144
415.60         15.9305
416.05        15.90815
416.49        15.72604
416.94        15.43901
417.39         15.1263
417.83        14.92159
418.28        14.87352
418.73        14.93085
419.17        15.05759
419.62        15.19154
420.07        15.30712
420.51        15.42249
420.96        15.50097
421.41        15.47703
421.85        15.34326
422.30        15.14056
422.74        14.93239
423.19        14.84705
423.64        14.89291
424.08        15.04336
424.53        15.22853
424.98        15.35162
425.42        15.38341
425.87        15.34303
426.31        15.25634
426.76        15.21001
427.21        15.20014
427.65        15.10274
428.10        14.99168
428.54        15.08015
428.99        15.37728
429.44        15.78728
429.88        16.14552
430.33        16.24506
430.77        16.05313
431.22        15.63761
431.66        15.17979
432.11         15.0378
432.56        15.24514
433.00         15.5606
433.45        15.82753
433.89        16.13499
434.34        16.32176
434.78        15.94151
435.23        15.29916
435.67        15.22019
436.12        15.66066
436.57        15.89818
437.01        15.82564
437.46        15.75195
437.90        15.69497
438.35        15.57117
438.79        15.41117
439.24        15.30683
439.68        15.28331
440.13         15.2531
440.57        15.23642
441.02        15.46831
441.46        15.82004
441.91        15.74155
442.35         15.3092
442.80        15.10199
443.24        15.10019
443.69        15.07781
444.13         14.9975
444.58        14.80648
445.02        14.57458
445.47        14.61436
445.91        14.85048
446.36        14.89008
446.80        14.70193
447.24        14.50306
447.69        14.36387
448.13        14.29678
448.58        14.32592
449.02         14.4387
449.47        14.57628
449.91        14.64131
450.36         14.6137
450.80        14.52138
451.25        14.41941
451.69        14.38225
452.13        14.43176
452.58        14.52881
453.02        14.64659
453.47        14.74224
453.91         14.8036
454.36        14.84977
454.80        14.86961
455.24        14.84219
455.69        14.77801
456.13        14.67507
456.58        14.59377
457.02        14.60241
457.46        14.71695
457.91        14.90938
458.35        15.11344
458.79        15.21581
459.24        15.20156
459.68          15.092
460.13        14.96667
460.57        14.90971
461.01        14.95842
461.46         15.0775
461.90        15.21849
462.34        15.29703
462.79        15.28943
463.23        15.21557
463.68         15.1356
464.12        15.15067
464.56        15.28206
465.01        15.50167
465.45        15.69658
465.89        15.75991
466.34         15.6866
466.78        15.42971
467.22        15.13105
467.67        15.17042
468.11        15.50989
468.55        15.68376
468.99        15.63948
469.44        15.61061
469.88        15.64882
470.32        15.80659
470.77        16.03136
471.21        16.12114
471.65        16.05099
472.10        15.97733
472.54        15.93419
472.98        15.92502
473.42         15.9652
473.87        16.06179
474.31        16.17268
474.75         16.2254
475.20        16.21116
475.64        16.14347
476.08        16.07467
476.52        16.08428
476.97        16.18831
477.41        16.36434
477.85        16.54828
478.29         16.6685
478.74        16.70672
479.18        16.60212
479.62        16.42405
480.06        16.55699
480.50        16.67825
480.95        16.81692
481.39        16.81813
481.83        16.79303
482.27        16.73421
482.72        16.50876
483.16         16.2294
483.60        16.27458
484.04        16.64826
484.48        16.92722
484.93        17.28018
485.37        17.61504
485.81        17.80722
486.25        18.10523
486.69        23.85213
487.14        18.71654
487.58        12.49116
488.02        15.32554
488.46        17.57882
488.90        17.59983
489.34         17.4026
489.79        17.20267
490.23        18.19104
490.67        18.79163
491.11        18.71599
491.55        18.53865
491.99        18.25239
492.43        18.02387
492.88        17.93983
493.32        17.98197
493.76        18.02901
494.20        18.24539
494.64        18.56865
495.08        18.96494
495.52         19.3715
495.96        19.67383
496.41        19.81946
496.85        19.90669
497.29        19.95301
497.73        19.70171
498.17        19.39962
498.61        19.58022
499.05        20.23378
499.49        20.36594
499.93        20.45696
500.37        20.55137
500.82        20.59908
501.26         20.8128
501.70        21.08965
502.14        21.25283
502.58        21.26968
503.02        21.29434
503.46        21.33126
503.90        21.27433
504.34        21.17001
504.78        21.14536
505.22         21.2202
505.66        21.36741
506.10        21.52855
506.54        21.60223
506.98        21.56742
507.42        21.45981
507.86        21.35894
508.30        21.38703
508.74        21.56486
509.18        21.84417
509.62        22.14565
510.06        22.33961
510.50        22.39154
510.94        22.35122
511.38        22.26148
511.82        22.18937
512.26        22.16221
512.70        22.15197
513.14        22.17973
513.58        22.28209
514.02        22.44462
514.46        22.65165
514.90        22.83137
515.34        22.83242
515.78        22.60676
516.22        22.35512
516.66        22.17581
517.10        21.78778
517.54        21.22533
517.98        22.05213
518.42        21.92521
518.86        22.31754
519.30         22.5066
519.74        22.72067
520.18        22.90841
520.62        22.95858
521.06        22.88568
521.50        22.69821
521.93        22.46595
522.37        22.31689
522.81        22.28609
523.25        22.34448
523.69        22.44997
524.13        22.53298
524.57        22.56946
525.01        22.57663
525.45        22.56897
525.89        22.56875
526.32        22.57777
526.76        22.58475
527.20        22.56665
527.64        22.50002
528.08        22.38841
528.52        22.22476
528.96        22.03923
529.40        21.93724
529.83          21.945
530.27        21.81223
530.71        21.93332
531.15         21.9027
531.59        21.83876
532.03        21.74393
532.46        21.67607
532.90        21.72779
533.34        21.90009
533.78         22.1521
534.22         22.3914
534.66        22.48553
535.09        22.40406
535.53         22.1995
535.97        21.94247
536.41        21.75071
536.85        21.66374
537.28        21.65354
537.72        21.68762
538.16        21.71293
538.60        21.71386
539.04        21.69435
539.47         21.6791
539.91        21.75676
540.35        21.90907
540.79        22.02901
541.22        22.09883
541.66        22.18154
542.10        22.27151
542.54        22.31791
542.97        22.34766
543.41        22.44268
543.85        22.60661
544.29        22.82236
544.72        23.02963
545.16        23.14371
545.60        23.15121
546.04        23.08108
546.47        23.01487
546.91        23.10047
547.35        23.35698
547.79        23.71294
548.22        24.07214
548.66        24.32956
549.10        24.42811
549.53        24.31163
549.97        24.10103
550.41        24.04492
550.84        24.18978
551.28         24.4321
551.72        24.72148
552.15         25.0022
552.59        25.23603
553.03        25.43497
553.46        25.59923
553.90         25.7512
554.34        25.90091
554.77        26.01035
555.21        26.07536
555.65        26.17029
556.08        26.31151
556.52        26.16501
556.96        26.35005
557.39        26.38145
557.83        26.45254
558.27        26.53709
558.70        26.64589
559.14        26.77975
559.57         26.9225
560.01        27.07965
560.45        27.21179
560.88        27.26454
561.32        27.24844
561.75        27.15284
562.19        27.04862
562.63         27.0207
563.06        27.08273
563.50        27.21047
563.93        27.36719
564.37        27.51151
564.80        27.61835
565.24        27.71069
565.68        27.78964
566.11        27.85899
566.55        27.94206
566.98        28.02595
567.42        28.13066
567.85        28.28218
568.29        28.49611
568.72        28.68232
569.16        28.87342
569.60        29.16796
570.03        29.42226
570.47        29.43619
570.90        29.36102
571.34         28.7557
571.77        29.17188
572.21        29.36173
572.64        29.30686
573.08        28.91587
573.51        28.18709
573.95        29.44552
574.38         31.2002
574.82        30.73074
