SpectraSmart Spectrum 2.9.0.0
--------- Device Information -----------
Spectrum Name :  反射率_0
Saving Time :  2024/04/26 00:37:00
Spectro-Module Model Name : SE2030-DUVN
Spectro-Module Serial Number : OS361AC55029948
Wavelength Start : 200
Wavelength End : 1025
Wavelength Unit : Wavelength(nm)
Spectrum Unit : Reflectance(%)
-----------Spectrum Setting ------------
Integration Time : 20ms
Average : 10
Boxcar : 0
Background removal :  enabled
linearity correction :  enabled
SC :  disabled
Intensity correction :  disabled
DWT denoise :  enabled
savitzky-golay :  disabled
FFT :  disabled
Running average :  disabled
Kalman :  disabled
High pass :  disabled
---------------BEGIN--------------------
Wavelength(nm)             Reflectance(%)
200.29               0
200.75        94.44117
201.21        86.63419
201.67        77.44343
202.13        72.26484
202.58        71.83938
203.04        75.04311
203.50        79.63237
203.96         81.7746
204.42        80.67165
204.88        77.85524
205.34        75.51686
205.80        76.07601
206.26        80.73186
206.72        92.13618
207.18        114.6083
207.64        133.6274
208.10        119.3969
208.55        91.96404
209.01        74.88123
209.47        69.12772
209.93          69.881
210.39        74.76239
210.85        80.90166
211.31        82.30473
211.77        77.16096
212.23        67.90977
212.69        59.05109
213.14        57.47008
213.60        64.20193
214.06         76.9743
214.52         91.2993
214.98        100.4208
215.44        102.3803
215.90        99.30032
216.36        93.71693
216.81        89.02528
217.27        86.71507
217.73        85.90313
218.19        85.16368
218.65          82.517
219.11        77.15491
219.57        68.46161
220.02        58.45737
220.48        55.75938
220.94        63.98457
221.40        79.55147
221.86        92.48691
222.32        93.31037
222.77        83.81357
223.23        70.08925
223.69        58.03469
224.15        53.59777
224.61        56.29342
225.06        63.25404
225.52        70.87666
225.98        74.56745
226.44        73.46156
226.90        69.49783
227.36        65.05258
227.81        63.27648
228.27        65.06538
228.73        68.90236
229.19          73.269
229.65        76.01031
230.10        76.62511
230.56         76.1993
231.02         75.4351
231.48        75.11459
231.93        75.32969
232.39        75.74825
232.85        76.27808
233.31        76.92927
233.77        77.61207
234.22        78.42649
234.68        78.92357
235.14        78.24986
235.60        76.32807
236.05        73.53645
236.51        70.70562
236.97        68.90527
237.43        68.35574
237.88         68.9503
238.34        70.31265
238.80        71.64574
239.26        72.37704
239.71        72.88915
240.17        72.86527
240.63        72.48164
241.08        72.02782
241.54        71.30951
242.00        70.92802
242.46        71.87651
242.91        75.19865
243.37        83.31028
243.83        106.6648
244.28        172.4428
244.74        227.4985
245.20        173.1297
245.66          134.09
246.11        121.5808
246.57        121.3814
247.03        133.2969
247.48         171.984
247.94         146.192
248.40        102.8038
248.85        90.42746
249.31        87.78037
249.77        89.26391
250.22        93.66734
250.68        101.3907
251.14        112.3152
251.59        119.5313
252.05        115.9543
252.51        105.0386
252.96        92.56705
253.42        84.00775
253.88        79.11694
254.33        76.20667
254.79        76.41155
255.25        80.57139
255.70        87.18005
256.16        94.90599
256.62        100.7323
257.07        101.7007
257.53        98.85663
257.99        93.44101
258.44        87.59486
258.90        84.80765
259.35        84.24403
259.81        84.74928
260.27        84.51397
260.72        81.81509
261.18        77.44712
261.63        72.11434
262.09        67.27525
262.55        63.81969
263.00        61.69074
263.46        60.54967
263.91         59.6708
264.37        58.68909
264.83        57.35957
265.28        55.72461
265.74        54.10424
266.19        52.65883
266.65         51.6422
267.11        50.91272
267.56         50.2281
268.02        49.32821
268.47        48.09013
268.93        46.62439
269.38        45.12666
269.84        44.15105
270.30        43.81758
270.75        43.96392
271.21        44.23106
271.66        44.07187
272.12        43.36259
272.57         42.2776
273.03        41.12858
273.48        40.28921
273.94        39.89203
274.39        39.74818
274.85        39.71157
275.31        39.54198
275.76        39.14882
276.22        38.64373
276.67         38.0492
277.13        37.51356
277.58        37.01155
278.04        36.55304
278.49        36.04436
278.95        35.45019
279.40         34.7306
279.86        33.98915
280.31        33.25584
280.77        32.70687
281.22         32.3204
281.68        32.07772
282.13        31.90284
282.59        31.74684
283.04        31.56393
283.50        31.40476
283.95        31.20917
284.41        30.92724
284.86        30.54369
285.32        30.08514
285.77        29.65202
286.22        29.47048
286.68        29.54525
287.13        29.77695
287.59        29.96724
288.04        29.79453
288.50        29.24609
288.95         28.4231
289.41         27.5588
289.86         26.8844
290.32        26.52002
290.77        26.35956
291.22         26.3654
291.68        26.43998
292.13        26.54379
292.59        26.71453
293.04        26.93228
293.50        27.16717
293.95        27.40169
294.40        27.61168
294.86        27.81922
295.31        28.07299
295.77        28.38867
296.22        28.76138
296.68        29.14245
297.13        29.42182
297.58        29.59834
298.04         29.7192
298.49        29.89128
298.95        30.31991
299.40        31.01996
299.85        31.91286
300.31        32.83508
300.76        33.53943
301.21        33.94751
301.67        34.16352
302.12        34.24796
302.58        34.35645
303.03        34.51297
303.48        34.68373
303.94        34.91623
304.39        35.24454
304.84        35.66885
305.30        36.17607
305.75        36.63554
306.20        36.85799
306.66        36.83569
307.11        36.61129
307.57        36.34862
308.02        36.21187
308.47        36.27262
308.93        36.47533
309.38        36.73939
309.83         36.9718
310.29        37.12822
310.74        37.22626
311.19        37.27718
311.65        37.29411
312.10        37.27965
312.55        37.22819
313.00        37.11945
313.46        36.93676
313.91        36.67931
314.36        36.37853
314.82        36.11124
315.27        35.96989
315.72        35.97836
316.18        36.10238
316.63        36.26732
317.08        36.32647
317.53        36.23645
317.99        36.02573
318.44        35.77375
318.89         35.6118
319.35        35.55989
319.80        35.58401
320.25        35.58395
320.70        35.40073
321.16        35.01004
321.61         34.4766
322.06        33.91768
322.51        33.50679
322.97        33.27253
323.42        33.16862
323.87        33.11061
324.32        32.95921
324.78        32.67362
325.23        32.31437
325.68         31.9192
326.13        31.55181
326.59        31.23484
327.04        30.96599
327.49        30.76043
327.94        30.65244
328.39        30.64176
328.85        30.70669
329.30        30.82966
329.75        30.92691
330.20        30.96911
330.66        30.95365
331.11        30.90613
331.56        30.82537
332.01        30.71474
332.46         30.5554
332.92        30.37003
333.37        30.24602
333.82        30.19341
334.27          30.221
334.72        30.24907
335.17        30.13515
335.63        29.85255
336.08        29.44564
336.53         29.0658
336.98        28.96281
337.43        29.18027
337.88        29.64403
338.34        30.12679
338.79        30.30477
339.24        30.07348
339.69        29.52998
340.14        28.90704
340.59        28.61422
341.05        28.74947
341.50        29.17422
341.95        29.67434
342.40        29.93892
342.85        29.89317
343.30        29.65276
343.75        29.30409
344.20        28.99775
344.66        28.79777
345.11        28.61706
345.56        28.49346
346.01        28.48563
346.46        28.57946
346.91        28.78234
347.36        28.93026
347.81        28.75332
348.26        28.23098
348.72         27.4783
349.17        26.72925
349.62        26.45188
350.07        26.74351
350.52        27.43723
350.97        28.26666
351.42        28.82308
351.87        28.98907
352.32        28.88669
352.77        28.61296
353.22        28.32656
353.67        28.09406
354.13        27.86605
354.58         27.6523
355.03        27.51495
355.48        27.45743
355.93        27.48511
356.38        27.52974
356.83        27.46461
357.28        27.26185
357.73        26.95227
358.18        26.60935
358.63        26.35402
359.08        26.21778
359.53         26.1687
359.98        26.14093
360.43        26.03215
360.88        25.81965
361.33        25.53434
361.78        25.24956
362.23        25.08164
362.68         25.0501
363.13        25.10839
363.58        25.16516
364.03        25.08146
364.48        24.82849
364.93        24.45797
365.38        24.04863
365.83         23.7243
366.28        23.52634
366.73        23.42107
367.18        23.37597
367.63        23.33828
368.08        23.28316
368.53        23.22161
368.98        23.15893
369.43        23.09779
369.88        23.03962
370.33        22.98613
370.78        22.91176
371.23        22.78162
371.68        22.59605
372.13        22.36196
372.58        22.15948
373.03        22.12123
373.48        22.26445
373.93        22.54152
374.38        22.82004
374.83        22.89646
375.28        22.72936
375.72        22.37201
376.17        21.96394
376.62        21.69448
377.07         21.6202
377.52         21.6767
377.97        21.79163
378.42        21.84955
378.87         21.8102
379.32        21.71459
379.77         21.5821
380.22        21.43267
380.67        21.27859
381.11        21.11485
381.56        20.94381
382.01         20.7842
382.46        20.64435
382.91         20.5216
383.36        20.43124
383.81        20.39147
384.26        20.39851
384.71        20.44545
385.15        20.47757
385.60        20.42952
386.05        20.28268
386.50        20.05008
386.95        19.79934
387.40        19.65332
387.85        19.64144
388.29        19.71709
388.74        19.80767
389.19        19.78335
389.64        19.62535
390.09        19.36703
390.54        19.09497
390.98        18.95403
391.43        18.98757
391.88        19.13834
392.33        19.30124
392.78        19.32258
393.23        19.18221
393.67        18.92926
394.12        18.68615
394.57        18.55814
395.02         18.5687
395.47        18.67493
395.91        18.82339
396.36        18.89486
396.81        18.85941
397.26        18.74335
397.71        18.59649
398.15         18.4736
398.60        18.41528
399.05        18.40286
399.50        18.39138
399.95        18.26651
400.39        18.09936
400.84        17.85894
401.29        17.63706
401.74        17.56312
402.18        17.67753
402.63        17.91479
403.08        18.19187
403.53        18.37168
403.97        18.41417
404.42         18.3596
404.87        18.24169
405.32        18.12308
405.76        18.02882
406.21        17.94326
406.66         17.8783
407.11        17.85859
407.55        17.88823
408.00        17.96256
408.45        18.04106
408.90        18.03326
409.34        17.92082
409.79        17.73723
410.24        17.55925
410.68         17.4944
411.13        17.56532
411.58        17.73826
412.03        17.94965
412.47         18.0889
412.92        18.10432
413.37        18.02853
413.81        17.91028
414.26        17.84256
414.71        17.83951
415.15        17.87647
415.60        17.89737
416.05        17.83274
416.49        17.67142
416.94        17.45769
417.39        17.24123
417.83         17.1024
418.28        17.07218
418.73        17.11047
419.17        17.20362
419.62          17.327
420.07        17.46194
420.51        17.61376
420.96        17.72377
421.41        17.69219
421.85        17.50663
422.30        17.22796
422.74        16.94291
423.19        16.81326
423.64        16.85115
424.08        17.01762
424.53        17.23031
424.98        17.37276
425.42        17.40857
425.87         17.3641
426.31        17.26061
426.76        17.18138
427.21        17.12131
427.65        16.94236
428.10        16.75214
428.54        16.83226
428.99        17.19819
429.44        17.72674
429.88        18.19624
430.33        18.31998
430.77        18.05372
431.22        17.49801
431.66        16.88498
432.11        16.65707
432.56        16.86074
433.00        17.19829
433.45         17.4952
433.89         17.8789
434.34        18.14746
434.78        17.73513
435.23        16.97708
435.67        16.84282
436.12        17.28289
436.57        17.45957
437.01        17.29003
437.46        17.19276
437.90        17.19893
438.35        17.19302
438.79        17.15976
439.24        17.12445
439.68        17.09786
440.13        17.00531
440.57         16.9083
441.02        17.13016
441.46        17.54419
441.91        17.51774
442.35        17.10345
442.80        16.90556
443.24        16.89628
443.69        16.83701
444.13        16.70185
444.58        16.45516
445.02        16.18381
445.47        16.22637
445.91         16.4922
446.36         16.5351
446.80        16.31759
447.24        16.08522
447.69        15.91981
448.13        15.84079
448.58        15.87572
449.02        16.00815
449.47        16.16754
449.91        16.23896
450.36        16.19712
450.80        16.07262
451.25        15.93158
451.69        15.86605
452.13         15.9003
452.58         15.9887
453.02        16.09027
453.47         16.1407
453.91        16.12588
454.36        16.07804
454.80        16.00226
455.24        15.90335
455.69        15.80355
456.13        15.69357
456.58         15.6339
457.02        15.69116
457.46        15.87387
457.91        16.14748
458.35         16.4267
458.79        16.57017
459.24        16.55559
459.68        16.41047
460.13        16.22473
460.57        16.09889
461.01         16.0793
461.46        16.13039
461.90        16.20888
462.34        16.23667
462.79        16.19236
463.23        16.09913
463.68        16.01511
464.12        16.03645
464.56        16.18003
465.01          16.414
465.45        16.62504
465.89        16.71121
466.34        16.66556
466.78        16.43198
467.22        16.13954
467.67        16.16056
468.11        16.44633
468.55        16.50917
468.99        16.33041
469.44        16.21119
469.88        16.21803
470.32        16.39393
470.77        16.65135
471.21        16.72344
471.65        16.57429
472.10        16.38798
472.54         16.2379
472.98        16.18749
473.42        16.26506
473.87        16.45348
474.31        16.67612
474.75        16.80939
475.20        16.82796
475.64        16.75793
476.08        16.66716
476.52        16.65928
476.97        16.75779
477.41        16.93284
477.85        17.11028
478.29        17.20493
478.74        17.19837
479.18        17.03732
479.62        16.80941
480.06        16.92874
480.50        17.06824
480.95        17.25153
481.39        17.30429
481.83        17.31129
482.27        17.26252
482.72        17.04097
483.16         16.7604
483.60        16.80786
484.04        17.21687
484.48        17.48012
484.93        17.74303
485.37        18.19375
485.81        18.91318
486.25         18.8068
486.69        25.65493
487.14         20.6178
487.58        13.25749
488.02        15.88252
488.46        17.87467
488.90        17.98103
489.34        18.16155
489.79        18.11007
490.23        19.01161
490.67        19.52353
491.11        19.42879
491.55        19.35852
491.99        19.27182
492.43        19.11635
492.88        18.96938
493.32        19.00769
493.76        19.09645
494.20        19.29287
494.64        19.53137
495.08        19.80214
495.52        20.09563
495.96        20.40364
496.41        20.65862
496.85        20.87177
497.29        21.01057
497.73        20.72309
498.17        20.30231
498.61        20.48842
499.05        21.26947
499.49        21.42454
499.93        21.45429
500.37        21.52713
500.82        21.59761
501.26        21.83907
501.70        22.14304
502.14         22.3371
502.58        22.38637
503.02        22.44958
503.46        22.52821
503.90        22.50787
504.34        22.42334
504.78        22.38951
505.22        22.42561
505.66        22.50889
506.10        22.60201
506.54        22.64014
506.98        22.61207
507.42        22.54368
507.86        22.49559
508.30        22.55864
508.74        22.74498
509.18        23.01623
509.62        23.30173
510.06        23.48658
510.50        23.54076
510.94        23.50607
511.38        23.42485
511.82        23.36467
512.26         23.3515
512.70        23.35989
513.14        23.40157
513.58        23.49668
514.02        23.62962
514.46        23.78989
514.90        23.92448
515.34        23.91258
515.78        23.71114
516.22        23.50747
516.66        23.37804
517.10        23.01291
517.54        22.43629
517.98        23.19882
518.42        23.00636
518.86        23.33094
519.30        23.46881
519.74         23.6417
520.18        23.79801
520.62        23.82564
521.06        23.73884
521.50        23.54871
521.93        23.32603
522.37        23.19892
522.81        23.19857
523.25        23.28924
523.69        23.42262
524.13         23.5216
524.57        23.55952
525.01         23.5569
525.45          23.524
525.89        23.47763
526.32        23.42254
526.76        23.35084
527.20        23.26015
527.64        23.15846
528.08        23.05446
528.52        22.93209
528.96        22.79379
529.40         22.7024
529.83        22.67541
530.27        22.46877
530.71        22.51693
531.15         22.4457
531.59        22.38624
532.03        22.32558
532.46        22.30107
532.90        22.37174
533.34        22.52876
533.78        22.74369
534.22        22.93585
534.66        22.98944
535.09        22.87963
535.53        22.65342
535.97        22.38043
536.41        22.17745
536.85         22.0839
537.28        22.07523
537.72        22.11613
538.16        22.14795
538.60        22.15347
539.04        22.13469
539.47        22.12389
539.91        22.22334
540.35        22.41525
540.79        22.58727
541.22        22.70449
541.66        22.80579
542.10        22.88214
542.54        22.89067
542.97        22.88458
543.41        22.98602
543.85        23.20847
544.29        23.52565
544.72        23.84753
545.16         24.0437
545.60        24.08628
546.04        24.01003
546.47         23.9307
546.91        24.04223
547.35        24.36861
547.79         24.8503
548.22        25.33092
548.66        25.54582
549.10        25.46114
549.53        25.20611
549.97        24.94167
550.41        24.85076
550.84        24.99236
551.28        25.31788
551.72        25.74858
552.15        26.13875
552.59        26.42705
553.03        26.65172
553.46        26.81197
553.90        26.93026
554.34        27.02365
554.77        27.05302
555.21        27.04645
555.65        27.11521
556.08        27.28201
556.52        27.22909
556.96        27.57618
557.39        27.57393
557.83        27.73983
558.27        27.79817
558.70        27.87996
559.14        28.01485
559.57        28.19505
560.01        28.40981
560.45        28.59776
560.88         28.6692
561.32        28.63265
561.75        28.51954
562.19        28.40462
562.63        28.33609
563.06        28.34494
563.50         28.4697
563.93        28.67513
564.37         28.8699
564.80        29.02415
565.24        29.19166
565.68        29.35364
566.11        29.46913
566.55        29.55883
566.98         29.6222
567.42        29.70195
567.85        29.87681
568.29        30.17875
568.72         30.4636
569.16        30.72208
569.60         31.2115
570.03        31.55407
570.47        31.56932
570.90        31.34216
571.34        31.06238
571.77        31.45896
572.21        31.62855
572.64        31.82425
573.08        31.39514
573.51        30.50354
573.95        31.81691
574.38        33.81447
574.82        33.09852
