SpectraSmart Spectrum 2.9.0.0
--------- Device Information -----------
Spectrum Name :  反射率_0
Saving Time :  2024/04/25 23:52:10
Spectro-Module Model Name : SE2030-DUVN
Spectro-Module Serial Number : OS361AC55029948
Wavelength Start : 200
Wavelength End : 1025
Wavelength Unit : Wavelength(nm)
Spectrum Unit : Reflectance(%)
-----------Spectrum Setting ------------
Integration Time : 20ms
Average : 10
Boxcar : 0
Background removal :  enabled
linearity correction :  enabled
SC :  disabled
Intensity correction :  disabled
DWT denoise :  enabled
savitzky-golay :  disabled
FFT :  disabled
Running average :  disabled
Kalman :  disabled
High pass :  disabled
---------------BEGIN--------------------
Wavelength(nm)             Reflectance(%)
200.29               0
200.75        93.81316
201.21        83.15926
201.67        71.39452
202.13        64.92181
202.58        64.41995
203.04        68.33946
203.50        74.31799
203.96        78.03477
204.42        78.25812
204.88        76.67816
205.34        74.83102
205.80        74.23644
206.26        75.43897
206.72        78.84827
207.18        85.83218
207.64         92.4771
208.10        89.10563
208.55        81.10194
209.01        75.84461
209.47        73.83292
209.93        73.68526
210.39        74.85054
210.85        76.08185
211.31        75.02289
211.77        71.24944
212.23        65.63074
212.69        60.91212
213.14        61.45773
213.60        67.50673
214.06        77.72723
214.52        88.26159
214.98        93.18736
215.44        91.37174
215.90        85.11773
216.36        77.44244
216.81         72.5799
217.27        71.74979
217.73        73.20873
218.19        75.43755
218.65        76.64586
219.11        76.21304
219.57         74.2827
220.02        70.89091
220.48        68.03867
220.94        66.74601
221.40        67.01059
221.86        66.93567
222.32        64.42895
222.77        59.90291
223.23        55.06483
223.69        51.81884
224.15         52.2592
224.61        55.87622
225.06        61.52809
225.52        66.96892
225.98        69.41583
226.44        68.42371
226.90        65.16501
227.36         61.3868
227.81        59.45971
228.27        60.15199
228.73        62.41667
229.19        65.21397
229.65        67.00732
230.10        67.41369
230.56        67.16382
231.02        66.70675
231.48        66.53461
231.93        66.69696
232.39        66.99747
232.85        67.32776
233.31        67.64603
233.77        67.88587
234.22        68.09376
234.68        68.10032
235.14        67.58105
235.60        66.52579
236.05        65.10674
236.51        63.62267
236.97        62.38707
237.43        61.45212
237.88        60.82126
238.34        60.40872
238.80        60.35249
239.26        60.68501
239.71         61.5258
240.17        62.53107
240.63        63.60377
241.08        64.74031
241.54        65.85025
242.00        66.89796
242.46        67.93882
242.91        69.41171
243.37        71.72182
243.83          79.075
244.28        110.3632
244.74        159.4761
245.20        149.0674
245.66         131.165
246.11         125.141
246.57         126.223
247.03         135.269
247.48        156.8148
247.94        119.2365
248.40        89.45844
248.85        83.07768
249.31        82.84621
249.77        85.27488
250.22        89.97243
250.68        98.11587
251.14        109.0755
251.59        114.1842
252.05        106.2518
252.51         90.0261
252.96        74.56323
253.42        67.80611
253.88        68.75404
254.33        74.24187
254.79        82.07346
255.25        88.52224
255.70        92.15189
256.16        94.41787
256.62        94.80306
257.07        92.62681
257.53        88.88526
257.99        83.76871
258.44        78.75453
258.90        76.57814
259.35        76.29812
259.81          76.976
260.27         76.8923
260.72        74.37257
261.18        70.17934
261.63        65.01497
262.09        60.29411
262.55         56.9268
263.00        54.88286
263.46        53.80619
263.91        53.03267
264.37         52.2081
264.83         51.1053
265.28        49.76057
265.74        48.44246
266.19        47.24528
266.65        46.38216
267.11        45.73449
267.56        45.11748
268.02        44.32566
268.47        43.25684
268.93        42.00192
269.38        40.70943
269.84        39.84017
270.30        39.49619
270.75        39.56369
271.21        39.74638
271.66        39.59701
272.12        39.00616
272.57        38.09351
273.03        37.15518
273.48        36.54843
273.94        36.37862
274.39        36.47535
274.85        36.59962
275.31        36.37601
275.76        35.72832
276.22        34.83236
276.67        33.89635
277.13        33.33076
277.58        33.14083
278.04        33.21479
278.49         33.2879
278.95        33.07793
279.40        32.49596
279.86        31.72215
280.31        30.86704
280.77        30.22319
281.22        29.80697
281.68        29.55417
282.13        29.37496
282.59         29.1971
283.04        28.97648
283.50        28.78973
283.95        28.57994
284.41        28.28781
284.86        27.90348
285.32        27.44844
285.77        27.05241
286.22        26.98383
286.68        27.24339
287.13        27.71125
287.59        28.12671
288.04        28.08182
288.50        27.54636
288.95        26.64886
289.41         25.6816
289.86        24.96847
290.32        24.64776
290.77        24.58949
291.22        24.70245
291.68        24.80785
292.13        24.85284
292.59        24.90338
293.04        24.99756
293.50         25.1936
293.95        25.49044
294.40        25.82894
294.86        26.16749
295.31        26.46086
295.77        26.69995
296.22        26.90637
296.68        27.08082
297.13        27.19401
297.58        27.26982
298.04        27.33545
298.49        27.45694
298.95          27.774
299.40        28.29075
299.85        28.95399
300.31        29.65459
300.76        30.22963
301.21        30.61646
301.67        30.88639
302.12        31.04198
302.58        31.14748
303.03        31.21352
303.48        31.23776
303.94        31.31311
304.39        31.54712
304.84         31.9535
305.30        32.48606
305.75        32.99046
306.20        33.23979
306.66        33.21073
307.11        32.96467
307.57        32.65519
308.02        32.43427
308.47        32.37887
308.93        32.44106
309.38        32.57774
309.83        32.75398
310.29        32.93435
310.74        33.11635
311.19         33.2747
311.65        33.36653
312.10        33.37684
312.55        33.31271
313.00        33.16396
313.46        32.93108
313.91        32.62595
314.36        32.28162
314.82        31.97875
315.27        31.81904
315.72        31.82949
316.18        31.97612
316.63        32.19813
317.08        32.36723
317.53        32.43707
317.99        32.42662
318.44        32.37522
318.89        32.35381
319.35        32.37037
319.80        32.40181
320.25        32.39243
320.70        32.26097
321.16        31.99991
321.61        31.64852
322.06        31.27637
322.51        30.98347
322.97         30.7853
323.42        30.66349
323.87        30.57306
324.32        30.43929
324.78        30.24166
325.23        30.01598
325.68        29.78054
326.13        29.56846
326.59        29.38767
327.04        29.24293
327.49        29.14029
327.94        29.09775
328.39        29.11483
328.85        29.17438
329.30        29.27722
329.75        29.37671
330.20        29.45657
330.66        29.50821
331.11        29.54935
331.56        29.56422
332.01        29.55074
332.46        29.49516
332.92        29.41602
333.37        29.38933
333.82        29.41891
334.27        29.50727
334.72        29.57892
335.17        29.50274
335.63        29.25736
336.08        28.89147
336.53        28.54565
336.98        28.45072
337.43        28.65274
337.88        29.08596
338.34        29.56199
338.79        29.81923
339.24        29.76244
339.69        29.46672
340.14        29.10455
340.59        28.97786
341.05        29.15398
341.50        29.52865
341.95        29.93853
342.40        30.15148
342.85        30.11659
343.30        29.92436
343.75        29.65558
344.20        29.44874
344.66        29.35443
345.11          29.291
345.56        29.26735
346.01        29.29678
346.46        29.36059
346.91        29.47702
347.36        29.52555
347.81        29.30666
348.26        28.81791
348.72        28.16078
349.17         27.5277
349.62        27.31496
350.07        27.60355
350.52        28.24788
350.97        29.03062
351.42        29.61921
351.87        29.90535
352.32        29.97635
352.77        29.87259
353.22         29.6658
353.67        29.40275
354.13        29.06903
354.58        28.71379
355.03        28.45954
355.48        28.33641
355.93        28.33821
356.38        28.39851
356.83        28.39287
357.28        28.28521
357.73        28.09949
358.18         27.8949
358.63        27.76671
359.08        27.73502
359.53        27.77267
359.98        27.79747
360.43        27.68635
360.88        27.42108
361.33        27.03997
361.78        26.66479
362.23        26.49167
362.68        26.55073
363.13         26.7655
363.58        26.98549
364.03        26.97572
364.48        26.68655
364.93        26.20775
365.38        25.65026
365.83        25.19125
366.28        24.89552
366.73        24.70895
367.18         24.6237
367.63        24.62724
368.08        24.68975
368.53        24.80977
368.98        24.91909
369.43        24.90309
369.88        24.74438
370.33        24.48075
370.78        24.16685
371.23        23.90661
371.68        23.73916
372.13        23.62732
372.58         23.5979
373.03        23.68993
373.48        23.88395
373.93        24.16266
374.38         24.3999
374.83        24.39926
375.28        24.13302
375.72         23.6536
376.17        23.13066
376.62        22.80809
377.07        22.75412
377.52        22.88887
377.97        23.11656
378.42        23.27696
378.87        23.31298
379.32        23.27898
379.77        23.18453
380.22        23.03893
380.67        22.85629
381.11        22.62579
381.56        22.38836
382.01        22.22852
382.46        22.16486
382.91        22.18104
383.36        22.22085
383.81         22.1855
384.26        22.05467
384.71        21.86352
385.15        21.65367
385.60        21.50297
386.05        21.41584
386.50        21.35464
386.95        21.30353
387.40        21.24056
387.85        21.16186
388.29        21.08649
388.74        21.00164
389.19        20.84247
389.64        20.60951
390.09        20.31069
390.54        20.04783
390.98         19.9937
391.43        20.18208
391.88        20.53896
392.33        20.90254
392.78        21.03428
393.23        20.90177
393.67        20.58233
394.12        20.24635
394.57        20.06322
395.02        20.07409
395.47         20.2188
395.91        20.43196
396.36         20.5688
396.81        20.58598
397.26        20.51494
397.71        20.40471
398.15        20.30585
398.60         20.2609
399.05        20.25162
399.50        20.22956
399.95        20.07203
400.39        19.86057
400.84        19.56043
401.29        19.28355
401.74        19.19144
402.18        19.33189
402.63        19.62836
403.08        19.97151
403.53        20.18228
403.97        20.21029
404.42        20.10775
404.87         19.9259
405.32        19.75802
405.76        19.64096
406.21        19.55216
406.66        19.49723
407.11        19.49258
407.55        19.53977
408.00        19.63642
408.45        19.74319
408.90        19.76845
409.34        19.68882
409.79        19.53182
410.24        19.36936
410.68        19.30411
411.13        19.36023
411.58        19.50919
412.03        19.68875
412.47        19.79211
412.92        19.77239
413.37        19.66345
413.81        19.53036
414.26        19.49014
414.71        19.55719
415.15        19.69822
415.60         19.8258
416.05        19.82013
416.49        19.65807
416.94        19.39557
417.39        19.11276
417.83        18.94321
418.28        18.93208
418.73        19.02247
419.17        19.17401
419.62        19.32412
420.07        19.44539
420.51        19.55829
420.96        19.62275
421.41          19.569
421.85        19.39314
422.30        19.14682
422.74        18.90356
423.19        18.81185
423.64        18.88139
424.08        19.08202
424.53        19.33513
424.98        19.53323
425.42        19.63813
425.87        19.65871
426.31        19.61847
426.76         19.6146
427.21        19.63979
427.65        19.54209
428.10        19.39846
428.54         19.4722
428.99        19.78487
429.44        20.18475
429.88        20.51194
430.33        20.67779
430.77        20.59057
431.22         20.0933
431.66        19.43607
432.11        19.25066
432.56        19.57415
433.00        20.05579
433.45        20.45959
433.89        20.70892
434.34        20.68285
434.78        20.23974
435.23        19.69333
435.67        19.67915
436.12        20.13107
436.57         20.3504
437.01        20.25914
437.46        20.23117
437.90        20.29871
438.35        20.35059
438.79         20.3574
439.24        20.33364
439.68        20.29413
440.13        20.15658
440.57        20.00758
441.02        20.25552
441.46        20.75873
441.91        20.75944
442.35         20.3199
442.80        20.15686
443.24        20.23692
443.69        20.27233
444.13        20.21087
444.58        19.96917
445.02        19.64387
445.47         19.6558
445.91        19.91884
446.36        19.93334
446.80        19.66733
447.24        19.40783
447.69        19.23587
448.13        19.14853
448.58        19.17173
449.02        19.29464
449.47         19.4505
449.91        19.52878
450.36        19.50459
450.80        19.40734
451.25        19.29247
451.69        19.23381
452.13        19.25672
452.58        19.32483
453.02        19.41681
453.47        19.50264
453.91        19.57148
454.36        19.63841
454.80        19.68979
455.24        19.69619
455.69        19.66535
456.13        19.59602
456.58        19.54404
457.02        19.56496
457.46        19.67706
457.91        19.85391
458.35        20.04403
458.79        20.16154
459.24        20.19572
459.68        20.15616
460.13        20.09926
460.57        20.06729
461.01        20.09188
461.46        20.15062
461.90         20.2205
462.34        20.26105
462.79        20.25687
463.23         20.2177
463.68        20.17846
464.12        20.20258
464.56        20.30186
465.01        20.46945
465.45        20.60886
465.89        20.65281
466.34        20.60341
466.78        20.36996
467.22        20.08822
467.67        20.18427
468.11         20.5863
468.55        20.69532
468.99        20.48913
469.44         20.3506
469.88        20.36628
470.32        20.58463
470.77        20.90558
471.21        21.00973
471.65        20.85704
472.10        20.67667
472.54        20.54691
472.98        20.51889
473.42        20.62103
473.87        20.83656
474.31        21.09315
474.75        21.27594
475.20        21.35889
475.64        21.36511
476.08        21.33682
476.52        21.33791
476.97         21.3891
477.41        21.47168
477.85        21.55671
478.29         21.6427
478.74        21.72648
479.18        21.70475
479.62        21.60739
480.06         21.8441
480.50        21.96963
480.95        22.05512
481.39        21.94821
481.83        21.87083
482.27           21.83
482.72        21.62274
483.16        21.36296
483.60        21.49309
484.04        21.99883
484.48        22.35144
484.93        22.76815
485.37        23.15662
485.81        23.38011
486.25        23.85426
486.69        31.20655
487.14        24.96689
487.58        16.17844
488.02         20.3049
488.46        22.57731
488.90        22.60598
489.34        22.89231
489.79        22.77649
490.23        23.93617
490.67        24.51873
491.11        24.29369
491.55        24.18707
491.99        24.13991
492.43        23.98573
492.88        23.80318
493.32        23.85042
493.76        23.95656
494.20        24.18804
494.64        24.46474
495.08        24.77106
495.52        25.09407
495.96        25.43863
496.41        25.72752
496.85        25.93983
497.29        26.05482
497.73         25.7453
498.17        25.33628
498.61        25.56028
499.05        26.41805
499.49        26.58941
499.93         26.7066
500.37          26.858
500.82        26.95917
501.26        27.23317
501.70        27.54065
502.14        27.67431
502.58        27.61301
503.02         27.5858
503.46         27.6096
503.90        27.53959
504.34        27.42968
504.78         27.4349
505.22        27.57183
505.66        27.80501
506.10        28.06554
506.54        28.18864
506.98        28.13451
507.42        28.03605
507.86         28.0016
508.30        27.77242
508.74         28.0605
509.18        28.27072
509.62        28.54345
510.06        28.76027
510.50        28.89263
510.94        28.97144
511.38          29.005
511.82        29.02345
512.26        29.03912
512.70        29.03346
513.14        29.03626
513.58        29.10208
514.02        29.22637
514.46        29.38879
514.90        29.52685
515.34        29.50673
515.78          29.285
516.22        29.04829
516.66        28.87939
517.10        28.50667
517.54        27.96037
517.98        28.67743
518.42        28.52778
518.86        28.87922
519.30        29.07477
519.74        29.31566
520.18        29.54507
520.62        29.64627
521.06        29.62476
521.50        29.48817
521.93        29.29952
522.37        29.17529
522.81        29.14746
523.25        29.18929
523.69        29.26033
524.13        29.29408
524.57        29.27267
525.01        29.21895
525.45        29.15773
525.89        29.12695
526.32        29.13124
526.76        29.15212
527.20        29.16363
527.64        29.13782
528.08        29.07313
528.52        28.95608
528.96        28.79402
529.40        28.67787
529.83        28.63443
530.27         28.3508
530.71        28.38677
531.15        28.28858
531.59        28.22535
532.03        28.18221
532.46        28.18617
532.90         28.2725
533.34        28.42727
533.78        28.62877
534.22        28.81179
534.66        28.88529
535.09        28.82603
535.53        28.67155
535.97        28.47057
536.41        28.31006
536.85        28.22171
537.28        28.19009
537.72        28.19353
538.16        28.19727
538.60        28.19244
539.04        28.17109
539.47        28.15884
539.91        28.26417
540.35        28.46054
540.79        28.61478
541.22        28.70279
541.66        28.80391
542.10        28.91028
542.54        28.95622
542.97        28.98286
543.41        29.10356
543.85        29.32731
544.29         29.6343
544.72        29.93582
545.16        30.10615
545.60        30.12103
546.04         30.0146
546.47        29.91614
546.91        30.04221
547.35        30.41683
547.79        30.97343
548.22        31.53011
548.66        31.77962
549.10        31.68096
549.53        31.38473
549.97        31.07223
550.41        30.94585
550.84        31.07498
551.28        31.40979
551.72        31.86629
552.15        32.28544
552.59        32.60258
553.03        32.85988
553.46         33.0582
553.90        33.23062
554.34        33.39442
554.77        33.49664
555.21        33.54925
555.65        33.68206
556.08        33.92074
556.52         33.8211
556.96        34.15544
557.39        34.25328
557.83        34.35418
558.27        34.43534
558.70        34.52917
559.14        34.66922
559.57         34.8428
560.01        35.05061
560.45         35.2293
560.88        35.28029
561.32        35.21755
561.75        35.05997
562.19        34.90305
562.63        34.84348
563.06        34.90077
563.50        35.05156
563.93        35.25015
564.37        35.44178
564.80        35.59283
565.24        35.73401
565.68        35.85755
566.11        35.95647
566.55        36.05868
566.98        36.14691
567.42        36.25934
567.85        36.46143
568.29        36.77801
568.72        37.06024
569.16        37.32087
569.60        37.74512
570.03        38.16321
570.47        38.11219
570.90        37.77726
571.34        37.39861
571.77        37.88138
572.21        38.05229
572.64        38.17083
573.08        37.72591
573.51        36.39718
573.95        37.86082
574.38        40.09594
574.82        39.44801
