SpectraSmart Spectrum 2.9.0.0
--------- Device Information -----------
Spectrum Name :  反射率_0
Saving Time :  2024/04/26 00:34:38
Spectro-Module Model Name : SE2030-DUVN
Spectro-Module Serial Number : OS361AC55029948
Wavelength Start : 200
Wavelength End : 1025
Wavelength Unit : Wavelength(nm)
Spectrum Unit : Reflectance(%)
-----------Spectrum Setting ------------
Integration Time : 20ms
Average : 10
Boxcar : 0
Background removal :  enabled
linearity correction :  enabled
SC :  disabled
Intensity correction :  disabled
DWT denoise :  enabled
savitzky-golay :  disabled
FFT :  disabled
Running average :  disabled
Kalman :  disabled
High pass :  disabled
---------------BEGIN--------------------
Wavelength(nm)             Reflectance(%)
200.29               0
200.75        83.90217
201.21        78.31013
201.67        71.16408
202.13         65.1705
202.58        60.83241
203.04        57.53902
203.50        56.00093
203.96        57.45362
204.42        61.23741
204.88        66.30464
205.34        70.72133
205.80        72.64793
206.26        71.76466
206.72        67.05112
207.18        55.46072
207.64        41.93849
208.10        42.82062
208.55        52.07245
209.01        59.26131
209.47        63.03941
209.93        64.93938
210.39        66.70998
210.85        67.42545
211.31        64.80632
211.77        58.89809
212.23        50.60797
212.69        43.53475
213.14        43.46531
213.60        50.97836
214.06         64.4412
214.52        79.33757
214.98        88.58197
215.44        90.24092
215.90        86.45423
216.36        79.90943
216.81        74.38998
217.27        71.40726
217.73        69.88657
218.19        68.40754
218.65        64.91975
219.11        58.40486
219.57        48.11372
220.02         35.2901
220.48        27.79127
220.94        29.93963
221.40        39.73896
221.86        49.08756
222.32        49.52896
222.77        42.12303
223.23        31.58213
223.69        22.68628
224.15        20.27036
224.61        23.78535
225.06        30.75131
225.52        37.85852
225.98        41.04259
226.44         39.5636
226.90        35.24481
227.36        30.23104
227.81        27.35094
228.27        27.54476
228.73        29.62269
229.19        32.60268
229.65        35.07612
230.10        36.53348
230.56        37.37243
231.02        37.93504
231.48         38.5573
231.93        39.29964
232.39        40.04123
232.85        40.52561
233.31        40.42923
233.77        39.69925
234.22         38.4104
234.68        37.00437
235.14         36.2681
235.60        36.44695
236.05        37.34507
236.51        38.36236
236.97        38.55545
237.43        37.69093
237.88          35.946
238.34        33.75582
238.80        32.56506
239.26        33.20264
239.71        35.42434
240.17        38.52427
240.63        41.50987
241.08        43.93005
241.54        45.89313
242.00        47.38528
242.46        48.53133
242.91        49.63155
243.37        50.60202
243.83        53.26099
244.28         68.7149
244.74        100.2967
245.20        101.2156
245.66        92.66958
246.11        88.51204
246.57        86.48315
247.03        83.54871
247.48        72.51791
247.94        62.57572
248.40        70.19469
248.85        74.45277
249.31        76.86929
249.77        78.56773
250.22        80.27401
250.68        82.41071
251.14        84.67882
251.59        84.50479
252.05        80.43822
252.51        74.44367
252.96        68.47328
253.42        64.27051
253.88        61.26876
254.33        58.83495
254.79         58.1774
255.25        60.30459
255.70        64.32924
256.16        69.17721
256.62        72.33004
257.07        71.31338
257.53        67.04553
257.99        60.72256
258.44        54.67463
258.90        52.30688
259.35        52.76429
259.81        54.49796
260.27        55.38706
260.72        53.44579
261.18        49.35711
261.63        44.08049
262.09        39.27809
262.55        36.25912
263.00        34.97031
263.46        34.79223
263.91        34.75937
264.37        34.04681
264.83        32.53291
265.28        30.45005
265.74        28.49979
266.19        27.51114
266.65        27.62604
267.11        28.35146
267.56        29.00743
268.02        28.78209
268.47        27.58655
268.93        25.72568
269.38         23.6332
269.84        22.28361
270.30        21.95078
270.75        22.35139
271.21        23.03013
271.66        23.31201
272.12        22.99753
272.57        22.30906
273.03        21.52564
273.48         20.9858
273.94        20.80154
274.39         20.8104
274.85        20.85026
275.31        20.70267
275.76        20.31493
276.22        19.79735
276.67        19.26708
277.13        18.95672
277.58        18.85869
278.04        18.90002
278.49        18.91528
278.95        18.71486
279.40        18.25225
279.86        17.65446
280.31        17.00277
280.77         16.5097
281.22        16.19611
281.68        16.01786
282.13        15.93165
282.59        15.89202
283.04        15.87454
283.50        15.91349
283.95        15.95522
284.41        15.92386
284.86         15.8023
285.32        15.60485
285.77         15.4244
286.22        15.45779
286.68        15.70403
287.13        16.08381
287.59        16.40808
288.04         16.3987
288.50        16.03795
288.95        15.42351
289.41        14.77414
289.86         14.3247
290.32        14.18047
290.77        14.25051
291.22        14.46959
291.68        14.70204
292.13        14.91091
292.59        15.13516
293.04          15.403
293.50        15.75533
293.95        16.18267
294.40        16.62771
294.86        17.04045
295.31        17.36655
295.77        17.59677
296.22        17.76044
296.68         17.8695
297.13        17.91359
297.58        17.92812
298.04        17.94005
298.49        18.02421
298.95        18.32352
299.40        18.84416
299.85        19.53074
300.31        20.26185
300.76        20.85804
301.21        21.24786
301.67         21.4945
302.12          21.615
302.58        21.68036
303.03        21.70803
303.48        21.68644
303.94           21.69
304.39        21.80603
304.84        22.05006
305.30        22.39693
305.75        22.72577
306.20        22.85031
306.66        22.75716
307.11         22.4992
307.57        22.21888
308.02        22.07006
308.47        22.10924
308.93         22.2757
309.38        22.49788
309.83        22.68927
310.29        22.80513
310.74        22.86885
311.19        22.87615
311.65        22.81933
312.10        22.70537
312.55        22.53563
313.00        22.32593
313.46        22.11441
313.91        21.91119
314.36        21.72987
314.82        21.59856
315.27        21.54671
315.72        21.57695
316.18        21.67227
316.63         21.7917
317.08        21.84882
317.53        21.81554
317.99        21.70169
318.44        21.55107
318.89        21.43753
319.35        21.37492
319.80        21.34867
320.25        21.30241
320.70        21.14626
321.16        20.87075
321.61        20.51254
322.06        20.15525
322.51         19.9214
322.97        19.82756
323.42        19.83992
323.87        19.87608
324.32        19.79897
324.78        19.57217
325.23        19.24229
325.68        18.87322
326.13         18.5701
326.59        18.36637
327.04        18.24953
327.49        18.19224
327.94        18.14973
328.39        18.10645
328.85        18.06823
329.30        18.07429
329.75        18.16079
330.20        18.32641
330.66        18.53127
331.11        18.72824
331.56        18.80678
332.01        18.73835
332.46        18.53902
332.92        18.27727
333.37        18.09525
333.82        18.04012
334.27        18.09682
334.72        18.18414
335.17        18.15735
335.63        17.98139
336.08        17.70127
336.53        17.43995
336.98        17.39317
337.43        17.59702
337.88        17.99184
338.34        18.39419
338.79        18.54815
339.24        18.37028
339.69        17.93496
340.14         17.4461
340.59        17.25812
341.05        17.44502
341.50        17.88973
341.95        18.38162
342.40         18.6139
342.85        18.51878
343.30         18.2084
343.75        17.79807
344.20         17.4883
344.66        17.35025
345.11        17.28561
345.56        17.28707
346.01        17.34319
346.46         17.4241
346.91        17.55429
347.36        17.61399
347.81        17.40273
348.26        16.91833
348.72        16.26282
349.17        15.62116
349.62        15.38382
350.07        15.63433
350.52         16.2311
350.97        16.97773
351.42        17.57158
351.87        17.90909
352.32        18.07014
352.77        18.06551
353.22        17.91954
353.67        17.66764
354.13        17.30483
354.58        16.91578
355.03        16.67696
355.48        16.62869
355.93        16.74764
356.38        16.92503
356.83        16.96947
357.28        16.83403
357.73        16.56908
358.18        16.28134
358.63        16.14051
359.08        16.18207
359.53        16.34898
359.98        16.52553
360.43         16.5361
360.88        16.34768
361.33        16.02208
361.78        15.68151
362.23        15.52196
362.68        15.58077
363.13        15.77515
363.58        15.99334
364.03        16.06452
364.48        15.94352
364.93        15.69934
365.38         15.3722
365.83        15.02301
366.28        14.69243
366.73        14.36426
367.18        14.10328
367.63        14.01769
368.08        14.11359
368.53        14.35328
368.98         14.6236
369.43        14.74122
369.88        14.66497
370.33        14.45071
370.78        14.16899
371.23        13.94722
371.68        13.83121
372.13        13.77456
372.58        13.78349
373.03        13.86668
373.48        14.00622
373.93        14.20514
374.38        14.37881
374.83        14.39178
375.28        14.22497
375.72        13.90269
376.17         13.5625
376.62        13.39233
377.07        13.43799
377.52        13.63768
377.97         13.8842
378.42         14.0023
378.87        13.94634
379.32        13.77975
379.77        13.56956
380.22        13.40934
380.67        13.32553
381.11        13.28478
381.56        13.26405
382.01        13.23807
382.46        13.19393
382.91        13.14202
383.36        13.08414
383.81          13.017
384.26        12.94385
384.71        12.87063
385.15        12.78687
385.60        12.68527
386.05        12.56256
386.50        12.41407
386.95        12.28256
387.40        12.24045
387.85        12.29546
388.29        12.42172
388.74        12.53578
389.19         12.5191
389.64        12.36116
390.09        12.09529
390.54        11.82396
390.98        11.72101
391.43        11.83095
391.88        12.08217
392.33        12.35256
392.78        12.46249
393.23         12.3827
393.67        12.17473
394.12        11.94771
394.57        11.80794
395.02        11.78238
395.47        11.82915
395.91        11.91386
396.36        11.96204
396.81        11.94987
397.26        11.89153
397.71        11.80751
398.15        11.71208
398.60        11.63222
399.05        11.56957
399.50        11.49688
399.95        11.34247
400.39        11.15307
400.84         10.9084
401.29        10.69764
401.74        10.66054
402.18        10.83362
402.63        11.15396
403.08        11.50373
403.53        11.69358
403.97        11.67466
404.42        11.49946
404.87        11.25445
405.32        11.09447
405.76        11.06535
406.21        11.11833
406.66        11.19889
407.11        11.23298
407.55        11.20431
408.00        11.13891
408.45         11.0554
408.90        10.97904
409.34        10.92401
409.79        10.87822
410.24        10.85264
410.68        10.86445
411.13        10.91582
411.58        11.00982
412.03        11.11042
412.47        11.15406
412.92        11.11742
413.37        11.01183
413.81        10.89957
414.26        10.89295
414.71        11.00026
415.15        11.18966
415.60        11.35507
416.05        11.34438
416.49        11.12817
416.94        10.77445
417.39        10.38468
417.83        10.13327
418.28        10.08018
418.73        10.15841
419.17        10.31909
419.62        10.47698
420.07        10.59964
420.51        10.71272
420.96        10.77392
421.41        10.70771
421.85        10.51213
422.30         10.2301
422.74        9.949059
423.19        9.819622
423.64        9.856409
424.08        10.02646
424.53        10.24441
424.98        10.37556
425.42        10.37777
425.87        10.28416
426.31        10.14288
426.76        10.06524
427.21         10.0593
427.65        10.02043
428.10        9.980654
428.54        10.05028
428.99        10.22834
429.44        10.47296
429.88          10.675
430.33        10.68891
430.77        10.50018
431.22        10.15377
431.66        9.805534
432.11        9.734422
432.56        9.965321
433.00        10.36646
433.45        10.76865
433.89        11.00481
434.34         10.9708
434.78        10.62784
435.23        10.19777
435.67        10.07395
436.12        10.23764
436.57        10.31642
437.01        10.25256
437.46        10.20535
437.90        10.18221
438.35        10.13865
438.79        10.08927
439.24        10.08543
439.68        10.13519
440.13        10.17592
440.57        10.19513
441.02        10.31304
441.46        10.43965
441.91        10.22767
442.35        9.785192
442.80        9.558838
443.24        9.539117
443.69         9.56772
444.13        9.576709
444.58        9.461769
445.02        9.250189
445.47        9.165429
445.91        9.194768
446.36        9.154186
446.80        9.038464
447.24        8.957326
447.69        8.923126
448.13        8.891673
448.58          8.8681
449.02        8.866073
449.47        8.869678
449.91        8.850354
450.36        8.807378
450.80        8.742689
451.25         8.69409
451.69        8.712573
452.13         8.80542
452.58        8.941501
453.02        9.077398
453.47        9.137683
453.91        9.110556
454.36        9.024048
454.80        8.904388
455.24        8.799722
455.69        8.735588
456.13        8.691316
456.58        8.688262
457.02        8.743302
457.46        8.855479
457.91        9.014301
458.35         9.17033
458.79        9.232046
459.24        9.191819
459.68        9.065337
460.13        8.928981
460.57        8.872752
461.01        8.929052
461.46        9.058929
461.90        9.211166
462.34        9.289339
462.79        9.270185
463.23        9.178931
463.68         9.07151
464.12        9.037101
464.56        9.103195
465.01        9.241096
465.45        9.378777
465.89        9.442167
466.34        9.424974
466.78        9.304236
467.22        9.160415
467.67        9.216997
468.11         9.44794
468.55        9.564919
468.99        9.543914
469.44         9.54244
469.88        9.595117
470.32        9.733695
470.77         9.90059
471.21        9.932995
471.65        9.811832
472.10        9.651631
472.54         9.51873
472.98        9.494989
473.42        9.601892
473.87        9.811782
474.31        10.04443
474.75        10.16556
475.20         10.1492
475.64        10.03342
476.08        9.888099
476.52        9.821291
476.97         9.86098
477.41        9.976498
477.85        10.11668
478.29        10.21907
478.74        10.26421
479.18        10.22034
479.62        10.13009
480.06        10.23011
480.50        10.31928
480.95         10.4109
481.39        10.40587
481.83         10.3699
482.27        10.30317
482.72        10.13357
483.16        9.934964
483.60        9.963009
484.04        10.23292
484.48        10.43437
484.93         10.6725
485.37        11.04269
485.81        11.41506
486.25         11.5911
486.69        15.06915
487.14        11.90841
487.58        7.995651
488.02        9.981052
488.46        11.19144
488.90        11.20835
489.34        11.21305
489.79        11.17834
490.23        11.85045
490.67         12.2469
491.11        12.19412
491.55        12.10485
491.99        11.96039
492.43        11.78937
492.88        11.65035
493.32        11.58033
493.76        11.53855
494.20        11.67258
494.64        11.95422
495.08        12.33367
495.52        12.73954
495.96        13.07899
496.41         13.2855
496.85        13.36711
497.29        13.35306
497.73        13.16637
498.17        12.98588
498.61        13.12096
499.05        13.56825
499.49        13.68683
499.93        13.79751
500.37        13.92153
500.82        14.01528
501.26         14.2108
501.70        14.43176
502.14        14.56014
502.58        14.56885
503.02        14.55727
503.46        14.53189
503.90        14.42671
504.34        14.29004
504.78        14.23296
505.22         14.2768
505.66        14.39956
506.10        14.55474
506.54        14.65844
506.98        14.68891
507.42        14.67163
507.86        14.65817
508.30        14.72992
508.74        14.89871
509.18        15.12666
509.62           15.36
510.06        15.51261
510.50        15.56303
510.94        15.55013
511.38        15.49782
511.82        15.44217
512.26        15.40314
512.70        15.36408
513.14        15.36202
513.58        15.45848
514.02        15.64327
514.46        15.88783
514.90        16.10537
515.34        16.12059
515.78         15.8755
516.22        15.59089
516.66        15.37174
517.10        14.90849
517.54        14.24098
517.98        15.07801
518.42        14.87492
518.86        15.24646
519.30        15.40938
519.74        15.61005
520.18        15.80033
520.62        15.86912
521.06        15.83129
521.50        15.69316
521.93        15.50586
522.37         15.3699
522.81        15.31378
523.25        15.31241
523.69        15.35365
524.13        15.41542
524.57        15.48155
525.01        15.55719
525.45        15.61582
525.89        15.61263
526.32        15.53851
526.76        15.40639
527.20        15.24684
527.64         15.1178
528.08        15.03875
528.52        14.98131
528.96        14.92932
529.40        14.89613
529.83        14.88419
530.27        14.74263
530.71        14.75877
531.15        14.68799
531.59        14.61984
532.03        14.54565
532.46        14.49679
532.90         14.5292
533.34         14.6386
533.78        14.80067
534.22        14.95675
534.66        15.02138
535.09        14.97331
535.53        14.84565
535.97        14.67795
536.41         14.5372
536.85        14.44963
537.28        14.40244
537.72        14.38817
538.16        14.39237
538.60         14.4099
539.04        14.43643
539.47        14.47891
539.91        14.58101
540.35        14.72597
540.79         14.8456
541.22        14.92858
541.66        15.01765
542.10        15.10978
542.54        15.16778
542.97        15.21267
543.41        15.30597
543.85        15.45275
544.29        15.64608
544.72        15.83671
545.16        15.95325
545.60        15.98366
546.04        15.94588
546.47        15.91911
546.91        16.03757
547.35        16.31293
547.79        16.70141
548.22        17.08543
548.66         17.2638
549.10        17.21072
549.53        17.01992
549.97        16.81289
550.41        16.72911
550.84        16.81568
551.28        17.04024
551.72        17.35083
552.15         17.6522
552.59        17.89807
553.03        18.10844
553.46        18.28019
553.90        18.42136
554.34        18.54267
554.77        18.61832
555.21        18.65016
555.65        18.70032
556.08        18.78682
556.52         18.6732
556.96        18.81475
557.39        18.88477
557.83        19.02034
558.27        19.19319
558.70        19.38621
559.14        19.55638
559.57        19.68107
560.01        19.77868
560.45        19.83731
560.88        19.83981
561.32        19.80839
561.75        19.73916
562.19         19.6782
562.63        19.66821
563.06        19.71604
563.50        19.81408
563.93         19.9377
564.37        20.05404
564.80        20.14574
565.24         20.2299
565.68         20.3036
566.11         20.3659
566.55        20.43517
566.98        20.49917
567.42        20.58524
567.85        20.74025
568.29        20.97326
568.72        21.18816
569.16        21.39359
569.60        21.68436
570.03        21.95801
570.47        22.00392
570.90        21.93616
571.34          21.626
571.77        22.01645
572.21        22.13785
572.64        22.31442
573.08        22.00662
573.51        21.33583
573.95        22.38043
574.38        24.05603
574.82        23.21672
