SpectraSmart Spectrum 2.9.0.0
--------- Device Information -----------
Spectrum Name :  反射率_0
Saving Time :  2024/04/26 00:32:45
Spectro-Module Model Name : SE2030-DUVN
Spectro-Module Serial Number : OS361AC55029948
Wavelength Start : 200
Wavelength End : 1025
Wavelength Unit : Wavelength(nm)
Spectrum Unit : Reflectance(%)
-----------Spectrum Setting ------------
Integration Time : 20ms
Average : 10
Boxcar : 0
Background removal :  enabled
linearity correction :  enabled
SC :  disabled
Intensity correction :  disabled
DWT denoise :  enabled
savitzky-golay :  disabled
FFT :  disabled
Running average :  disabled
Kalman :  disabled
High pass :  disabled
---------------BEGIN--------------------
Wavelength(nm)             Reflectance(%)
200.29               0
200.75        101.1582
201.21        96.50914
201.67        90.07083
202.13        86.23323
202.58        85.75169
203.04        87.61413
203.50        90.36191
203.96        91.67644
204.42        91.06537
204.88        89.58636
205.34        88.51011
205.80        89.22767
206.26        92.57998
206.72        100.4275
207.18        116.0135
207.64        130.6319
208.10        123.2313
208.55        105.1947
209.01        93.31521
209.47         88.7459
209.93        88.27929
210.39        90.37037
210.85        92.80061
211.31        91.29167
211.77        85.01814
212.23        75.89354
212.69        67.98375
213.14        67.52243
213.60        75.26657
214.06        89.21659
214.52        104.8662
214.98        115.2628
215.44        118.4999
215.90        116.8792
216.36        112.7537
216.81        109.3102
217.27        108.0587
217.73         107.887
218.19        108.2913
218.65         108.856
219.11        109.2891
219.57        109.4415
220.02        109.7237
220.48        111.3009
220.94        113.8387
221.40        117.0328
221.86        117.3204
222.32        111.4045
222.77        101.0306
223.23        89.66655
223.69         81.5446
224.15        81.22413
224.61        87.81758
225.06        98.88968
225.52        110.4288
225.98        116.8873
226.44        117.2523
226.90        113.5463
227.36        108.8954
227.81        107.7018
228.27        111.0103
228.73        116.7356
229.19        122.5119
229.65         124.951
230.10        123.5784
230.56        120.5776
231.02        117.2207
231.48        114.8741
231.93        113.7263
232.39        113.2477
232.85        113.5093
233.31         114.896
233.77        117.2841
234.22        120.7081
234.68        123.9967
235.14        124.9036
235.60        122.8641
236.05        118.5657
236.51        113.6175
236.97        110.2575
237.43        108.9654
237.88        109.3797
238.34        110.6717
238.80        111.3823
239.26        110.6158
239.71        109.2173
240.17        106.9722
240.63        104.3088
241.08          101.73
241.54        99.05697
242.00        97.05305
242.46        96.69642
242.91        98.97155
243.37         105.992
243.83        127.8036
244.28        191.6862
244.74        247.8218
245.20        195.9516
245.66         159.154
246.11        151.2175
246.57        160.7859
247.03        198.4926
247.48        312.7632
247.94        264.8842
248.40        145.3952
248.85        107.4688
249.31        95.77344
249.77        93.95994
250.22        97.50067
250.68        106.1192
251.14        119.8462
251.59        130.8745
252.05        130.3724
252.51        121.3459
252.96        110.5278
253.42        105.2922
253.88        105.4486
254.33        108.1701
254.79        112.8788
255.25        118.1364
255.70        122.6952
256.16        127.2074
256.62         130.212
257.07         130.112
257.53        127.9702
257.99        124.1182
258.44        119.9845
258.90        118.4999
259.35        118.4944
259.81        119.2651
260.27        119.0094
260.72        115.9925
261.18        111.2839
261.63        105.4639
262.09        100.1545
262.55        96.21642
263.00        93.53262
263.46        91.86759
263.91        90.45771
264.37        89.14668
264.83        87.57059
265.28        85.71624
265.74        83.72466
266.19         81.3926
266.65        79.15347
267.11        77.07153
267.56         75.1883
268.02        73.63441
268.47        72.21815
268.93        70.92921
269.38        69.77133
269.84        68.95561
270.30        68.50415
270.75        68.36652
271.21        68.29153
271.66        67.88127
272.12        67.07019
272.57        65.93726
273.03        64.80977
273.48        64.06883
273.94        63.82872
274.39        63.85809
274.85        63.92655
275.31        63.61907
275.76        62.82881
276.22        61.77851
276.67        60.57449
277.13        59.55004
277.58        58.70549
278.04        58.02783
278.49         57.3998
278.95        56.81945
279.40        56.18689
279.86        55.61333
280.31        54.99935
280.77        54.38126
281.22        53.69482
281.68        52.99716
282.13        52.30664
282.59        51.77097
283.04        51.35482
283.50        51.07528
283.95        50.76843
284.41         50.2634
284.86        49.50803
285.32        48.59343
285.77        47.69132
286.22        47.15522
286.68         47.0177
287.13        47.12106
287.59        47.20529
288.04        46.82416
288.50        45.96256
288.95        44.75698
289.41        43.51362
289.86        42.53691
290.32        41.97417
290.77        41.66327
291.22        41.54539
291.68        41.48968
292.13        41.42904
292.59         41.4189
293.04        41.40288
293.50        41.30507
293.95        41.10831
294.40        40.80979
294.86        40.50838
295.31        40.36308
295.77        40.41396
296.22        40.62612
296.68        40.88135
297.13        40.95246
297.58        40.81283
298.04        40.55507
298.49        40.34364
298.95        40.47736
299.40          40.988
299.85        41.75903
300.31        42.59488
300.76        43.19863
301.21        43.47458
301.67        43.55104
302.12        43.47445
302.58        43.39504
303.03        43.33273
303.48        43.25797
303.94        43.25362
304.39        43.40302
304.84        43.71693
305.30        44.16883
305.75        44.58205
306.20        44.70175
306.66        44.51176
307.11         44.0745
307.57        43.60328
308.02        43.32031
308.47         43.3138
308.93        43.50978
309.38        43.78865
309.83        44.00363
310.29        44.09772
310.74        44.10014
311.19        44.05877
311.65        44.04058
312.10        44.05484
312.55        44.07835
313.00        44.04266
313.46        43.85602
313.91        43.50302
314.36        43.04163
314.82        42.60802
315.27        42.37851
315.72        42.39725
316.18        42.60309
316.63        42.87343
317.08        42.98033
317.53        42.85998
317.99        42.57029
318.44        42.23177
318.89        42.03955
319.35        42.03078
319.80        42.15219
320.25        42.27764
320.70        42.20654
321.16        41.89604
321.61        41.41785
322.06        40.90034
322.51        40.53558
322.97        40.35637
323.42        40.31532
323.87         40.3075
324.32        40.16202
324.78        39.83344
325.23        39.39485
325.68         38.9262
326.13        38.56203
326.59        38.33379
327.04        38.21686
327.49        38.16579
327.94        38.11448
328.39        38.03765
328.85        37.94811
329.30        37.88014
329.75        37.82814
330.20         37.8015
330.66        37.78086
331.11        37.80136
331.56        37.87114
332.01         37.9881
332.46        38.13185
332.92        38.28069
333.37        38.45316
333.82        38.61736
334.27          38.781
334.72        38.87994
335.17         38.8139
335.63        38.57577
336.08        38.21038
336.53        37.86021
336.98         37.7654
337.43        37.97185
337.88        38.40927
338.34        38.89132
338.79        39.16188
339.24        39.12058
339.69        38.84715
340.14        38.47604
340.59        38.24778
341.05         38.2328
341.50        38.35463
341.95        38.53406
342.40        38.65873
342.85        38.69758
343.30        38.70536
343.75        38.68213
344.20        38.62432
344.66        38.53955
345.11        38.38414
345.56         38.2306
346.01        38.19132
346.46        38.27448
346.91        38.46683
347.36        38.60709
347.81        38.43592
348.26        37.93548
348.72        37.22634
349.17        36.54009
349.62        36.33041
350.07         36.6877
350.52        37.44308
350.97        38.33001
351.42        38.94213
351.87        39.16139
352.32        39.10733
352.77        38.86816
353.22        38.59172
353.67        38.34178
354.13        38.06895
354.58        37.79867
355.03         37.6208
355.48         37.5438
355.93        37.57053
356.38        37.60332
356.83        37.46624
357.28         37.1299
357.73        36.64909
358.18        36.14783
358.63          35.826
359.08        35.72789
359.53        35.78629
359.98        35.89255
360.43        35.87831
360.88        35.69675
361.33        35.39842
361.78        35.05361
362.23        34.77545
362.68        34.59674
363.13        34.47799
363.58        34.36929
364.03        34.19666
364.48        33.94374
364.93        33.64354
365.38        33.33669
365.83        33.08281
366.28        32.89688
366.73        32.75272
367.18        32.62873
367.63         32.4934
368.08         32.3347
368.53        32.16783
368.98        31.98629
369.43        31.77394
369.88        31.53639
370.33        31.28461
370.78        31.04923
371.23        30.88445
371.68        30.80297
372.13        30.78153
372.58        30.80744
373.03          30.856
373.48        30.90528
373.93         30.9568
374.38        30.96478
374.83        30.86117
375.28        30.64079
375.72        30.31387
376.17        29.97754
376.62        29.75453
377.07        29.67561
377.52        29.70013
377.97        29.76331
378.42        29.75615
378.87         29.6496
379.32        29.48768
379.77        29.29419
380.22        29.09969
380.67        28.91717
381.11        28.73134
381.56        28.56323
382.01        28.45924
382.46        28.42447
382.91        28.44914
383.36        28.47815
383.81        28.41988
384.26        28.25776
384.71         28.0214
385.15        27.76469
385.60         27.5901
386.05        27.50456
386.50        27.47322
386.95        27.45733
387.40        27.39289
387.85        27.27378
388.29        27.13048
388.74        27.00275
389.19        26.87691
389.64        26.75482
390.09        26.61679
390.54        26.51887
390.98        26.55475
391.43        26.73408
391.88        27.01081
392.33        27.24732
392.78        27.24133
393.23        26.98175
393.67        26.53893
394.12         26.1051
394.57        25.86161
395.02        25.84757
395.47        25.99642
395.91        26.23172
396.36        26.37767
396.81        26.38381
397.26        26.29092
397.71        26.14494
398.15        25.98921
398.60        25.87812
399.05        25.79512
399.50         25.7182
399.95        25.54694
400.39        25.39113
400.84        25.19122
401.29        25.02966
401.74        24.99958
402.18         25.1304
402.63        25.35839
403.08        25.62613
403.53        25.83742
403.97        25.95735
404.42        26.00817
404.87        25.98164
405.32        25.87005
405.76        25.68676
406.21        25.45387
406.66        25.23228
407.11        25.11632
407.55        25.12765
408.00        25.23511
408.45        25.38308
408.90        25.44649
409.34        25.38615
409.79        25.24646
410.24        25.09116
410.68        25.00761
411.13        25.02303
411.58        25.10637
412.03        25.22773
412.47         25.3421
412.92        25.41098
413.37         25.4515
413.81        25.47439
414.26        25.51697
414.71        25.57413
415.15        25.63104
415.60         25.6508
416.05        25.59657
416.49        25.46563
416.94        25.28975
417.39        25.09448
417.83        24.92055
418.28         24.7973
418.73        24.70925
419.17        24.68306
419.62         24.7555
420.07        24.91686
420.51        25.15111
420.96        25.37161
421.41         25.4317
421.85        25.29443
422.30        25.03673
422.74         24.7413
423.19        24.57971
423.64         24.5671
424.08        24.66854
424.53        24.81022
424.98        24.90914
425.42        24.94399
425.87        24.92391
426.31        24.87192
426.76        24.88907
427.21        24.95536
427.65        24.87758
428.10         24.7489
428.54        24.89703
428.99        25.33908
429.44        25.88601
429.88        26.31243
430.33        26.45346
430.77        26.21755
431.22        25.49156
431.66        24.60381
432.11        24.33837
432.56        24.74796
433.00        25.34682
433.45        25.86418
433.89        26.37139
434.34        26.58694
434.78        26.09998
435.23        24.97775
435.67         24.7985
436.12        25.48502
436.57        25.85198
437.01        25.77517
437.46        25.72997
437.90        25.74938
438.35        25.71046
438.79        25.61686
439.24        25.53279
439.68        25.48882
440.13        25.36835
440.57        25.25429
441.02        25.62152
441.46        26.27717
441.91        26.27182
442.35        25.69577
442.80        25.46504
443.24        25.54661
443.69        25.57775
444.13        25.49208
444.58        25.18075
445.02        24.76944
445.47        24.78697
445.91        25.14943
446.36        25.26375
446.80        25.08458
447.24        24.95507
447.69        24.92278
448.13        24.89778
448.58        24.89591
449.02        24.93358
449.47         24.9792
449.91        24.98155
450.36         24.9352
450.80        24.85025
451.25        24.77048
451.69        24.74843
452.13        24.79834
452.58        24.89021
453.02        24.99196
453.47        25.05919
453.91         25.0807
454.36        25.07935
454.80        25.05396
455.24        24.99668
455.69        24.92688
456.13        24.83479
456.58         24.7871
457.02        24.84663
457.46        25.02738
457.91        25.29505
458.35        25.56371
458.79        25.69777
459.24        25.67997
459.68        25.53587
460.13        25.35741
460.57        25.23423
461.01        25.21702
461.46        25.27508
461.90        25.36939
462.34        25.43961
462.79        25.45737
463.23        25.43046
463.68        25.40631
464.12        25.47274
464.56         25.6389
465.01        25.89678
465.45        26.08918
465.89         26.0855
466.34        25.89084
466.78        25.40886
467.22        24.87999
467.67        24.94019
468.11        25.52312
468.55        25.85726
468.99         25.8225
469.44        25.75051
469.88        25.71617
470.32        25.82546
470.77        26.02121
471.21        26.01968
471.65        25.80698
472.10        25.62353
472.54         25.5323
472.98        25.53994
473.42        25.66214
473.87        25.90472
474.31        26.17598
474.75        26.32973
475.20        26.34021
475.64        26.23458
476.08        26.09534
476.52        26.05012
476.97        26.13177
477.41         26.3044
477.85        26.49222
478.29        26.62417
478.74        26.68141
479.18        26.56078
479.62         26.3395
480.06        26.57856
480.50        26.74747
480.95        26.90633
481.39        26.84417
481.83        26.79429
482.27        26.75562
482.72        26.49616
483.16          26.143
483.60        26.23406
484.04        26.78309
484.48        27.03423
484.93        27.27428
485.37        27.77736
485.81        28.52787
486.25        28.49322
486.69        38.05606
487.14        30.49383
487.58        19.72298
488.02        24.03695
488.46        27.15854
488.90        27.12757
489.34        27.50101
489.79        27.29769
490.23         28.5752
490.67        29.24559
491.11        29.02563
491.55        28.94739
491.99        28.91565
492.43        28.73281
492.88        28.48705
493.32        28.49912
493.76        28.56798
494.20        28.77116
494.64        29.01488
495.08        29.28652
495.52        29.58433
495.96        29.90865
496.41        30.16712
496.85        30.40161
497.29        30.56363
497.73        30.07789
498.17        29.39752
498.61        29.71203
499.05        30.97717
499.49        31.27841
499.93        31.30049
500.37        31.29019
500.82        31.22451
501.26        31.45748
501.70        31.84996
502.14        32.09834
502.58        32.13643
503.02        32.18874
503.46        32.25315
503.90         32.1734
504.34        32.00877
504.78        31.93687
505.22        31.98646
505.66        32.11247
506.10        32.26295
506.54        32.34932
506.98        32.34938
507.42        32.29833
507.86        32.25171
508.30        32.29125
508.74        32.43156
509.18         32.6359
509.62        32.85574
510.06        33.01455
510.50        33.08981
510.94        33.11262
511.38        33.09887
511.82        33.07144
512.26        33.04645
512.70        33.01464
513.14        33.00704
513.58        33.07664
514.02        33.21917
514.46        33.41089
514.90        33.59575
515.34        33.65334
515.78        33.53901
516.22        33.42226
516.66        33.35729
517.10        33.05448
517.54         32.5337
517.98        33.14789
518.42        32.92986
518.86         33.2078
519.30        33.37646
519.74        33.61479
520.18        33.84382
520.62        33.90984
521.06        33.81322
521.50        33.58434
521.93        33.31367
522.37        33.15925
522.81        33.16311
523.25        33.27678
523.69        33.44717
524.13        33.59107
524.57        33.67648
525.01         33.7262
525.45        33.73793
525.89        33.70732
526.32        33.63538
526.76        33.52004
527.20        33.37808
527.64        33.25103
528.08        33.15825
528.52        33.06683
528.96        32.95911
529.40        32.89453
529.83        32.88821
530.27        32.59259
530.71        32.65825
531.15        32.57492
531.59         32.5393
532.03        32.52544
532.46         32.5565
532.90        32.66278
533.34        32.82664
533.78        33.02744
534.22        33.20112
534.66        33.25716
535.09        33.17426
535.53        32.99659
535.97        32.76986
536.41        32.57692
536.85        32.45221
537.28        32.38191
537.72        32.36237
538.16        32.38846
538.60        32.45126
539.04        32.52425
539.47        32.59966
539.91        32.74916
540.35        32.93153
540.79        33.01134
541.22        32.99178
541.66        33.01375
542.10        33.08382
542.54        33.11442
542.97         33.1409
543.41        33.27288
543.85        33.51352
544.29        33.84647
544.72         34.1736
545.16        34.35459
545.60        34.36157
546.04        34.23042
546.47        34.10249
546.91        34.21637
547.35         34.6002
547.79        35.18269
548.22        35.76701
548.66        36.02094
549.10        35.89913
549.53        35.56564
549.97        35.21941
550.41        35.06998
550.84        35.17275
551.28         35.5328
551.72        36.06775
552.15        36.42112
552.59        36.48391
553.03        37.09383
553.46        36.92155
553.90        37.10416
554.34        37.26936
554.77        37.38868
555.21        37.44849
555.65        37.57618
556.08        37.80659
556.52        37.63536
556.96        37.95141
557.39         38.0511
557.83        38.20438
558.27        38.37143
558.70        38.54632
559.14         38.7012
559.57        38.81182
560.01        38.90456
560.45        38.95853
560.88        38.94145
561.32        38.88406
561.75        38.77796
562.19         38.6936
562.63        38.68532
563.06        38.75875
563.50        38.90705
563.93        39.08323
564.37        39.23297
564.80        39.32592
565.24        39.39189
565.68        39.44406
566.11        39.50769
566.55        39.61823
566.98        39.75664
567.42        39.93054
567.85        40.14373
568.29        40.41637
568.72        40.63344
569.16        40.86622
569.60        41.29247
570.03        41.72256
570.47        41.80987
570.90        41.73448
571.34        40.97021
571.77        41.76638
572.21        41.79854
572.64        41.77861
573.08        41.37789
573.51         39.9115
573.95        41.66371
574.38        44.29741
574.82        43.35078
