SpectraSmart Spectrum 2.9.0.0
--------- Device Information -----------
Spectrum Name :  反射率_0
Saving Time :  2024/04/26 00:41:40
Spectro-Module Model Name : SE2030-DUVN
Spectro-Module Serial Number : OS361AC55029948
Wavelength Start : 200
Wavelength End : 1025
Wavelength Unit : Wavelength(nm)
Spectrum Unit : Reflectance(%)
-----------Spectrum Setting ------------
Integration Time : 20ms
Average : 10
Boxcar : 0
Background removal :  enabled
linearity correction :  enabled
SC :  disabled
Intensity correction :  disabled
DWT denoise :  enabled
savitzky-golay :  disabled
FFT :  disabled
Running average :  disabled
Kalman :  disabled
High pass :  disabled
---------------BEGIN--------------------
Wavelength(nm)             Reflectance(%)
200.29               0
200.75        104.4585
201.21        96.81559
201.67         86.6317
202.13        79.45063
202.58        76.21517
203.04        75.68066
203.50        76.65107
203.96        77.25798
204.42        76.94997
204.88        76.52159
205.34         76.4287
205.80        77.14867
206.26        79.14418
206.72        83.33302
207.18        91.42186
207.64        99.51187
208.10        96.54008
208.55        87.36987
209.01        80.99406
209.47         78.3478
209.93        77.73692
210.39         78.4501
210.85        78.88031
211.31        76.07433
211.77         69.7443
212.23        61.27228
212.69        54.01329
213.14        53.12934
213.60        59.16767
214.06        70.69392
214.52        83.75291
214.98        92.19736
215.44        94.29462
215.90        91.79456
216.36        87.19212
216.81        83.92739
217.27        83.28578
217.73        84.23657
218.19        85.16167
218.65        83.96503
219.11        79.86699
219.57        72.24699
220.02        62.98581
220.48        60.19212
220.94        67.29874
221.40        81.25333
221.86        92.36384
222.32        91.26439
222.77         80.0471
223.23        64.91784
223.69        52.28605
224.15         48.6667
224.61        53.29275
225.06        62.80484
225.52        72.84792
225.98        77.69831
226.44        76.28162
226.90        70.98898
227.36        64.67773
227.81        61.19477
228.27        61.68827
228.73        64.46786
229.19        68.12698
229.65        70.67492
230.10         71.5266
230.56        71.63116
231.02        71.40502
231.48        71.25755
231.93        71.27542
232.39        71.28144
232.85        71.30347
233.31        71.54491
233.77        71.99174
234.22        72.64344
234.68        73.19329
235.14        73.02852
235.60        72.03497
236.05        70.46278
236.51         68.7384
236.97        67.37571
237.43        66.46037
237.88        65.90225
238.34        65.53278
238.80         65.3479
239.26        65.31577
239.71        65.71923
240.17        66.08073
240.63        66.07883
241.08        65.75375
241.54        65.09451
242.00        64.60549
242.46        65.01497
242.91        67.05719
243.37        72.22485
243.83        87.67039
244.28        134.1983
244.74        179.5269
245.20        145.1902
245.66        118.3289
246.11        111.3685
246.57        115.7922
247.03         136.546
247.48         200.073
247.94        171.8847
248.40        104.7669
248.85        83.74989
249.31        77.63362
249.77        77.49548
250.22        80.93163
250.68        88.08575
251.14        98.74694
251.59        106.0137
252.05        102.9725
252.51        92.61298
252.96        81.38059
253.42        75.65032
253.88        74.90269
254.33        76.76337
254.79        80.16219
255.25        83.11891
255.70         84.8577
256.16        86.31017
256.62         86.8001
257.07        85.50871
257.53        83.08276
257.99        79.52386
258.44        75.93285
258.90        74.55326
259.35        74.47892
259.81        75.03043
260.27        74.63164
260.72        71.75513
261.18        67.20599
261.63        61.65449
262.09        56.65633
262.55        53.30786
263.00        51.52976
263.46        50.85798
263.91         50.4045
264.37        49.54456
264.83        48.08839
265.28        46.19122
265.74        44.37595
266.19        43.14402
266.65        42.70827
267.11        42.73645
267.56        42.78044
268.02        42.34415
268.47        41.31204
268.93        39.87909
269.38        38.31717
269.84        37.30404
270.30         37.0085
270.75         37.2354
271.21        37.60812
271.66        37.56328
272.12        36.96502
272.57        35.99984
273.03        34.98885
273.48        34.31932
273.94         34.1152
274.39        34.18875
274.85         34.3441
275.31         34.2784
275.76        33.90736
276.22        33.37011
276.67        32.77032
277.13        32.36242
277.58        32.13203
278.04        32.02029
278.49        31.87047
278.95        31.54984
279.40        30.99783
279.86        30.34501
280.31        29.62854
280.77        29.02376
281.22        28.53567
281.68        28.15812
282.13         27.8622
282.59        27.65665
283.04        27.50743
283.50        27.43457
283.95        27.36585
284.41        27.21968
284.86        26.96502
285.32        26.63616
285.77        26.29014
286.22        26.08504
286.68        26.02621
287.13        26.03918
287.59        26.01636
288.04        25.78321
288.50        25.33966
288.95        24.73513
289.41        24.09724
289.86        23.50397
290.32        23.04666
290.77        22.68718
291.22        22.45668
291.68        22.36129
292.13        22.39492
292.59        22.55214
293.04        22.80763
293.50        23.12377
293.95        23.46246
294.40        23.79449
294.86        24.08618
295.31        24.30028
295.77        24.43709
296.22        24.51622
296.68        24.54885
297.13        24.52902
297.58         24.4937
298.04         24.4723
298.49         24.5442
298.95        24.86061
299.40         25.4236
299.85        26.17285
300.31        26.96841
300.76        27.60066
301.21        27.99117
301.67        28.21388
302.12        28.30051
302.58        28.35645
303.03        28.40339
303.48        28.42974
303.94        28.49422
304.39        28.65436
304.84        28.92135
305.30        29.27254
305.75        29.61437
306.20          29.808
306.66        29.84339
307.11        29.75149
307.57        29.61775
308.02        29.49982
308.47        29.44983
308.93        29.44433
309.38        29.48931
309.83        29.62595
310.29        29.83589
310.74        30.09345
311.19        30.32656
311.65        30.42256
312.10        30.35652
312.55        30.16393
313.00         29.8882
313.46        29.61419
313.91        29.37255
314.36        29.16278
314.82        29.01615
315.27        28.96393
315.72        29.01018
316.18        29.14061
316.63        29.31128
317.08        29.42325
317.53        29.44315
317.99          29.382
318.44        29.27849
318.89        29.20272
319.35        29.16586
319.80        29.15227
320.25        29.11388
320.70        28.97758
321.16        28.73556
321.61        28.41897
322.06        28.09184
322.51         27.8466
322.97        27.69457
323.42        27.61825
323.87        27.55892
324.32        27.41973
324.78        27.17909
325.23        26.87803
325.68        26.56683
326.13        26.33069
326.59        26.18843
327.04        26.12705
327.49        26.11812
327.94        26.11866
328.39        26.11039
328.85        26.09637
329.30        26.09507
329.75        26.09852
330.20        26.10628
330.66        26.09649
331.11        26.09231
331.56        26.08735
332.01        26.07835
332.46        26.05922
332.92        26.02123
333.37         25.9783
333.82        25.92596
334.27        25.88064
334.72        25.82743
335.17        25.74204
335.63        25.62308
336.08         25.4751
336.53        25.36621
336.98        25.41117
337.43          25.623
337.88        25.97368
338.34        26.30469
338.79        26.40372
339.24          26.202
339.69        25.75774
340.14        25.27514
340.59        25.11117
341.05        25.33811
341.50        25.84178
341.95        26.39177
342.40        26.65015
342.85        26.54755
343.30        26.20372
343.75        25.76369
344.20        25.48129
344.66        25.43762
345.11        25.51032
345.56         25.6552
346.01        25.80612
346.46        25.92086
346.91        26.04339
347.36        26.07022
347.81        25.82784
348.26        25.32304
348.72        24.64344
349.17        23.98434
349.62         23.7512
350.07         24.0271
350.52        24.67301
350.97        25.45781
351.42        26.02211
351.87          26.259
352.32        26.26884
352.77        26.12199
353.22         25.9384
353.67        25.76985
354.13        25.57564
354.58        25.37623
355.03        25.24939
355.48        25.20637
355.93        25.25233
356.38        25.31198
356.83        25.24875
357.28        25.03609
357.73         24.7091
358.18        24.36799
358.63         24.1728
359.08        24.15792
359.53        24.27741
359.98        24.41805
360.43         24.4047
360.88        24.20033
361.33        23.85583
361.78        23.49561
362.23        23.32044
362.68        23.36796
363.13        23.56249
363.58         23.7632
364.03         23.7543
364.48         23.4888
364.93        23.04583
365.38        22.54031
365.83        22.15268
366.28         21.9427
366.73        21.85917
367.18         21.8523
367.63        21.84207
368.08        21.79349
368.53        21.72712
368.98        21.65576
369.43        21.59115
369.88        21.53793
370.33          21.495
370.78        21.42926
371.23        21.29549
371.68        21.09297
372.13        20.83204
372.58        20.61007
373.03        20.58701
373.48        20.78439
373.93        21.14521
374.38        21.51035
374.83        21.63639
375.28        21.47363
375.72         21.0859
376.17        20.63876
376.62        20.36448
377.07        20.32985
377.52        20.45723
377.97        20.64869
378.42        20.74707
378.87        20.70486
379.32        20.58147
379.77        20.41871
380.22        20.26949
380.67         20.1517
381.11        20.04265
381.56        19.93696
382.01        19.84068
382.46        19.75381
382.91        19.68141
383.36        19.61726
383.81        19.54554
384.26         19.4641
384.71        19.37906
385.15        19.28954
385.60        19.20766
386.05        19.12848
386.50        19.04478
386.95        18.96517
387.40        18.90734
387.85        18.87552
388.29         18.8605
388.74        18.85028
389.19        18.79684
389.64        18.69433
390.09        18.54931
390.54        18.40527
390.98        18.33404
391.43        18.36029
391.88        18.45534
392.33        18.55365
392.78        18.55819
393.23        18.45797
393.67        18.27576
394.12         18.1089
394.57        18.03315
395.02        18.06447
395.47        18.17306
395.91        18.30606
396.36        18.34524
396.81        18.26576
397.26        18.09326
397.71        17.89611
398.15        17.75763
398.60        17.71979
399.05        17.75575
399.50        17.79521
399.95        17.68849
400.39        17.49889
400.84        17.20841
401.29        16.93106
401.74        16.83884
402.18        16.98318
402.63        17.28199
403.08        17.62954
403.53        17.85483
403.97        17.90765
404.42        17.84063
404.87        17.69307
405.32         17.5369
405.76        17.40652
406.21         17.2862
406.66         17.1985
407.11        17.18393
407.55        17.24764
408.00        17.37991
408.45        17.53022
408.90        17.58507
409.34        17.51322
409.79        17.35179
410.24        17.17492
410.68        17.08828
411.13        17.11895
411.58        17.23594
412.03        17.39281
412.47           17.51
412.92        17.54583
413.37         17.5248
413.81        17.48079
414.26         17.4824
414.71        17.53414
415.15          17.614
415.60        17.66661
416.05        17.62504
416.49        17.47898
416.94        17.27125
417.39        17.04835
417.83        16.88755
418.28        16.82266
418.73        16.81838
419.17        16.87436
419.62        16.98335
420.07        17.12904
420.51        17.31129
420.96        17.45765
421.41        17.44431
421.85        17.25242
422.30        16.95081
422.74        16.63767
423.19        16.48924
423.64        16.52361
424.08         16.7011
424.53        16.93557
424.98        17.10345
425.42        17.16447
425.87        17.14186
426.31        17.06949
426.76        17.05141
427.21        17.08289
427.65        17.01875
428.10        16.92467
428.54        17.01546
428.99        17.30122
429.44        17.69071
429.88        18.01846
430.33        18.08101
430.77        17.84551
431.22        17.37681
431.66        16.87955
432.11        16.73705
432.56        16.97865
433.00        17.40146
433.45        17.80093
433.89        18.05165
434.34         18.0389
434.78        17.65091
435.23        17.17033
435.67        17.16374
436.12        17.57613
436.57        17.79214
437.01        17.72546
437.46         17.6769
437.90         17.6707
438.35        17.62027
438.79        17.52859
439.24        17.45074
439.68        17.40832
440.13        17.31936
440.57        17.23219
441.02        17.45565
441.46        17.85682
441.91        17.79738
442.35        17.35928
442.80         17.1929
443.24        17.27311
443.69        17.34488
444.13        17.34029
444.58        17.15157
445.02        16.85401
445.47         16.8229
445.91        17.00785
446.36        17.02044
446.80        16.83982
447.24        16.69355
447.69        16.62896
448.13        16.60733
448.58        16.64126
449.02        16.73429
449.47        16.83696
449.91        16.86725
450.36        16.81124
450.80        16.68877
451.25        16.55813
451.69        16.49938
452.13        16.53475
452.58        16.62752
453.02        16.73999
453.47         16.8115
453.91        16.82882
454.36        16.81878
454.80        16.78874
455.24        16.74836
455.69        16.71404
456.13        16.66816
456.58        16.65583
457.02        16.72095
457.46        16.87188
457.91        17.08764
458.35        17.29671
458.79        17.37946
459.24        17.32566
459.68         17.1602
460.13        16.98217
460.57         16.9038
461.01         16.9677
461.46        17.12867
461.90        17.32171
462.34        17.43774
462.79        17.44336
463.23        17.36499
463.68        17.26357
464.12        17.24589
464.56        17.33899
465.01        17.51855
465.45        17.67568
465.89        17.71582
466.34        17.63679
466.78        17.37823
467.22        17.08411
467.67        17.15828
468.11        17.54973
468.55         17.7344
468.99        17.66376
469.44        17.62079
469.88        17.66855
470.32        17.86346
470.77        18.13079
471.21        18.21621
471.65        18.09117
472.10        17.94282
472.54        17.84203
472.98        17.84122
473.42        17.96347
473.87        18.19603
474.31        18.45264
474.75         18.5938
475.20        18.59481
475.64        18.48962
476.08        18.35916
476.52        18.32662
476.97         18.4214
477.41        18.61068
477.85        18.82211
478.29        18.96513
478.74        19.01447
479.18        18.94541
479.62        18.75665
480.06        18.92868
480.50        19.06874
480.95        19.21482
481.39        19.19995
481.83        19.16851
482.27         19.1174
482.72        18.88921
483.16        18.59875
483.60        18.66899
484.04        19.12071
484.48        19.40344
484.93        19.68641
485.37        20.13145
485.81        20.66954
486.25         20.6103
486.69         27.3181
487.14        21.85175
487.58        14.25642
488.02        17.63859
488.46        19.95818
488.90        20.10885
489.34        20.14873
489.79        19.97259
490.23         20.9751
490.67        21.58409
491.11         21.5375
491.55        21.47692
491.99        21.35254
492.43         21.1945
492.88        21.07858
493.32        21.10535
493.76        21.13778
494.20         21.3247
494.64        21.60438
495.08        21.93666
495.52        22.28556
495.96        22.62441
496.41        22.87691
496.85        23.02032
497.29        23.06516
497.73        22.80364
498.17         22.5139
498.61        22.75208
499.05        23.50806
499.49        23.66273
499.93        23.77719
500.37        23.88933
500.82         23.9432
501.26        24.19046
501.70         24.5121
502.14        24.70399
502.58        24.72413
503.02        24.74204
503.46        24.76329
503.90        24.67176
504.34        24.52644
504.78        24.48238
505.22        24.56454
505.66        24.73538
506.10        24.93345
506.54        25.05132
506.98        25.06186
507.42        25.00288
507.86        24.93874
508.30        24.96824
508.74        25.11094
509.18        25.32535
509.62        25.56027
510.06        25.73367
510.50        25.82135
510.94        25.85836
511.38        25.85812
511.82        25.83958
512.26        25.81758
512.70        25.77966
513.14        25.76511
513.58        25.84125
514.02        26.00436
514.46        26.22748
514.90        26.43359
515.34        26.46614
515.78        26.27384
516.22        26.05254
516.66        25.89312
517.10        25.52241
517.54        24.97318
517.98        25.73612
518.42        25.58688
518.86        25.94118
519.30        26.11421
519.74          26.322
520.18        26.51157
520.62        26.56889
521.06        26.50612
521.50        26.33446
521.93        26.12316
522.37        25.99858
522.81        25.99324
523.25        26.07291
523.69        26.19509
524.13        26.29131
524.57        26.33648
525.01        26.34869
525.45        26.33306
525.89        26.29715
526.32        26.24351
526.76        26.16868
527.20        26.07263
527.64        25.96748
528.08        25.86491
528.52        25.74455
528.96        25.61156
529.40        25.54185
529.83        25.55238
530.27        25.36222
530.71         25.4544
531.15        25.39588
531.59        25.33293
532.03        25.25803
532.46        25.21096
532.90        25.25391
533.34        25.38242
533.78        25.56726
534.22        25.74244
534.66        25.81376
535.09        25.75663
535.53        25.61266
535.97        25.42215
536.41        25.25603
536.85         25.1446
537.28        25.07554
537.72          25.047
538.16        25.05644
538.60         25.0988
539.04        25.15542
539.47        25.22429
539.91        25.36467
540.35        25.54502
540.79        25.65818
541.22        25.69894
541.66        25.76502
542.10        25.85699
542.54        25.90487
542.97        25.94188
543.41        26.06486
543.85        26.27791
544.29        26.56781
544.72        26.84441
545.16        26.97665
545.60        26.94327
546.04        26.78235
546.47        26.63342
546.91        26.72835
547.35        27.09656
547.79        27.66694
548.22        28.25359
548.66        28.54344
549.10        28.48792
549.53        28.22883
549.97        27.94461
550.41        27.84052
550.84        27.98424
551.28        28.32482
551.72        28.76689
552.15        29.13733
552.59          29.373
553.03        29.52294
553.46        29.62041
553.90        29.73966
554.34        29.90337
554.77        30.05075
555.21        30.15603
555.65        30.27522
556.08        30.42056
556.52        30.21839
556.96        30.40176
557.39        30.43499
557.83        30.54539
558.27         30.6903
558.70        30.86907
559.14        31.06361
559.57        31.24739
560.01        31.43654
560.45        31.58578
560.88        31.62387
561.32        31.57107
561.75        31.43697
562.19        31.30783
562.63         31.2734
563.06        31.34997
563.50        31.51539
563.93        31.72491
564.37        31.92155
564.80         32.0716
565.24         32.2035
565.68        32.30809
566.11        32.37507
566.55        32.43137
566.98        32.46835
567.42        32.52862
567.85        32.67348
568.29        32.92954
568.72        33.18634
569.16        33.46458
569.60        33.84348
570.03        34.14282
570.47        34.15522
570.90        34.07633
571.34        33.35939
571.77        33.87421
572.21        34.24742
572.64        34.10257
573.08        33.77523
573.51        32.70017
573.95        34.06344
574.38        36.07238
574.82        35.25863
