SpectraSmart Spectrum 2.9.0.0
--------- Device Information -----------
Spectrum Name :  反射率_0
Saving Time :  2024/04/26 00:53:02
Spectro-Module Model Name : SE2030-DUVN
Spectro-Module Serial Number : OS361AC55029948
Wavelength Start : 200
Wavelength End : 1025
Wavelength Unit : Wavelength(nm)
Spectrum Unit : Reflectance(%)
-----------Spectrum Setting ------------
Integration Time : 20ms
Average : 10
Boxcar : 0
Background removal :  enabled
linearity correction :  enabled
SC :  disabled
Intensity correction :  disabled
DWT denoise :  enabled
savitzky-golay :  disabled
FFT :  disabled
Running average :  disabled
Kalman :  disabled
High pass :  disabled
---------------BEGIN--------------------
Wavelength(nm)             Reflectance(%)
200.29               0
200.75        67.95863
201.21        63.28255
201.67        57.76805
202.13        53.84589
202.58        51.81734
203.04        51.48736
203.50        52.20193
203.96        52.78463
204.42         52.8282
204.88        52.59239
205.34        52.43803
205.80        52.80468
206.26        53.96865
206.72        56.56163
207.18        60.94225
207.64        62.35444
208.10        55.34262
208.55        47.08861
209.01        42.73907
209.47        42.02374
209.93        43.43424
210.39        46.74307
210.85         50.0895
211.31         49.4561
211.77        43.95472
212.23        35.13273
212.69        27.11393
213.14        26.29782
213.60        33.60923
214.06        47.39305
214.52        62.74295
214.98         72.1066
215.44        73.50145
215.90        69.02013
216.36        62.52487
216.81        59.42794
217.27        60.87511
217.73        64.91629
218.19        68.13668
218.65        65.97817
219.11        56.86912
219.57        39.92944
220.02        17.64257
220.48        3.984454
220.94        7.428501
221.40        24.26891
221.86         41.7336
222.32        46.34127
222.77        39.16051
223.23        27.02033
223.69        16.43646
224.15        13.90458
224.61        18.86589
225.06         27.9782
225.52        37.20522
225.98        41.50759
226.44        39.93069
226.90        34.75796
227.36        28.51792
227.81        24.52806
228.27        23.90592
228.73        25.32254
229.19        27.82476
229.65         30.0625
230.10        31.50911
230.56        32.53505
231.02        33.36202
231.48        34.15784
231.93        34.97183
232.39         35.7158
232.85        36.20172
233.31        36.22144
233.77        35.74208
234.22        34.78119
234.68        33.74245
235.14        33.31661
235.60        33.69791
236.05        34.73314
236.51        35.81108
236.97        35.96613
237.43        34.99942
237.88        33.10442
238.34         30.8614
238.80        30.04041
239.26        31.55809
239.71        34.96478
240.17        39.34972
240.63        43.36761
241.08        46.37287
241.54        48.55688
242.00        49.67072
242.46        49.32896
242.91         47.1007
243.37        40.30404
243.83          22.561
244.28       -9.677861
244.74       0.8874785
245.20        54.26795
245.66        74.41664
246.11        78.34847
246.57        75.32724
247.03        61.35723
247.48        6.911663
247.94       -9.952235
248.40        37.43489
248.85        56.58807
249.31        64.87164
249.77        69.67105
250.22        73.82375
250.68        79.23455
251.14        85.40147
251.59        86.39838
252.05        78.40022
252.51        65.13074
252.96        53.25707
253.42         48.3668
253.88        49.38429
254.33        54.00919
254.79        60.55853
255.25        65.97972
255.70        69.18221
256.16        71.36697
256.62        71.81841
257.07        69.71957
257.53        65.96267
257.99          60.819
258.44         56.1944
258.90        55.07549
259.35        56.39274
259.81        58.75383
260.27        59.90368
260.72        57.69955
261.18        52.98951
261.63        46.87954
262.09        41.28962
262.55        37.81832
263.00        36.40106
263.46        36.27628
263.91        36.33294
264.37        35.60049
264.83        33.94412
265.28        31.66804
265.74        29.51597
266.19         28.3799
266.65        28.42768
267.11        29.12478
267.56        29.79862
268.02        29.66066
268.47        28.60751
268.93        26.93582
269.38        25.01471
269.84        23.69668
270.30        23.23121
270.75         23.3818
271.21        23.77594
271.66        23.86551
272.12        23.48448
272.57         22.8144
273.03        22.10861
273.48        21.66048
273.94        21.56152
274.39        21.66694
274.85        21.78149
275.31        21.63617
275.76        21.17417
276.22        20.51115
276.67         19.8338
277.13        19.48253
277.58        19.45951
278.04        19.65993
278.49        19.81944
278.95        19.60994
279.40        18.97351
279.86        18.09296
280.31        17.16471
280.77        16.57462
281.22        16.36676
281.68        16.42512
282.13        16.59497
282.59        16.67556
283.04         16.6138
283.50        16.50517
283.95        16.36622
284.41        16.22611
284.86         16.0989
285.32        15.96428
285.77        15.88661
286.22        16.02308
286.68        16.35718
287.13        16.81989
287.59        17.22601
288.04        17.30041
288.50        17.02064
288.95        16.47045
289.41        15.85945
289.86        15.41014
290.32        15.23207
290.77        15.25068
291.22        15.40638
291.68        15.56938
292.13        15.71228
292.59        15.87499
293.04        16.11956
293.50        16.53818
293.95        17.12216
294.40        17.79354
294.86        18.43909
295.31        18.90638
295.77        19.16688
296.22        19.27871
296.68        19.31109
297.13        19.34981
297.58        19.45529
298.04         19.6221
298.49        19.88602
298.95        20.33158
299.40         20.9471
299.85        21.69894
300.31          22.478
300.76        23.12076
301.21        23.56308
301.67        23.86154
302.12        24.03656
302.58          24.171
303.03        24.28338
303.48        24.36582
303.94        24.48367
304.39        24.70598
304.84        25.04464
305.30        25.47466
305.75        25.88924
306.20        26.12687
306.66        26.17439
307.11        26.07141
307.57        25.92972
308.02        25.85308
308.47        25.89622
308.93        26.01882
309.38        26.18809
309.83        26.38167
310.29        26.56738
310.74        26.74137
311.19        26.87021
311.65        26.90072
312.10        26.82509
312.55        26.66349
313.00        26.43202
313.46        26.16945
313.91        25.89626
314.36        25.62946
314.82        25.42865
315.27        25.36899
315.72        25.46057
316.18        25.67154
316.63        25.92807
317.08        26.08471
317.53         26.0946
317.99        25.98291
318.44        25.80863
318.89        25.67378
319.35        25.60006
319.80        25.56011
320.25        25.49848
320.70        25.33041
321.16        25.04406
321.61        24.67774
322.06        24.29742
322.51        23.99413
322.97        23.78161
323.42        23.64216
323.87        23.52031
324.32        23.32709
324.78        23.04288
325.23        22.70147
325.68        22.35731
326.13        22.09935
326.59         21.9466
327.04        21.88826
327.49        21.87407
327.94        21.82294
328.39        21.71242
328.85        21.55594
329.30        21.42125
329.75        21.39322
330.20        21.49012
330.66         21.6619
331.11        21.85626
331.56        21.94787
332.01        21.89992
332.46        21.73381
332.92        21.50193
333.37        21.32406
333.82        21.23735
334.27        21.22695
334.72        21.23097
335.17        21.14351
335.63        20.93962
336.08        20.65539
336.53        20.39307
336.98        20.31438
337.43        20.44732
337.88        20.74543
338.34        21.04115
338.79        21.10524
339.24        20.86418
339.69        20.38657
340.14        19.87151
340.59        19.66625
341.05         19.8403
341.50        20.27507
341.95        20.76191
342.40        20.99572
342.85        20.90768
343.30         20.6108
343.75         20.2029
344.20        19.85773
344.66        19.64576
345.11        19.47716
345.56         19.3849
346.01        19.41793
346.46         19.5533
346.91        19.79406
347.36        19.96682
347.81        19.78838
348.26        19.23548
348.72        18.43041
349.17        17.60765
349.62        17.23971
350.07        17.43583
350.52        18.03828
350.97        18.80332
351.42         19.3536
351.87        19.57444
352.32        19.57277
352.77        19.42479
353.22        19.25529
353.67         19.1146
354.13        18.95698
354.58        18.78469
355.03        18.64846
355.48        18.55556
355.93        18.51763
356.38        18.49122
356.83        18.38999
357.28        18.19792
357.73        17.93829
358.18        17.67123
358.63        17.49247
359.08        17.42459
359.53        17.44226
359.98        17.48057
360.43        17.43909
360.88        17.29574
361.33        17.07642
361.78        16.85475
362.23        16.75081
362.68        16.78099
363.13        16.89337
363.58        16.99325
364.03        16.93593
364.48         16.6937
364.93        16.32738
365.38        15.91018
365.83        15.55701
366.28        15.31203
366.73        15.14243
367.18        15.05143
367.63        15.04232
368.08        15.09621
368.53         15.2069
368.98        15.31429
369.43        15.32061
369.88        15.20841
370.33        15.00609
370.78        14.76243
371.23        14.56858
371.68        14.45611
372.13        14.39459
372.58         14.3872
373.03        14.43517
373.48        14.52234
373.93        14.64937
374.38        14.75241
374.83        14.72974
375.28        14.56881
375.72        14.29022
376.17         14.0024
376.62        13.84307
377.07        13.84996
377.52        13.97703
377.97        14.15959
378.42         14.2912
378.87        14.33261
379.32        14.31188
379.77        14.24742
380.22        14.16495
380.67        14.07529
381.11        13.97053
381.56        13.84481
382.01        13.70149
382.46         13.5467
382.91        13.38689
383.36        13.24534
383.81        13.15236
384.26        13.11349
384.71        13.12378
385.15        13.13999
385.60         13.1044
386.05        13.00059
386.50         12.8359
386.95        12.66659
387.40         12.5914
387.85        12.63042
388.29        12.75144
388.74        12.87012
389.19        12.86722
389.64        12.73024
390.09        12.49115
390.54         12.2547
390.98         12.1946
391.43        12.35177
391.88        12.65461
392.33        12.96194
392.78          13.068
393.23        12.94496
393.67        12.66422
394.12         12.3715
394.57        12.22277
395.02        12.25182
395.47        12.40366
395.91         12.6038
396.36        12.70299
396.81        12.65744
397.26        12.50576
397.71        12.31614
398.15         12.1736
398.60        12.12015
399.05        12.13226
399.50        12.14738
399.95         12.0451
400.39         11.8651
400.84        11.59878
401.29        11.35926
401.74        11.32541
402.18        11.54303
402.63         11.9332
403.08        12.34863
403.53        12.55653
403.97        12.50047
404.42        12.25036
404.87        11.92122
405.32        11.71508
405.76        11.69148
406.21        11.78468
406.66        11.92308
407.11        12.01011
407.55        12.02094
408.00        11.98719
408.45        11.92295
408.90        11.84328
409.34        11.76302
409.79        11.67592
410.24        11.60277
410.68        11.57537
411.13        11.59975
411.58        11.67344
412.03        11.76908
412.47        11.83583
412.92        11.84909
413.37        11.81854
413.81        11.77653
414.26        11.78928
414.71        11.86087
415.15         11.9748
415.60        12.06853
416.05        12.06185
416.49        11.93953
416.94        11.74289
417.39        11.53216
417.83        11.40974
418.28        11.41136
418.73        11.49358
419.17        11.62296
419.62        11.73956
420.07        11.82367
420.51        11.89199
420.96        11.92117
421.41        11.86909
421.85        11.73406
422.30        11.54767
422.74        11.36067
423.19        11.27373
423.64        11.29256
424.08        11.39917
424.53        11.53223
424.98        11.60624
425.42        11.59771
425.87        11.52514
426.31        11.42302
426.76        11.38245
427.21        11.40407
427.65        11.38703
428.10        11.36802
428.54        11.47265
428.99        11.70045
429.44        11.99276
429.88        12.24189
430.33         12.3132
430.77        12.18639
431.22        11.90015
431.66        11.59001
432.11        11.51635
432.56        11.69764
433.00        11.99433
433.45        12.26582
433.89        12.43075
434.34        12.41122
434.78        12.13363
435.23        11.78715
435.67        11.74648
436.12        11.97479
436.57        12.05721
437.01         11.9604
437.46        11.92783
437.90        11.98137
438.35         12.0462
438.79        12.09446
439.24        12.12255
439.68        12.12998
440.13        12.06579
440.57        11.97109
441.02        12.07167
441.46         12.2821
441.91        12.16766
442.35        11.78905
442.80        11.59346
443.24        11.56037
443.69        11.52156
444.13        11.44858
444.58         11.3014
445.02        11.13051
445.47        11.17333
445.91        11.36423
446.36        11.39188
446.80        11.22995
447.24        11.04656
447.69        10.90823
448.13        10.84239
448.58         10.8732
449.02        10.98789
449.47        11.12653
449.91        11.18995
450.36        11.15749
450.80        11.05459
451.25        10.94622
451.69        10.92422
452.13        11.00891
452.58        11.15394
453.02        11.30629
453.47        11.37978
453.91         11.3574
454.36        11.27368
454.80        11.15309
455.24        11.03723
455.69         10.9532
456.13        10.88178
456.58        10.85306
457.02        10.89438
457.46        11.00779
457.91        11.17867
458.35        11.35193
458.79        11.42871
459.24        11.39799
459.68        11.27495
460.13        11.13585
460.57         11.0676
461.01        11.10432
461.46        11.20985
461.90        11.33386
462.34        11.38325
462.79        11.33585
463.23        11.21686
463.68        11.08929
464.12          11.056
464.56        11.14425
465.01        11.32108
465.45        11.49461
465.89        11.57116
466.34        11.54174
466.78        11.37688
467.22        11.17607
467.67        11.21332
468.11        11.45799
468.55        11.56211
468.99        11.49888
469.44        11.46075
469.88        11.48958
470.32        11.62135
470.77        11.79452
471.21        11.82456
471.65        11.68932
472.10        11.52133
472.54        11.38203
472.98        11.33634
473.42        11.40889
473.87        11.58373
474.31         11.7926
474.75        11.92085
475.20        11.94515
475.64        11.88966
476.08        11.82154
476.52         11.8454
476.97        11.98195
477.41        12.19999
477.85        12.41932
478.29        12.53531
478.74         12.5255
479.18        12.36371
479.62        12.14197
480.06        12.20621
480.50          12.328
480.95        12.50142
481.39        12.57945
481.83        12.59945
482.27          12.548
482.72        12.34525
483.16        12.07929
483.60        12.06885
484.04         12.3329
484.48        12.47141
484.93        12.64301
485.37        13.06608
485.81        13.55289
486.25        13.81099
486.69        17.57883
487.14        13.99675
487.58        9.507329
488.02        11.70902
488.46        13.14637
488.90        13.12639
489.34        13.23275
489.79        13.22526
490.23        13.98211
490.67        14.43688
491.11        14.38796
491.55        14.30524
491.99        14.16612
492.43        13.99561
492.88        13.85869
493.32        13.81516
493.76         13.8012
494.20        13.95816
494.64        14.24798
495.08        14.62416
495.52        15.02301
495.96        15.36496
496.41        15.58207
496.85        15.67897
497.29        15.67681
497.73        15.46288
498.17        15.23967
498.61        15.37164
499.05        15.87083
499.49        16.01643
499.93        16.18886
500.37        16.40652
500.82        16.57821
501.26        16.79856
501.70        16.97133
502.14        16.97733
502.58        16.85168
503.02        16.81499
503.46        16.89257
503.90        16.96956
504.34        17.02691
504.78        17.07697
505.22        17.11338
505.66        17.14527
506.10        17.16499
506.54         17.1565
506.98        17.12571
507.42         17.0793
507.86        17.06377
508.30         17.1523
508.74        17.35013
509.18        17.62595
509.62        17.91405
510.06        18.10447
510.50        18.16865
510.94        18.14626
511.38        18.07283
511.82        18.00677
512.26        17.97383
512.70        17.95244
513.14        17.96808
513.58        18.06265
514.02        18.22381
514.46        18.43268
514.90        18.61941
515.34        18.63471
515.78        18.42651
516.22        18.20023
516.66        18.04432
517.10        17.63876
517.54         17.0133
517.98        17.82368
518.42        17.61246
518.86        17.95026
519.30        18.08398
519.74        18.25524
520.18        18.41239
520.62        18.43973
521.06        18.35402
521.50         18.1651
521.93          17.948
522.37         17.8395
522.81        17.86943
523.25        17.99581
523.69        18.16232
524.13         18.2805
524.57        18.32006
525.01        18.30548
525.45        18.24778
525.89        18.16483
526.32        18.06694
526.76        17.95061
527.20        17.82285
527.64        17.70479
528.08        17.60532
528.52        17.50512
528.96        17.40503
529.40        17.34934
529.83        17.34691
530.27        17.21203
530.71        17.25688
531.15        17.16309
531.59        17.02991
532.03        16.85804
532.46         16.7162
532.90        16.71984
533.34        16.87535
533.78        17.13752
534.22        17.40027
534.66        17.50669
535.09        17.42138
535.53        17.20266
535.97        16.92919
536.41        16.73078
536.85        16.65016
537.28        16.65276
537.72        16.70597
538.16        16.75619
538.60         16.7849
539.04        16.79939
539.47        16.81598
539.91        16.89709
540.35         17.0291
540.79        17.13061
541.22        17.19208
541.66        17.26963
542.10        17.36187
542.54        17.42685
542.97        17.48783
543.41        17.61192
543.85        17.80146
544.29         18.0446
544.72        18.28242
545.16        18.43023
545.60        18.47284
546.04        18.43352
546.47        18.39666
546.91        18.50597
547.35        18.77742
547.79        19.16599
548.22        19.55939
548.66        19.76282
549.10        19.75121
549.53        19.62055
549.97         19.4793
550.41        19.44149
550.84        19.54907
551.28        19.77402
551.72        20.08051
552.15        20.39964
552.59        20.68905
553.03        20.95865
553.46        21.17934
553.90        21.32508
554.34        21.40221
554.77        21.39622
555.21        21.33707
555.65        21.34063
556.08        21.43899
556.52        21.34704
556.96        21.55936
557.39        21.66329
557.83        21.80549
558.27        21.96484
558.70        22.13954
559.14         22.3099
559.57        22.45705
560.01         22.5918
560.45        22.68428
560.88        22.69091
561.32        22.63204
561.75        22.51379
562.19        22.40558
562.63        22.38042
563.06        22.45093
563.50        22.59985
563.93        22.78356
564.37        22.94101
564.80        23.04465
565.24        23.12004
565.68        23.17599
566.11        23.22825
566.55        23.30174
566.98        23.38336
567.42         23.4889
567.85         23.6381
568.29        23.84321
568.72        24.02782
569.16         24.2197
569.60        24.52022
570.03        24.81906
570.47        24.89985
570.90        24.86011
571.34        24.47592
571.77        24.88035
572.21        24.88307
572.64        24.90593
573.08        24.58878
573.51        24.05212
573.95        25.21228
574.38        26.75735
574.82        26.29571
