SpectraSmart Spectrum 2.9.0.0
--------- Device Information -----------
Spectrum Name :  反射率_0
Saving Time :  2024/04/25 23:02:19
Spectro-Module Model Name : SE2030-DUVN
Spectro-Module Serial Number : OS361AC55029948
Wavelength Start : 200
Wavelength End : 1025
Wavelength Unit : Wavelength(nm)
Spectrum Unit : Reflectance(%)
-----------Spectrum Setting ------------
Integration Time : 20ms
Average : 10
Boxcar : 0
Background removal :  enabled
linearity correction :  enabled
SC :  disabled
Intensity correction :  disabled
DWT denoise :  enabled
savitzky-golay :  disabled
FFT :  disabled
Running average :  disabled
Kalman :  disabled
High pass :  disabled
---------------BEGIN--------------------
Wavelength(nm)             Reflectance(%)
200.29               0
200.75         93.8081
201.21        85.66843
201.67        77.02208
202.13        72.54048
202.58        72.64178
203.04        76.44854
203.50         81.5332
203.96        83.61988
204.42        81.92139
204.88        78.20309
205.34        74.80672
205.80        74.13462
206.26        77.14253
206.72        85.80348
207.18         103.829
207.64         120.602
208.10        111.6694
208.55        91.00205
209.01        78.04839
209.47        74.60719
209.93        76.96916
210.39         83.2177
210.85        90.27782
211.31         91.4726
211.77        84.86066
212.23        73.22688
212.69        61.88339
213.14        58.89473
213.60        65.57713
214.06        79.42944
214.52        95.33672
214.98        105.4342
215.44        107.5148
215.90        104.1105
216.36        98.09124
216.81        93.34814
217.27        91.40885
217.73        90.99105
218.19        90.65942
218.65          88.522
219.11        83.74503
219.57        75.83707
220.02        66.17915
220.48        61.65486
220.94        65.66908
221.40        76.03291
221.86        85.10521
222.32        85.24139
222.77        77.69193
223.23        67.27103
223.69        58.64972
224.15        56.65432
224.61        60.75713
225.06        68.49192
225.52        76.68023
225.98         81.2534
226.44        81.38056
226.90        78.72485
227.36        75.24242
227.81        73.53799
228.27        74.48705
228.73        76.86291
229.19        79.65123
229.65        81.42004
230.10         81.8182
230.56        81.68803
231.02        81.39766
231.48        81.35402
231.93        81.58306
232.39        81.87732
232.85        82.27978
233.31        83.00735
233.77           84.01
234.22        85.31901
234.68        86.30003
235.14        85.77545
235.60        83.58663
236.05        80.23856
236.51        76.81944
236.97         74.7522
237.43        74.35645
237.88        75.49142
238.34         77.6426
238.80        79.63112
239.26         80.5869
239.71        80.88654
240.17        80.28162
240.63        79.21492
241.08         78.0767
241.54        76.63812
242.00        75.31317
242.46          74.544
242.91        74.66382
243.37        76.10508
243.83        82.51162
244.28         108.104
244.74         144.035
245.20        132.8255
245.66        119.3098
246.11        118.0502
246.57        126.8475
247.03        155.0116
247.48        239.4862
247.94        211.6384
248.40        125.5005
248.85           97.31
249.31        88.33321
249.77        86.63169
250.22        88.73691
250.68        94.07889
251.14        102.6237
251.59        109.2866
252.05        108.5014
252.51        102.5451
252.96        94.83821
253.42        89.25166
253.88        85.69476
254.33        82.83871
254.79         82.2261
255.25        85.35282
255.70        91.05511
256.16         98.0397
256.62        103.2925
257.07        103.8386
257.53        100.7084
257.99        95.10362
258.44        89.25217
258.90        86.72891
259.35        86.56944
259.81        87.50825
260.27         87.5082
260.72        84.63596
261.18        79.79818
261.63         73.8587
262.09        68.49656
262.55        64.83612
263.00        62.80552
263.46        61.93873
263.91        61.37289
264.37        60.62597
264.83        59.44341
265.28        57.91022
265.74        56.39937
266.19        55.12391
266.65        54.33159
267.11        53.83451
267.56        53.33739
268.02        52.54699
268.47        51.33989
268.93        49.84711
269.38        48.30961
269.84        47.35415
270.30        47.12078
270.75        47.42966
271.21        47.85703
271.66        47.75759
272.12        46.99214
272.57         45.7564
273.03        44.45056
273.48        43.57825
273.94        43.28925
274.39         43.3445
274.85         43.4892
275.31        43.31355
275.76        42.71473
276.22        41.89461
276.67        40.99059
277.13        40.32396
277.58        39.89528
278.04        39.63663
278.49        39.39274
278.95         39.0599
279.40        38.55346
279.86        37.99274
280.31        37.35611
280.77        36.75137
281.22        36.15861
281.68        35.60057
282.13        35.07546
282.59        34.65232
283.04        34.30689
283.50        34.06026
283.95        33.82233
284.41        33.49562
284.86        33.04922
285.32        32.53786
285.77        32.04898
286.22        31.78907
286.68        31.76729
287.13        31.88135
287.59        31.98124
288.04        31.81951
288.50        31.38419
288.95         30.7379
289.41         30.0422
289.86          29.416
290.32         28.9655
290.77        28.63085
291.22        28.42878
291.68        28.34346
292.13        28.36045
292.59        28.48806
293.04        28.70871
293.50        28.99761
293.95        29.32246
294.40        29.65521
294.86        29.96256
295.31        30.20496
295.77        30.38351
296.22        30.51567
296.68        30.62018
297.13        30.70165
297.58         30.7932
298.04        30.91819
298.49        31.12961
298.95        31.54455
299.40        32.15896
299.85        32.92587
300.31        33.73605
300.76        34.42537
301.21         34.9275
301.67          35.307
302.12        35.56492
302.58        35.77645
303.03        35.94818
303.48        36.07777
303.94        36.24615
304.39        36.53773
304.84        36.96669
305.30        37.49701
305.75        37.99417
306.20        38.26472
306.66        38.29515
307.11        38.13564
307.57        37.92288
308.02        37.77504
308.47        37.76443
308.93        37.85036
309.38        38.00831
309.83        38.23635
310.29        38.50335
310.74        38.79247
311.19        39.04897
311.65        39.18417
312.10         39.1767
312.55        39.05455
313.00        38.84134
313.46        38.59464
313.91        38.33809
314.36        38.07817
314.82        37.87635
315.27        37.80164
315.72        37.86933
316.18        38.05689
316.63        38.28407
317.08        38.39025
317.53        38.33074
317.99        38.13524
318.44        37.90054
318.89        37.78785
319.35        37.82576
319.80        37.97783
320.25         38.1228
320.70        38.06434
321.16        37.76446
321.61        37.28932
322.06        36.78572
322.51        36.47666
322.97        36.39817
323.42        36.49313
323.87        36.62025
324.32         36.5435
324.78        36.20226
325.23        35.68886
325.68        35.12534
326.13        34.71473
326.59        34.51143
327.04        34.47198
327.49        34.52862
327.94        34.57539
328.39        34.57077
328.85        34.53722
329.30        34.51436
329.75        34.51081
330.20        34.53664
330.66         34.5631
331.11        34.60929
331.56        34.66277
332.01        34.72072
332.46        34.77632
332.92        34.83269
333.37        34.94362
333.82        35.09452
334.27        35.28036
334.72        35.43184
335.17        35.43795
335.63        35.27513
336.08        34.98109
336.53        34.66846
336.98        34.52857
337.43        34.60606
337.88        34.85921
338.34        35.13532
338.79        35.23299
339.24        35.07784
339.69        34.73187
340.14         34.3644
340.59        34.26684
341.05        34.49404
341.50         34.9395
341.95        35.40952
342.40        35.62841
342.85        35.53849
343.30        35.23819
343.75        34.83975
344.20        34.54227
344.66        34.41832
345.11        34.37295
345.56        34.39061
346.01        34.44481
346.46        34.50614
346.91        34.60384
347.36        34.63678
347.81        34.43433
348.26        33.99797
348.72        33.41608
349.17        32.85226
349.62        32.65748
350.07        32.90295
350.52        33.45759
350.97         34.1403
351.42          34.673
351.87        34.95996
352.32        35.07498
352.77        35.02567
353.22        34.83022
353.67          34.526
354.13         34.1191
354.58        33.69201
355.03        33.42213
355.48        33.34657
355.93        33.42898
356.38        33.57362
356.83        33.61171
357.28        33.49195
357.73        33.25783
358.18        32.96016
358.63        32.68141
359.08        32.45267
359.53        32.25428
359.98        32.06086
360.43         31.8376
360.88        31.57857
361.33        31.29586
361.78        31.04137
362.23        30.89263
362.68        30.85559
363.13        30.89895
363.58        30.92799
364.03        30.79691
364.48        30.48054
364.93        30.02994
365.38        29.54726
365.83        29.19767
366.28         29.0275
366.73        28.98716
367.18        29.01242
367.63        28.99752
368.08        28.90271
368.53         28.7568
368.98        28.58132
369.43        28.40362
369.88        28.23695
370.33        28.07776
370.78        27.90909
371.23        27.71119
371.68        27.48592
372.13        27.23639
372.58        27.03128
373.03        26.98046
373.48        27.09356
373.93        27.33025
374.38        27.55635
374.83        27.56599
375.28        27.32198
375.72        26.87954
376.17         26.3972
376.62        26.09759
377.07        26.04186
377.52        26.15245
377.97        26.33357
378.42         26.4305
378.87        26.39206
379.32        26.27337
379.77        26.09986
380.22         25.9013
380.67        25.69539
381.11          25.471
381.56        25.24803
382.01        25.07454
382.46        24.96319
382.91        24.90683
383.36        24.88292
383.81        24.84789
384.26        24.78652
384.71        24.70778
385.15        24.60659
385.60          24.497
386.05        24.36887
386.50        24.20786
386.95        24.02601
387.40        23.85299
387.85        23.70803
388.29        23.59419
388.74        23.49881
389.19        23.34786
389.64        23.13517
390.09        22.87119
390.54        22.64478
390.98        22.60394
391.43        22.77749
391.88        23.09823
392.33         23.4189
392.78         23.5239
393.23        23.38728
393.67        23.07859
394.12        22.76459
394.57        22.60363
395.02          22.633
395.47        22.79135
395.91        23.01727
396.36        23.16925
396.81        23.20197
397.26        23.14269
397.71        23.02436
398.15        22.87238
398.60         22.7369
399.05        22.61884
399.50        22.49546
399.95        22.27064
400.39        22.04262
400.84        21.75846
401.29        21.52836
401.74        21.50369
402.18        21.72155
402.63        22.10143
403.08        22.51809
403.53        22.77032
403.97        22.80398
404.42        22.67544
404.87        22.44845
405.32        22.23997
405.76        22.09813
406.21        22.00022
406.66         21.9516
407.11        21.96874
407.55        22.05077
408.00        22.19057
408.45         22.3477
408.90        22.42289
409.34        22.38566
409.79        22.26688
410.24        22.12045
410.68        22.02444
411.13        22.00583
411.58        22.04235
412.03        22.11945
412.47        22.21592
412.92         22.3007
413.37        22.37938
413.81        22.44827
414.26        22.52049
414.71        22.58566
415.15         22.6403
415.60        22.64725
416.05        22.56925
416.49        22.40842
416.94        22.19622
417.39        21.98258
417.83        21.84983
418.28        21.82929
418.73        21.88619
419.17         22.0041
419.62        22.15501
420.07        22.31778
420.51        22.49725
420.96        22.63536
421.41        22.63523
421.85        22.48002
422.30        22.23043
422.74        21.96591
423.19        21.84806
423.64        21.89015
424.08        22.06374
424.53        22.28592
424.98        22.44816
425.42        22.51805
425.87        22.50547
426.31        22.45241
426.76        22.48887
427.21        22.60584
427.65        22.61951
428.10        22.58045
428.54        22.73301
428.99        23.08369
429.44        23.47614
429.88        23.75824
430.33        23.86231
430.77        23.71424
431.22        23.17181
431.66        22.47901
432.11        22.29013
432.56        22.64582
433.00        23.09274
433.45        23.42851
433.89        23.89996
434.34        24.28521
434.78        23.87048
435.23        23.05242
435.67        23.01428
436.12        23.68114
436.57        23.98209
437.01        23.80766
437.46        23.70512
437.90        23.72277
438.35        23.71103
438.79        23.65364
439.24        23.59085
439.68        23.54129
440.13        23.40417
440.57        23.28028
441.02        23.62185
441.46        24.25194
441.91        24.34406
442.35        23.92772
442.80        23.66028
443.24        23.56893
443.69        23.62114
444.13        23.73678
444.58        23.52173
445.02        23.07876
445.47          23.068
445.91        23.41525
446.36        23.50072
446.80         23.2851
447.24         23.1108
447.69        23.02735
448.13        22.95854
448.58        22.92465
449.02        22.93871
449.47        22.97708
449.91        23.00141
450.36        23.00596
450.80        22.99493
451.25        22.99586
451.69        23.03761
452.13        23.12673
452.58        23.23581
453.02        23.34407
453.47        23.42587
453.91        23.47352
454.36        23.50229
454.80        23.49897
455.24        23.43695
455.69        23.33284
456.13         23.1895
456.58        23.08472
457.02         23.0974
457.46        23.24723
457.91        23.49688
458.35        23.76344
458.79        23.91443
459.24        23.92874
459.68        23.82759
460.13        23.69254
460.57        23.60032
461.01        23.59551
461.46        23.64888
461.90        23.72309
462.34        23.75883
462.79        23.73369
463.23         23.6619
463.68        23.59661
464.12        23.63444
464.56        23.78827
465.01        24.03978
465.45        24.24743
465.89        24.29613
466.34        24.18468
466.78        23.81998
467.22        23.39191
467.67        23.44215
468.11        23.90118
468.55        24.06677
468.99        23.88682
469.44        23.76302
469.88        23.78382
470.32        24.01295
470.77         24.3643
471.21        24.51468
471.65        24.42184
472.10         24.3305
472.54        24.27975
472.98        24.24382
473.42        24.24558
473.87        24.30462
474.31        24.39765
474.75        24.48684
475.20        24.56513
475.64         24.6253
476.08        24.68596
476.52        24.77325
476.97        24.89172
477.41        25.03563
477.85        25.15793
478.29        25.23262
478.74        25.25747
479.18        25.12554
479.62        24.92526
480.06        25.15295
480.50        25.29499
480.95        25.52915
481.39        25.66916
481.83        25.38105
482.27         25.5742
482.72          25.312
483.16        24.98967
483.60        25.10204
484.04        25.68102
484.48        25.96188
484.93        26.20126
485.37        26.74416
485.81        27.65167
486.25        27.45936
486.69        37.33827
487.14        29.87444
487.58        18.98586
488.02        23.26406
488.46        26.18928
488.90        26.58375
489.34        26.80891
489.79         26.5068
490.23        27.52714
490.67        28.17516
491.11        28.17477
491.55        28.19151
491.99        28.11982
492.43        27.95964
492.88         27.7899
493.32        27.79922
493.76        27.82841
494.20        28.04038
494.64        28.35275
495.08         28.8144
495.52        29.33846
495.96        29.61572
496.41        29.63572
496.85         29.8486
497.29        30.21313
497.73        29.95811
498.17        29.42216
498.61        29.60386
499.05        30.51705
499.49        30.63969
499.93        30.71632
500.37        30.82005
500.82        30.86484
501.26        31.14871
501.70        31.51557
502.14        31.70854
502.58        31.69613
503.02        31.73268
503.46         31.8278
503.90        31.81232
504.34        31.73041
504.78        31.73546
505.22          31.846
505.66        32.02669
506.10        32.21313
506.54        32.28986
506.98        32.23365
507.42        32.09654
507.86        31.97136
508.30        31.94935
508.74        32.13606
509.18         32.4187
509.62        32.73757
510.06        32.95394
510.50        33.03032
510.94        33.01503
511.38        32.95332
511.82        32.91866
512.26        32.93773
512.70        32.97763
513.14        33.04116
513.58        33.15728
514.02        33.31386
514.46        33.46379
514.90        33.54704
515.34        33.63611
515.78         33.3741
516.22        33.18568
516.66        33.05366
517.10          32.733
517.54        32.24819
517.98        32.95263
518.42        32.83712
518.86        33.16879
519.30        33.32825
519.74        33.50964
520.18        33.67253
520.62        33.72709
521.06        33.68695
521.50        33.56013
521.93        33.39564
522.37         33.2849
522.81        33.25412
523.25        33.27932
523.69        33.34503
524.13        33.42356
524.57        33.49924
525.01        33.57987
525.45        33.64148
525.89        33.64494
526.32        33.58067
526.76        33.45648
527.20        33.30677
527.64        33.19939
528.08         33.1569
528.52        33.13387
528.96        33.08733
529.40        33.04012
529.83        33.00129
530.27        32.63685
530.71        32.62591
531.15        32.49847
531.59        32.46176
532.03        32.47782
532.46        32.55165
532.90        32.68296
533.34        32.84449
533.78        33.02559
534.22         33.1726
534.66        33.21022
535.09        33.12082
535.53        32.94143
535.97        32.71217
536.41        32.50856
536.85        32.36331
537.28        32.26733
537.72        32.22049
538.16         32.2219
538.60        32.26625
539.04        32.32817
539.47        32.40136
539.91        32.55887
540.35        32.75924
540.79        32.86535
541.22           32.88
541.66        32.94277
542.10        33.05782
542.54        33.13634
542.97        33.20335
543.41        33.35439
543.85        33.58945
544.29        33.89323
544.72        34.18393
545.16        34.34727
545.60        34.36095
546.04        34.25723
546.47        34.15422
546.91        34.25208
547.35        34.57602
547.79        35.07137
548.22        35.57854
548.66        35.82342
549.10        35.76988
549.53        35.55611
549.97        35.34285
550.41        35.29252
550.84        35.46266
551.28        35.81717
551.72        36.26539
552.15        36.63736
552.59        36.87428
553.03        37.02193
553.46        37.11348
553.90        37.23459
554.34        37.40818
554.77        37.56447
555.21        37.67446
555.65        37.80963
556.08         37.9852
556.52        37.73743
556.96        37.97278
557.39        37.99422
557.83        38.09217
558.27        38.25077
558.70        38.47276
559.14        38.71681
559.57        38.94715
560.01        39.19277
560.45        39.39784
560.88        39.45364
561.32        39.37745
561.75        39.22711
562.19        39.08772
562.63        38.94396
563.06        38.86276
563.50        39.03814
563.93        39.39395
564.37         39.6455
564.80        39.74301
565.24        39.84578
565.68        39.95677
566.11        40.03014
566.55        40.10089
566.98        40.16662
567.42        40.26459
567.85        40.44767
568.29        40.74495
568.72        41.02594
569.16        41.33553
569.60         41.7848
570.03         42.1678
570.47        42.20307
570.90        42.10265
571.34        41.15569
571.77        42.08843
572.21        42.09958
572.64        41.98468
573.08         41.8214
573.51        40.15935
573.95        41.87862
574.38        44.42921
574.82        43.60226
