SpectraSmart Spectrum 2.9.0.0
--------- Device Information -----------
Spectrum Name :  反射率_0
Saving Time :  2024/04/26 00:46:46
Spectro-Module Model Name : SE2030-DUVN
Spectro-Module Serial Number : OS361AC55029948
Wavelength Start : 200
Wavelength End : 1025
Wavelength Unit : Wavelength(nm)
Spectrum Unit : Reflectance(%)
-----------Spectrum Setting ------------
Integration Time : 20ms
Average : 10
Boxcar : 0
Background removal :  enabled
linearity correction :  enabled
SC :  disabled
Intensity correction :  disabled
DWT denoise :  enabled
savitzky-golay :  disabled
FFT :  disabled
Running average :  disabled
Kalman :  disabled
High pass :  disabled
---------------BEGIN--------------------
Wavelength(nm)             Reflectance(%)
200.29               0
200.75        91.32375
201.21        82.42564
201.67         72.2333
202.13        66.19968
202.58        64.95324
203.04        67.25438
203.50        71.08746
203.96        72.95666
204.42        72.03777
204.88        69.78535
205.34        67.60744
205.80        66.82336
206.26        67.87741
206.72        71.38304
207.18        78.75462
207.64        85.47385
208.10         81.4008
208.55        72.60536
209.01        67.19652
209.47        65.99255
209.93        67.41733
210.39         70.8141
210.85        74.43581
211.31        74.52618
211.77        70.09748
212.23        62.58661
212.69        55.53563
213.14        54.47016
213.60        60.00883
214.06        70.53751
214.52        81.89127
214.98        87.65833
215.44        86.41393
215.90        80.45092
216.36         72.8709
216.81         67.9887
217.27        67.03301
217.73        68.34074
218.19        69.97691
218.65        69.47911
219.11        65.91556
219.57        58.98763
220.02        49.46158
220.48         43.1062
220.94        43.22891
221.40        48.66624
221.86        53.90798
222.32        53.08112
222.77        46.87696
223.23        38.69329
223.69        32.08773
224.15        30.70228
224.61        33.96146
225.06        39.94079
225.52        45.63944
225.98        47.36852
226.44        44.56332
226.90        38.92021
227.36        32.67855
227.81        28.81771
228.27        28.29178
228.73        29.91947
229.19        32.63353
229.65        34.85579
230.10        36.04323
230.56        36.62915
231.02        36.96248
231.48        37.39164
231.93        37.96201
232.39        38.51233
232.85        38.78566
233.31        38.46905
233.77        37.50899
234.22        35.98802
234.68        34.33679
235.14        33.31904
235.60        33.22428
236.05        33.92765
236.51        34.89508
236.97        35.26618
237.43          34.869
237.88        33.91596
238.34        32.94845
238.80        33.43172
239.26        36.01263
239.71        40.26681
240.17         45.1458
240.63         49.2298
241.08        51.98483
241.54        53.61261
242.00        54.43717
242.46        55.07929
242.91        56.07532
243.37        57.44062
243.83        62.41088
244.28        88.04588
244.74        135.4901
245.20        132.9506
245.66        118.8627
246.11        113.5575
246.57        113.5565
247.03        117.3774
247.48        122.0832
247.94        89.76703
248.40        77.11282
248.85        76.77975
249.31        78.06359
249.77        79.36834
250.22        80.80058
250.68        82.71887
251.14        84.67165
251.59        83.75447
252.05        78.62048
252.51        71.70663
252.96        64.96451
253.42         59.8828
253.88        55.92213
254.33        52.54383
254.79        51.66414
255.25        55.19165
255.70        61.78419
256.16        69.47633
256.62        74.78507
257.07        74.33541
257.53        69.31071
257.99        61.56926
258.44        54.01462
258.90        50.70011
259.35        50.83357
259.81        52.53048
260.27        53.58066
260.72        51.92759
261.18        48.16154
261.63        43.24937
262.09        38.68281
262.55        35.57428
263.00        33.93549
263.46        33.27411
263.91        32.81962
264.37        31.93415
264.83        30.48868
265.28        28.63211
265.74        26.93735
266.19        26.04497
266.65         26.0688
267.11        26.60608
267.56        27.08153
268.02        26.78991
268.47        25.65527
268.93        23.93822
269.38        22.01753
269.84        20.77037
270.30        20.44213
270.75        20.78999
271.21        21.40513
271.66        21.68266
272.12        21.43758
272.57        20.85718
273.03        20.20273
273.48        19.79194
273.94        19.72044
274.39        19.83463
274.85        19.94076
275.31        19.77496
275.76         19.2868
276.22        18.60345
276.67        17.90621
277.13        17.51844
277.58        17.45005
278.04        17.60176
278.49        17.74659
278.95        17.60094
279.40        17.10994
279.86        16.43357
280.31        15.71632
280.77        15.26327
281.22        15.10143
281.68        15.13143
282.13        15.25043
282.59        15.33104
283.04        15.33169
283.50        15.32159
283.95        15.26376
284.41        15.10363
284.86        14.84895
285.32        14.51955
285.77        14.24575
286.22        14.27903
286.68        14.62095
287.13        15.16702
287.59        15.69137
288.04        15.85954
288.50        15.63076
288.95        15.11574
289.41        14.52174
289.86        14.07029
290.32        13.87577
290.77        13.85671
291.22        13.99116
291.68        14.21072
292.13        14.49155
292.59        14.85394
293.04        15.28903
293.50        15.77367
293.95         16.2804
294.40        16.77147
294.86        17.21544
295.31        17.58862
295.77        17.89109
296.22         18.1379
296.68        18.33992
297.13         18.4857
297.58        18.60824
298.04        18.74087
298.49        18.94288
298.95        19.33299
299.40        19.91472
299.85        20.63457
300.31        21.40387
300.76        22.09589
301.21        22.64144
301.67        23.08236
302.12        23.38106
302.58        23.53116
303.03        23.54264
303.48         23.4419
303.94         23.3574
304.39        23.45678
304.84        23.77567
305.30        24.25779
305.75         24.7609
306.20        25.06521
306.66        25.13974
307.11        25.04665
307.57        24.90557
308.02        24.83245
308.47        24.88622
308.93        25.01565
309.38        25.19794
309.83        25.42885
310.29        25.67638
310.74        25.93442
311.19        26.14331
311.65        26.20812
312.10        26.11622
312.55        25.90043
313.00        25.61283
313.46        25.35296
313.91        25.15054
314.36        24.99517
314.82        24.90837
315.27         24.9084
315.72        24.99116
316.18        25.14837
316.63         25.3168
317.08        25.36896
317.53         25.2736
317.99        25.05292
318.44        24.79536
318.89        24.64847
319.35        24.63932
319.80        24.72956
320.25        24.81744
320.70        24.73474
321.16        24.44695
321.61        24.01491
322.06        23.54614
322.51        23.20015
322.97        23.00804
323.42        22.92715
323.87        22.87936
324.32        22.73762
324.78        22.46695
325.23        22.11555
325.68        21.73833
326.13        21.42289
326.59        21.19315
327.04         21.0372
327.49        20.92454
327.94        20.80818
328.39        20.67527
328.85        20.53627
329.30        20.43685
329.75        20.42134
330.20        20.49705
330.66         20.6247
331.11         20.7749
331.56        20.86144
332.01        20.85529
332.46        20.76214
332.92        20.61092
333.37        20.47785
333.82        20.38527
334.27         20.3323
334.72        20.27024
335.17        20.11601
335.63        19.85921
336.08        19.53301
336.53        19.24943
336.98        19.18503
337.43         19.3663
337.88        19.73862
338.34        20.11988
338.79         20.2541
339.24        20.05676
339.69        19.60244
340.14        19.08042
340.59        18.82553
341.05        18.91369
341.50        19.23532
341.95        19.61812
342.40        19.80929
342.85         19.7463
343.30        19.52514
343.75        19.20943
344.20        18.91067
344.66        18.68011
345.11        18.44926
345.56        18.26794
346.01        18.21165
346.46        18.26958
346.91        18.43639
347.36        18.55333
347.81        18.35955
348.26        17.83539
348.72         17.1044
349.17        16.37132
349.62        16.05648
350.07        16.25778
350.52        16.82702
350.97        17.56292
351.42        18.15747
351.87        18.50244
352.32        18.67442
352.77         18.6917
353.22        18.58894
353.67        18.39802
354.13        18.10923
354.58        17.77293
355.03        17.51381
355.48        17.36761
355.93        17.32989
356.38        17.34845
356.83         17.3212
357.28        17.22082
357.73         17.0714
358.18        16.92468
358.63        16.86164
359.08        16.89482
359.53        16.99336
359.98        17.08194
360.43        17.04926
360.88        16.87635
361.33        16.59909
361.78        16.30995
362.23        16.15867
362.68        16.17332
363.13        16.29665
363.58        16.43331
364.03        16.43494
364.48        16.26669
364.93        15.98615
365.38        15.65013
365.83         15.3471
366.28        15.11527
366.73        14.92953
367.18        14.80376
367.63         14.7619
368.08        14.79484
368.53        14.89243
368.98        15.00372
369.43        15.04294
369.88        14.99387
370.33        14.88582
370.78        14.74622
371.23        14.62908
371.68         14.5556
372.13        14.49838
372.58        14.48953
373.03        14.58166
373.48         14.7658
373.93        15.02322
374.38        15.24313
374.83        15.25375
375.28        15.03171
375.72        14.62357
376.17        14.18828
376.62        13.94571
377.07        13.95577
377.52        14.14659
377.97        14.41822
378.42        14.60549
378.87        14.65343
379.32         14.6153
379.77        14.52326
380.22        14.42084
380.67        14.32783
381.11         14.2272
381.56         14.1255
382.01        14.04928
382.46        14.00183
382.91        13.97736
383.36        13.96734
383.81        13.95004
384.26        13.91911
384.71        13.88756
385.15        13.83401
385.60         13.7349
386.05        13.58665
386.50        13.38847
386.95        13.20464
387.40        13.14607
387.85        13.22882
388.29        13.41265
388.74        13.59164
389.19        13.61653
389.64        13.46999
390.09         13.1899
390.54         12.8933
390.98        12.77847
391.43        12.89477
391.88        13.16389
392.33        13.43821
392.78        13.50147
393.23         13.3263
393.67        12.99433
394.12          12.655
394.57        12.46497
395.02        12.45942
395.47        12.58164
395.91        12.76621
396.36        12.88027
396.81        12.88057
397.26        12.79665
397.71        12.67699
398.15        12.57765
398.60        12.53507
399.05        12.53472
399.50        12.52671
399.95        12.40787
400.39        12.22478
400.84        11.96246
401.29        11.73151
401.74        11.70601
402.18        11.92831
402.63        12.31949
403.08        12.73282
403.53        12.93517
403.97         12.8702
404.42        12.60983
404.87        12.26349
405.32        12.02446
405.76        11.95596
406.21        11.99981
406.66        12.10232
407.11        12.19224
407.55        12.24787
408.00        12.29129
408.45        12.31962
408.90        12.31295
409.34        12.26849
409.79        12.18614
410.24         12.0923
410.68        12.02805
411.13        12.00596
411.58        12.02346
412.03         12.0597
412.47        12.07851
412.92        12.06108
413.37        12.01323
413.81        11.97044
414.26        12.00078
414.71        12.10363
415.15        12.26144
415.60        12.38743
416.05        12.36263
416.49        12.16742
416.94        11.85557
417.39        11.52519
417.83        11.34453
418.28        11.36498
418.73        11.52015
419.17        11.74271
419.62        11.92151
420.07        12.02291
420.51        12.08164
420.96        12.08165
421.41        11.99339
421.85        11.82528
422.30        11.60464
422.74        11.39572
423.19        11.32071
423.64        11.38501
424.08        11.56328
424.53         11.7739
424.98         11.8909
425.42        11.87766
425.87        11.76554
426.31        11.59944
426.76        11.48883
427.21        11.44182
427.65        11.34939
428.10        11.26782
428.54        11.35286
428.99        11.60616
429.44        11.96309
429.88        12.27437
430.33        12.34041
430.77        12.13446
431.22        11.72013
431.66        11.28318
432.11        11.15097
432.56        11.35707
433.00        11.74932
433.45        12.15036
433.89        12.39788
434.34        12.38292
434.78        12.05294
435.23        11.64004
435.67        11.57235
436.12        11.82327
436.57        11.96536
437.01        11.92597
437.46         11.8841
437.90        11.85008
438.35        11.77715
438.79        11.68399
439.24         11.6331
439.68        11.63935
440.13        11.63138
440.57        11.61958
441.02        11.77757
441.46        12.00679
441.91        11.89485
442.35        11.51036
442.80         11.3036
443.24        11.25971
443.69        11.21092
444.13        11.12883
444.58        10.97703
445.02        10.80472
445.47        10.84033
445.91        11.02685
446.36        11.07151
446.80        10.94662
447.24        10.81216
447.69        10.70934
448.13        10.62749
448.58        10.58573
449.02        10.58346
449.47         10.5985
449.91        10.59398
450.36        10.56303
450.80        10.51193
451.25        10.46899
451.69        10.46697
452.13        10.51358
452.58        10.58619
453.02        10.65764
453.47        10.67952
453.91        10.64695
454.36        10.58035
454.80        10.50059
455.24        10.44414
455.69        10.42931
456.13        10.43577
456.58        10.47805
457.02        10.56132
457.46        10.68509
457.91        10.84157
458.35        10.98989
458.79        11.05524
459.24        11.03358
459.68        10.93321
460.13        10.82641
460.57         10.7937
461.01        10.86542
461.46        11.00805
461.90        11.16611
462.34         11.2377
462.79        11.20008
463.23        11.08024
463.68        10.94889
464.12        10.92312
464.56        11.03263
465.01        11.23809
465.45        11.44152
465.89        11.54061
466.34        11.52491
466.78        11.36969
467.22        11.17417
467.67        11.21143
468.11        11.45246
468.55        11.54951
468.99        11.48452
469.44        11.46369
469.88        11.53017
470.32        11.71549
470.77        11.94629
471.21        12.01555
471.65        11.89587
472.10         11.7295
472.54        11.58606
472.98        11.54372
473.42        11.63034
473.87        11.82157
474.31        12.05195
474.75        12.21166
475.20         12.2749
475.64        12.26623
476.08        12.23241
476.52        12.24545
476.97        12.32469
477.41        12.45138
477.85        12.58161
478.29        12.67117
478.74        12.71023
479.18        12.65097
479.62        12.54972
480.06        12.70438
480.50        12.86464
480.95        13.04836
481.39        13.11835
481.83        13.13507
482.27        13.09284
482.72        12.90169
483.16        12.66304
483.60        12.70193
484.04        13.03198
484.48        13.29062
484.93        13.61312
485.37        13.99264
485.81        14.32535
486.25        14.62815
486.69        19.26173
487.14        15.13655
487.58         10.1707
488.02        12.31311
488.46         13.9454
488.90        14.02029
489.34        14.20375
489.79        14.24035
490.23        15.05219
490.67        15.52945
491.11        15.47667
491.55        15.42459
491.99        15.34891
492.43          15.229
492.88        15.13059
493.32        15.16483
493.76        15.24234
494.20        15.45613
494.64        15.75837
495.08        16.12168
495.52         16.5016
495.96        16.85048
496.41         17.1038
496.85         17.2492
497.29        17.30168
497.73        17.12152
498.17        16.92398
498.61         17.1248
499.05         17.7182
499.49        17.86105
499.93        17.97515
500.37        18.09008
500.82        18.16376
501.26         18.3892
501.70        18.67459
502.14        18.86218
502.58        18.91298
503.02         18.9474
503.46        18.96768
503.90        18.88736
504.34         18.7586
504.78        18.71079
505.22         18.7684
505.66         18.9049
506.10        19.06979
506.54        19.17336
506.98        19.19441
507.42        19.16334
507.86        19.14249
508.30         19.2282
508.74        19.43482
509.18        19.71906
509.62        20.01476
510.06        20.21561
510.50        20.29277
510.94         20.2882
511.38        20.23352
511.82          20.178
512.26        20.14549
512.70        20.11629
513.14        20.12007
513.58        20.20657
514.02         20.3657
514.46        20.57625
514.90        20.76534
515.34        20.77948
515.78        20.56717
516.22        20.33369
516.66        20.16978
517.10        19.77016
517.54        19.16745
517.98        19.97289
518.42        19.79492
518.86        20.16656
519.30        20.35164
519.74        20.57905
520.18        20.79049
520.62        20.86179
521.06        20.80382
521.50        20.62815
521.93        20.40375
522.37        20.25866
522.81        20.22644
523.25        20.27321
523.69        20.36183
524.13        20.43093
524.57        20.45864
525.01         20.4656
525.45         20.4515
525.89        20.41417
526.32        20.35482
526.76        20.26982
527.20        20.17385
527.64        20.10098
528.08        20.06174
528.52        20.03132
528.96        19.98553
529.40        19.93988
529.83        19.90066
530.27        19.66393
530.71        19.63632
531.15        19.53028
531.59        19.47062
532.03         19.4373
532.46        19.43799
532.90        19.48461
533.34         19.5626
533.78        19.66337
534.22        19.75158
534.66        19.77665
535.09        19.72543
535.53        19.62173
535.97        19.48956
536.41        19.37343
536.85        19.29343
537.28        19.24431
537.72        19.22886
538.16        19.24951
538.60        19.30379
539.04        19.37513
539.47         19.4589
539.91        19.59696
540.35        19.76392
540.79        19.87631
541.22        19.93408
541.66        20.01785
542.10        20.12917
542.54        20.21311
542.97         20.2853
543.41        20.40651
543.85        20.57866
544.29         20.7971
544.72        21.00995
545.16        21.14318
545.60        21.18513
546.04        21.15569
546.47        21.14179
546.91        21.29116
547.35        21.61709
547.79        22.07312
548.22        22.53184
548.66        22.77429
549.10        22.77121
549.53         22.6271
549.97        22.46844
550.41        22.43225
550.84        22.56702
551.28        22.84122
551.72        23.19994
552.15        23.53963
552.59        23.81253
553.03         24.0417
553.46         24.2231
553.90        24.37094
554.34        24.49801
554.77        24.57223
555.21         24.5989
555.65        24.66487
556.08        24.79208
556.52        24.66201
556.96        24.86235
557.39        24.94104
557.83        25.07639
558.27        25.23893
558.70        25.41928
559.14        25.58596
559.57        25.71629
560.01        25.82697
560.45        25.89965
560.88        25.90698
561.32        25.87328
561.75        25.79717
562.19        25.73029
562.63        25.71902
563.06         25.7713
563.50        25.86992
563.93        25.99701
564.37        26.15534
564.80        26.31581
565.24        26.44781
565.68        26.54043
566.11        26.62346
566.55        26.71793
566.98        26.78045
567.42        26.85596
567.85        27.04446
568.29        27.35648
568.72        27.63452
569.16         27.8739
569.60        28.21091
570.03        28.51769
570.47        28.47438
570.90        28.23818
571.34        27.89819
571.77        28.31363
572.21        28.46361
572.64        28.63042
573.08        28.30416
573.51        27.60945
573.95        28.78121
574.38        30.40056
574.82         29.8181
