SpectraSmart Spectrum 2.9.0.0
--------- Device Information -----------
Spectrum Name :  反射率_0
Saving Time :  2024/04/26 00:40:43
Spectro-Module Model Name : SE2030-DUVN
Spectro-Module Serial Number : OS361AC55029948
Wavelength Start : 200
Wavelength End : 1025
Wavelength Unit : Wavelength(nm)
Spectrum Unit : Reflectance(%)
-----------Spectrum Setting ------------
Integration Time : 20ms
Average : 10
Boxcar : 0
Background removal :  enabled
linearity correction :  enabled
SC :  disabled
Intensity correction :  disabled
DWT denoise :  enabled
savitzky-golay :  disabled
FFT :  disabled
Running average :  disabled
Kalman :  disabled
High pass :  disabled
---------------BEGIN--------------------
Wavelength(nm)             Reflectance(%)
200.29               0
200.75        76.35969
201.21        70.61117
201.67        64.16426
202.13        60.54924
202.58        60.09827
203.04        62.20847
203.50        65.14352
203.96         65.9093
204.42        64.04282
204.88        60.87089
205.34        57.91004
205.80        56.53603
206.26         57.0406
206.72        59.90149
207.18        66.18471
207.64         71.1036
208.10        65.99889
208.55        57.65973
209.01         52.7585
209.47        51.67788
209.93        52.96489
210.39        56.08587
210.85        59.57695
211.31        60.27519
211.77        57.24848
212.23        51.57412
212.69        46.37776
213.14        46.57234
213.60        52.68688
214.06        63.42568
214.52        74.61676
214.98        79.91187
215.44        78.05473
215.90        71.23412
216.36         63.3408
216.81        59.82091
217.27        61.66729
217.73        66.61555
218.19        71.44856
218.65        72.09756
219.11        67.26718
219.57        56.60404
220.02        41.46877
220.48        30.92489
220.94        30.76347
221.40        39.17089
221.86        48.33047
222.32        49.71818
222.77        43.96367
223.23        35.49867
223.69        28.79569
224.15        28.40937
224.61        33.72065
225.06        42.30544
225.52        50.65182
225.98        54.30893
226.44         52.5416
226.90        47.35236
227.36        41.29322
227.81        37.79645
228.27        37.93023
228.73        40.30166
229.19        43.74041
229.65        46.50708
230.10        48.02921
230.56        48.95552
231.02        49.56625
231.48        50.13517
231.93         50.7373
232.39        51.19787
232.85        51.56227
233.31        52.02409
233.77        52.56262
234.22         53.1433
234.68        53.48048
235.14        52.98166
235.60        51.57204
236.05        49.56352
236.51        47.39535
236.97         45.5211
237.43        44.04414
237.88        42.91441
238.34         42.1578
238.80        42.04427
239.26        42.63688
239.71        43.85636
240.17        45.39388
240.63        47.11192
241.08        48.85738
241.54        50.54543
242.00        51.48358
242.46        50.50988
242.91        46.65371
243.37         36.2972
243.83        9.989508
244.28       -38.46149
244.74       -25.25661
245.20         51.4483
245.66         81.8157
246.11        90.59486
246.57        92.71254
247.03        89.76045
247.48        62.20125
247.94        24.01888
248.40        41.55457
248.85         52.4146
249.31        58.36507
249.77        63.15422
250.22        68.61136
250.68        76.71848
251.14        87.28861
251.59        92.62588
252.05          86.133
252.51        71.81747
252.96        57.13303
253.42        48.59472
253.88        45.52021
254.33        45.56454
254.79         48.5363
255.25        53.46773
255.70        58.96004
256.16        64.78011
256.62        68.50877
257.07        67.70839
257.53         63.4489
257.99        56.85925
258.44        50.76434
258.90        49.13491
259.35         50.8783
259.81        54.01394
260.27        55.87789
260.72        53.96488
261.18        49.16821
261.63        42.87383
262.09        37.13087
262.55        33.69049
263.00        32.49744
263.46        32.66083
263.91        33.07679
264.37        32.78743
264.83        31.64628
265.28        29.94329
265.74        28.31104
266.19        27.44973
266.65         27.5109
267.11        28.06725
267.56        28.57364
268.02        28.38411
268.47        27.42665
268.93         25.9522
269.38        24.31571
269.84         23.3325
270.30        23.20698
270.75        23.69411
271.21        24.37482
271.66        24.63324
272.12        24.29969
272.57        23.58304
273.03        22.76227
273.48        22.18116
273.94        21.95596
274.39        21.92375
274.85        21.95177
275.31        21.85535
275.76        21.57562
276.22        21.21076
276.67        20.80496
277.13        20.48696
277.58        20.24786
278.04        20.06858
278.49        19.87842
278.95        19.62472
279.40        19.27552
279.86        18.89886
280.31        18.50578
280.77        18.20623
281.22        17.98532
281.68        17.83303
282.13        17.71276
282.59        17.59416
283.04        17.46308
283.50         17.3486
283.95        17.22607
284.41        17.07112
284.86        16.87498
285.32        16.64487
285.77        16.43693
286.22        16.38741
286.68        16.48979
287.13        16.69182
287.59        16.84462
288.04        16.72853
288.50        16.33556
288.95        15.73372
289.41        15.11812
289.86        14.68995
290.32        14.53937
290.77        14.58341
291.22        14.74271
291.68        14.86141
292.13        14.90217
292.59        14.90639
293.04        14.93783
293.50        15.09572
293.95        15.38688
294.40        15.74823
294.86        16.08684
295.31        16.27691
295.77         16.2976
296.22        16.20018
296.68        16.06163
297.13        15.97668
297.58        15.99972
298.04        16.11944
298.49        16.32793
298.95        16.64003
299.40         17.0343
299.85         17.4965
300.31        17.97755
300.76        18.41606
301.21        18.77083
301.67        19.06262
302.12        19.26119
302.58        19.36298
303.03        19.37116
303.48        19.30528
303.94        19.25836
304.39        19.34635
304.84        19.59151
305.30        19.94765
305.75        20.30488
306.20        20.49429
306.66        20.49771
307.11        20.36859
307.57        20.20011
308.02        20.07493
308.47         20.0448
308.93        20.07319
309.38        20.16648
309.83        20.36069
310.29        20.62923
310.74        20.94933
311.19        21.23113
311.65         21.3364
312.10        21.24196
312.55        20.99303
313.00        20.65841
313.46        20.36435
313.91        20.15252
314.36        20.00791
314.82        19.94636
315.27        19.98158
315.72        20.10618
316.18        20.31375
316.63        20.54753
317.08        20.68967
317.53        20.70525
317.99        20.60752
318.44        20.46388
318.89        20.39044
319.35        20.41158
319.80        20.50172
320.25        20.58002
320.70        20.51344
321.16        20.27943
321.61        19.92691
322.06        19.56514
322.51        19.35595
322.97         19.3276
323.42        19.43812
323.87        19.58096
324.32        19.57693
324.78        19.37893
325.23        19.04497
325.68        18.67271
326.13        18.42292
326.59         18.3382
327.04        18.38357
327.49        18.48864
327.94        18.53743
328.39        18.49619
328.85        18.39767
329.30        18.31096
329.75        18.32409
330.20        18.45939
330.66        18.66118
331.11        18.89242
331.56        19.05898
332.01        19.12758
332.46        19.11143
332.92        19.03346
333.37        18.95023
333.82        18.88258
334.27        18.83536
334.72        18.77561
335.17          18.649
335.63        18.45399
336.08        18.21423
336.53          18.036
336.98        18.08523
337.43        18.38305
337.88        18.87892
338.34        19.37926
338.79        19.60928
339.24         19.4797
339.69        19.06331
340.14         18.5699
340.59        18.37082
341.05        18.54789
341.50        18.98256
341.95        19.46766
342.40        19.69901
342.85        19.61099
343.30        19.32004
343.75        18.93816
344.20        18.65808
344.66        18.54677
345.11        18.50184
345.56        18.52456
346.01        18.61741
346.46        18.75197
346.91        18.95151
347.36        19.07035
347.81        18.86895
348.26        18.34014
348.72        17.59485
349.17        16.86765
349.62        16.62897
350.07        16.97671
350.52        17.74571
350.97        18.66719
351.42        19.32799
351.87        19.60449
352.32        19.61041
352.77        19.43645
353.22        19.23369
353.67         19.0649
354.13        18.88425
354.58        18.69578
355.03        18.54981
355.48        18.45695
355.93        18.43519
356.38        18.44745
356.83        18.41437
357.28         18.3168
357.73        18.16772
358.18        18.01562
358.63        17.94004
359.08        17.95559
359.53        18.03918
359.98        18.11994
360.43        18.09055
360.88        17.93255
361.33        17.67694
361.78        17.41868
362.23         17.3115
362.68        17.38021
363.13        17.56552
363.58         17.7532
364.03        17.76599
364.48         17.5672
364.93         17.2257
365.38        16.82862
365.83         16.5135
366.28         16.3302
366.73        16.23817
367.18        16.22477
367.63         16.2692
368.08        16.34588
368.53        16.45428
368.98        16.55448
369.43        16.57934
369.88        16.51837
370.33        16.39412
370.78        16.22873
371.23        16.06876
371.68        15.93709
372.13        15.81646
372.58        15.74987
373.03        15.80509
373.48        15.97865
373.93        16.24585
374.38        16.49516
374.83        16.55344
375.28        16.39202
375.72        16.05519
376.17        15.68345
376.62        15.46798
377.07        15.46335
377.52        15.60548
377.97        15.81809
378.42        15.97545
378.87         16.0325
379.32        16.03108
379.77         15.9845
380.22         15.9082
380.67        15.81497
381.11        15.69598
381.56        15.56899
382.01        15.47876
382.46        15.43254
382.91        15.41688
383.36        15.41194
383.81        15.37891
384.26        15.30986
384.71        15.22869
385.15        15.12505
385.60        14.99062
386.05         14.8262
386.50        14.62615
386.95        14.45601
387.40        14.42824
387.85        14.55248
388.29        14.78073
388.74        14.99871
389.19        15.04318
389.64        14.89649
390.09        14.60312
390.54        14.28385
390.98        14.14393
391.43        14.23981
391.88        14.49374
392.33        14.76819
392.78        14.86135
393.23         14.7418
393.67        14.47773
394.12        14.20487
394.57        14.05827
395.02        14.06754
395.47        14.18176
395.91         14.3329
396.36        14.38454
396.81        14.30103
397.26        14.11815
397.71        13.90624
398.15        13.75133
398.60        13.69468
399.05        13.71087
399.50        13.73097
399.95        13.62004
400.39        13.42301
400.84        13.13003
401.29        12.85714
401.74        12.78746
402.18        12.97098
402.63         13.3261
403.08        13.71636
403.53        13.92479
403.97        13.89508
404.42         13.6923
404.87         13.4084
405.32        13.20556
405.76          13.137
406.21         13.1543
406.66        13.21343
407.11        13.25737
407.55        13.27058
408.00        13.27191
408.45        13.26412
408.90        13.23821
409.34        13.19538
409.79        13.13418
410.24        13.07374
410.68        13.04426
411.13        13.05369
411.58         13.0977
412.03        13.15494
412.47        13.18879
412.92        13.17949
413.37        13.13605
413.81        13.08649
414.26        13.08917
414.71         13.1446
415.15        13.23727
415.60        13.30728
416.05        13.27803
416.49        13.13562
416.94        12.92177
417.39        12.69009
417.83        12.53263
418.28        12.48633
418.73        12.51313
419.17        12.59763
419.62        12.70667
420.07        12.82228
420.51        12.95074
420.96        13.04633
421.41        13.02811
421.85         12.8853
422.30        12.66649
422.74        12.43656
423.19        12.31871
423.64        12.32296
424.08        12.41924
424.53         12.5535
424.98         12.6543
425.42        12.69785
425.87        12.70249
426.31        12.66423
426.76        12.61641
427.21        12.54821
427.65        12.36334
428.10        12.17074
428.54          12.222
428.99        12.53746
429.44        13.01419
429.88        13.45023
430.33        13.57164
430.77        13.33576
431.22        12.83825
431.66        12.29718
432.11         12.0855
432.56        12.24662
433.00        12.60727
433.45        12.99258
433.89        13.25907
434.34         13.2939
434.78        13.02753
435.23        12.67437
435.67        12.65649
436.12        12.93793
436.57        13.06152
437.01        12.96525
437.46        12.87659
437.90        12.81905
438.35         12.7342
438.79        12.63779
439.24        12.58927
439.68        12.60253
440.13        12.60544
440.57        12.61088
441.02        12.80889
441.46        13.09127
441.91        13.00214
442.35        12.61042
442.80        12.40422
443.24        12.36752
443.69        12.31681
444.13        12.21895
444.58        12.02977
445.02        11.80704
445.47         11.8049
445.91        11.96867
446.36        11.99322
446.80        11.85217
447.24        11.71391
447.69        11.61927
448.13        11.55058
448.58        11.52502
449.02        11.54543
449.47        11.58034
449.91         11.5776
450.36        11.53042
450.80        11.45031
451.25        11.38583
451.69        11.40191
452.13        11.50946
452.58         11.6705
453.02        11.83501
453.47        11.92127
453.91        11.91407
454.36        11.84395
454.80        11.73566
455.24        11.63326
455.69        11.56326
456.13        11.50476
456.58        11.48685
457.02        11.53421
457.46        11.64873
457.91        11.81769
458.35        11.98445
458.79        12.04792
459.24         11.9992
459.68        11.85631
460.13        11.70315
460.57        11.63672
461.01        11.69385
461.46        11.83609
461.90        12.00643
462.34        12.10251
462.79        12.09791
463.23        12.01686
463.68        11.92491
464.12        11.93012
464.56        12.05722
465.01        12.27036
465.45        12.46459
465.89        12.53264
466.34        12.46737
466.78        12.24191
467.22        11.97814
467.67        11.99125
468.11        12.25438
468.55        12.39171
468.99        12.36208
469.44         12.3501
469.88        12.39472
470.32        12.54078
470.77        12.73081
471.21        12.77935
471.65        12.66586
472.10         12.5268
472.54        12.42027
472.98        12.40309
473.42        12.49684
473.87        12.68622
474.31        12.90487
474.75        13.04138
475.20        13.07286
475.64        13.02328
476.08        12.95154
476.52        12.94926
476.97        13.03761
477.41        13.19107
477.85        13.34893
478.29        13.43975
478.74         13.4482
479.18        13.33438
479.62        13.16828
480.06        13.27832
480.50        13.40787
480.95        13.56915
481.39         13.6252
481.83        13.64864
482.27        13.63179
482.72        13.47427
483.16        13.25918
483.60        13.30859
484.04        13.64334
484.48         13.8306
484.93        14.01496
485.37        14.41966
485.81        14.94777
486.25        14.97163
486.69        19.56177
487.14        15.60464
487.58        10.40622
488.02        12.60782
488.46        14.15704
488.90        14.20773
489.34        14.44388
489.79        14.41314
490.23        15.07434
490.67        15.50485
491.11        15.49834
491.55        15.39101
491.99        15.17316
492.43        14.99175
492.88        14.92401
493.32         14.9939
493.76        15.09772
494.20        15.33496
494.64        15.64937
495.08        16.01067
495.52        16.37525
495.96        16.69612
496.41        16.91184
496.85        17.01358
497.29        17.01909
497.73        16.79598
498.17         16.5595
498.61         16.7149
499.05        17.26304
499.49        17.39572
499.93        17.52563
500.37        17.67831
500.82        17.78978
501.26        18.01412
501.70        18.25533
502.14        18.36814
502.58        18.34442
503.02        18.34952
503.46        18.39521
503.90         18.3817
504.34        18.32872
504.78        18.31351
505.22        18.34719
505.66         18.4184
506.10         18.5006
506.54        18.54541
506.98        18.54481
507.42         18.5163
507.86        18.50639
508.30        18.58655
508.74        18.76541
509.18         19.0119
509.62         19.2697
510.06        19.44678
510.50        19.51938
510.94        19.52212
511.38        19.48604
511.82        19.46136
512.26        19.46794
512.70        19.48384
513.14        19.52697
513.58        19.62696
514.02        19.77139
514.46        19.94883
514.90        20.09843
515.34        20.08571
515.78        19.86624
516.22        19.64001
516.66        19.50324
517.10         19.1554
517.54        18.62364
517.98        19.52155
518.42        19.41713
518.86        19.81302
519.30        19.96364
519.74        20.11511
520.18        20.23006
520.62        20.21868
521.06        20.10694
521.50        19.89877
521.93        19.67143
522.37        19.56405
522.81        19.60552
523.25        19.75611
523.69        19.94965
524.13        20.07995
524.57        20.11493
525.01        20.08489
525.45        20.01338
525.89        19.93996
526.32        19.87867
526.76        19.81565
527.20        19.74923
527.64         19.6876
528.08        19.63443
528.52        19.57371
528.96        19.49847
529.40        19.44711
529.83         19.4311
530.27        19.24592
530.71        19.26626
531.15        19.17604
531.59        19.09267
532.03        19.00642
532.46        18.96021
532.90        19.02379
533.34        19.19078
533.78        19.42855
534.22        19.65396
534.66        19.74638
535.09        19.67762
535.53        19.49357
535.97        19.25495
536.41        19.06427
536.85         18.9593
537.28        18.91949
537.72        18.92518
538.16        18.94271
538.60        18.96092
539.04        18.97759
539.47         19.0095
539.91        19.12675
540.35        19.30881
540.79        19.46159
541.22         19.5608
541.66        19.64951
542.10        19.72173
542.54        19.73605
542.97        19.73087
543.41        19.80125
543.85        19.95836
544.29        20.18707
544.72        20.42034
545.16        20.55995
545.60        20.58802
546.04        20.53303
546.47        20.49106
546.91        20.62359
547.35        20.94666
547.79        21.40548
548.22        21.86698
548.66        22.10526
549.10        22.08749
549.53        21.92022
549.97        21.72807
550.41        21.64558
550.84         21.7232
551.28         21.9323
551.72        22.22696
552.15        22.51975
552.59        22.76832
553.03        22.99209
553.46        23.18281
553.90         23.3459
554.34        23.48994
554.77        23.58471
555.21        23.63119
555.65        23.70633
556.08        23.83023
556.52          23.698
556.96        23.87995
557.39        23.95188
557.83        24.08643
558.27         24.2508
558.70        24.43343
559.14        24.59833
559.57        24.72332
560.01        24.83121
560.45        24.89911
560.88        24.89196
561.32         24.8342
561.75        24.72527
562.19        24.63705
562.63        24.64511
563.06        24.75791
563.50        24.95486
563.93        25.17862
564.37        25.34813
564.80        25.43185
565.24        25.46462
565.68        25.46693
566.11         25.4733
566.55        25.51623
566.98        25.57814
567.42        25.67999
567.85        25.83695
568.29        26.04572
568.72        26.27865
569.16        26.56651
569.60        26.85084
570.03        26.97475
570.47        27.36362
570.90        27.02494
571.34        26.61447
571.77        27.14817
572.21         27.2099
572.64        27.21608
573.08        27.03884
573.51        26.11094
573.95        27.29583
574.38        29.03399
574.82        28.34735
