SpectraSmart Spectrum 2.9.0.0
--------- Device Information -----------
Spectrum Name :  反射率_0
Saving Time :  2024/04/26 00:45:27
Spectro-Module Model Name : SE2030-DUVN
Spectro-Module Serial Number : OS361AC55029948
Wavelength Start : 200
Wavelength End : 1025
Wavelength Unit : Wavelength(nm)
Spectrum Unit : Reflectance(%)
-----------Spectrum Setting ------------
Integration Time : 20ms
Average : 10
Boxcar : 0
Background removal :  enabled
linearity correction :  enabled
SC :  disabled
Intensity correction :  disabled
DWT denoise :  enabled
savitzky-golay :  disabled
FFT :  disabled
Running average :  disabled
Kalman :  disabled
High pass :  disabled
---------------BEGIN--------------------
Wavelength(nm)             Reflectance(%)
200.29               0
200.75        80.96617
201.21        76.58833
201.67        71.05931
202.13        67.49898
202.58        66.36631
203.04        67.23555
203.50        68.95811
203.96        69.60035
204.42         68.7821
204.88        67.25053
205.34        66.05359
205.80        66.33722
206.26        68.66621
206.72        74.35233
207.18        85.24847
207.64        93.33522
208.10        84.20922
208.55        69.25583
209.01        60.11922
209.47        56.85815
209.93        56.81897
210.39        59.00229
210.85        61.47066
211.31        60.39146
211.77        54.98649
212.23        46.83006
212.69        39.68784
213.14        39.41901
213.60        46.71449
214.06        59.77848
214.52        74.19722
214.98        83.20923
215.44        85.00078
215.90        81.68835
216.36        76.05853
216.81        71.96136
217.27        70.77501
217.73        71.28703
218.19        71.92095
218.65        70.62108
219.11        66.57658
219.57           59.29
220.02        50.15657
220.48        46.23449
220.94        50.70319
221.40        61.22394
221.86        69.86723
222.32        68.76409
222.77        59.54348
223.23        47.34054
223.69        37.28185
224.15         34.5704
224.61        38.58411
225.06        46.58409
225.52        55.14316
225.98        59.94891
226.44        60.06298
226.90          57.243
227.36        53.41495
227.81        51.11478
228.27        51.29579
228.73        52.89619
229.19        55.07985
229.65        56.70528
230.10        57.41625
230.56        57.66984
231.02        57.92694
231.48        58.69034
231.93        59.92885
232.39        61.43016
232.85        62.64764
233.31        62.83789
233.77        61.81955
234.22        59.76295
234.68         57.2093
235.14         55.2701
235.60        54.42107
236.05        54.51602
236.51        54.91014
236.97         54.4923
237.43        52.95892
237.88        50.51561
238.34         47.8354
238.80        47.09082
239.26        49.33669
239.71        54.07544
240.17        59.65065
240.63        63.54281
241.08        64.90646
241.54        64.34736
242.00        62.63878
242.46        60.69783
242.91        58.67903
243.37        54.78247
243.83        47.48863
244.28        46.11908
244.74        84.66467
245.20        114.5041
245.66        117.8574
246.11        119.5662
246.57        124.6138
247.03        136.9617
247.48        164.5587
247.94        129.7863
248.40        95.50319
248.85        86.87533
249.31        85.28687
249.77        86.15502
250.22        88.60673
250.68        93.31774
251.14        99.35503
251.59        100.0917
252.05        91.28636
252.51          77.139
252.96        64.76756
253.42        60.10633
253.88        61.89061
254.33        67.48409
254.79        74.64285
255.25        79.62988
255.70        81.41236
256.16         81.6966
256.62        80.33117
257.07        76.99507
257.53        72.57899
257.99        67.15079
258.44        62.25136
258.90         60.5241
259.35        60.98672
259.81        62.52022
260.27        63.16475
260.72        61.04293
261.18        56.89485
261.63        51.57221
262.09        46.72927
262.55        43.63644
263.00        42.22603
263.46        41.92357
263.91        41.78558
264.37        41.06293
264.83        39.61431
265.28        37.66243
265.74        35.83149
266.19        34.80048
266.65        34.74217
267.11        35.22349
267.56        35.69708
268.02        35.54132
268.47         34.6539
268.93        33.27615
269.38        31.70601
269.84        30.65987
270.30        30.33389
270.75        30.53303
271.21        30.91114
271.66        30.95787
272.12        30.53465
272.57        29.80433
273.03        29.05346
273.48        28.62134
273.94         28.6056
274.39        28.83903
274.85        29.09017
275.31        29.01678
275.76        28.54851
276.22        27.84056
276.67        27.09371
277.13        26.68906
277.58        26.63389
278.04        26.81716
278.49        26.98738
278.95        26.85968
279.40        26.35977
279.86        25.66343
280.31        24.89566
280.77        24.35319
281.22        24.05892
281.68         23.9372
282.13        23.89531
282.59         23.8443
283.04        23.73766
283.50        23.63875
283.95        23.49883
284.41        23.26149
284.86        22.92059
285.32        22.50082
285.77        22.10805
286.22        21.96787
286.68        22.08557
287.13        22.36639
287.59         22.6195
288.04        22.54939
288.50        22.13213
288.95        21.45897
289.41        20.72974
289.86        20.14056
290.32        19.80091
290.77        19.62994
291.22        19.60168
291.68        19.63847
292.13        19.71545
292.59         19.8606
293.04        20.07681
293.50        20.36506
293.95        20.70639
294.40        21.06048
294.86        21.39644
295.31        21.68597
295.77        21.92424
296.22        22.12336
296.68        22.28275
297.13        22.37414
297.58        22.42404
298.04        22.46655
298.49        22.56708
298.95        22.85782
299.40        23.34631
299.85        23.98145
300.31        24.67163
300.76        25.28238
301.21        25.75134
301.67        26.13374
302.12        26.40593
302.58        26.58609
303.03        26.68065
303.48        26.69922
303.94        26.75761
304.39        27.00226
304.84        27.45684
305.30        28.06674
305.75        28.66428
306.20        28.99729
306.66        29.03418
307.11        28.84323
307.57        28.59125
308.02        28.45905
308.47        28.51946
308.93        28.70584
309.38        28.94589
309.83        29.15787
310.29        29.29766
310.74        29.38659
311.19        29.42205
311.65        29.39395
312.10        29.30675
312.55        29.16649
313.00        28.97643
313.46         28.7562
313.91        28.51577
314.36        28.27468
314.82        28.09496
315.27        28.05239
315.72        28.15989
316.18        28.38822
316.63        28.65506
317.08        28.80252
317.53         28.7852
317.99        28.63191
318.44        28.43468
318.89        28.34709
319.35        28.39746
319.80        28.54552
320.25        28.68093
320.70        28.62387
321.16        28.34061
321.61        27.89901
322.06        27.42718
322.51        27.11598
322.97        27.00239
323.42        27.03707
323.87        27.12058
324.32        27.08684
324.78         26.8875
325.23        26.58293
325.68        26.24212
326.13        25.97899
326.59        25.82504
327.04        25.76036
327.49        25.74727
327.94        25.73039
328.39        25.69071
328.85         25.6376
329.30        25.61661
329.75        25.66146
330.20        25.77807
330.66        25.93148
331.11        26.09465
331.56        26.18375
332.01        26.17517
332.46        26.07427
332.92        25.92672
333.37        25.84929
333.82        25.86633
334.27        25.96791
334.72        26.06462
335.17        26.00262
335.63        25.75344
336.08        25.37294
336.53        25.01408
336.98        24.92449
337.43        25.15038
337.88        25.61395
338.34        26.11095
338.79         26.3527
339.24        26.23907
339.69        25.85939
340.14        25.39534
340.59        25.16535
341.05        25.25177
341.50         25.5528
341.95        25.92591
342.40        26.16721
342.85        26.22325
343.30        26.17063
343.75        26.05477
344.20        25.95004
344.66        25.88493
345.11        25.79617
345.56        25.71085
346.01        25.67324
346.46        25.68045
346.91        25.74476
347.36        25.76051
347.81        25.55152
348.26        25.11644
348.72        24.55065
349.17        24.02269
349.62        23.88605
350.07        24.20933
350.52        24.85946
350.97        25.63068
351.42        26.21029
351.87        26.50008
352.32        26.58247
352.77        26.50536
353.22        26.35373
353.67        26.17131
354.13         25.9335
354.58        25.67488
355.03        25.49324
355.48        25.40958
355.93        25.42523
356.38        25.46833
356.83         25.4073
357.28         25.2145
357.73        24.92352
358.18         24.6257
358.63        24.46605
359.08         24.4734
359.53        24.60285
359.98        24.74426
360.43        24.72903
360.88        24.52269
361.33        24.17495
361.78        23.80809
362.23        23.62042
362.68        23.64925
363.13        23.81933
363.58        23.99775
364.03        23.97923
364.48         23.7196
364.93        23.29927
365.38        22.81701
365.83        22.42756
366.28        22.18631
366.73        22.04627
367.18        21.99235
367.63        21.99967
368.08         22.0434
368.53        22.13113
368.98        22.21868
369.43         22.2305
369.88        22.15538
370.33         22.0126
370.78        21.84315
371.23        21.72682
371.68        21.68616
372.13        21.68761
372.58        21.72811
373.03        21.79977
373.48        21.88334
373.93         21.9826
374.38        22.03161
374.83         21.9264
375.28        21.65959
375.72        21.25707
376.17        20.84963
376.62         20.6115
377.07        20.58786
377.52         20.7226
377.97        20.92525
378.42        21.04553
378.87        21.03547
379.32        20.94121
379.77        20.79838
380.22         20.6573
380.67        20.53583
381.11        20.41557
381.56        20.29334
382.01        20.17778
382.46        20.07187
382.91        19.98078
383.36        19.90521
383.81        19.83961
384.26        19.78142
384.71        19.73175
385.15         19.6755
385.60        19.60486
386.05        19.50996
386.50        19.38836
386.95        19.26025
387.40        19.16427
387.85        19.11377
388.29        19.09718
388.74         19.0917
389.19        19.03374
389.64        18.91419
390.09        18.74017
390.54        18.57176
390.98        18.50887
391.43        18.57638
391.88        18.73207
392.33        18.87489
392.78         18.8563
393.23        18.66495
393.67        18.35222
394.12        18.05352
394.57        17.89403
395.02        17.90029
395.47        18.02539
395.91        18.20813
396.36        18.31326
396.81        18.30238
397.26        18.20388
397.71        18.06762
398.15        17.94975
398.60        17.89283
399.05        17.87973
399.50        17.86603
399.95        17.74084
400.39        17.57389
400.84        17.33341
401.29        17.11958
401.74        17.07622
402.18        17.24306
402.63        17.54929
403.08         17.8854
403.53        18.07429
403.97        18.07029
404.42        17.92685
404.87        17.71198
405.32        17.54685
405.76        17.47253
406.21        17.45487
406.66         17.4759
407.11        17.51808
407.55        17.57408
408.00        17.64911
408.45        17.71692
408.90        17.71292
409.34        17.62464
409.79        17.47432
410.24        17.31955
410.68        17.24208
411.13        17.26275
411.58        17.36093
412.03        17.49719
412.47        17.60207
412.92        17.63814
413.37        17.62508
413.81        17.59416
414.26        17.61177
414.71        17.68051
415.15        17.77821
415.60        17.84814
416.05        17.82116
416.49        17.68551
416.94        17.48306
417.39        17.25904
417.83        17.08967
418.28        17.00947
418.73        16.98536
419.17        17.02003
419.62        17.10933
420.07        17.23981
420.51        17.41417
420.96         17.5616
421.41        17.55986
421.85        17.38928
422.30        17.11441
422.74         16.8351
423.19        16.73293
423.64        16.82395
424.08        17.06466
424.53        17.35345
424.98        17.53962
425.42        17.57633
425.87        17.49637
426.31        17.35303
426.76        17.28155
427.21        17.28926
427.65        17.22362
428.10        17.14826
428.54        17.28628
428.99        17.64431
429.44        18.08845
429.88        18.44695
430.33        18.59687
430.77        18.45724
431.22        17.90372
431.66        17.20476
432.11        16.99464
432.56        17.32053
433.00        17.83724
433.45        18.30342
433.89        18.62752
434.34        18.65309
434.78        18.17792
435.23        17.53424
435.67        17.42353
436.12        17.79698
436.57        17.97218
437.01        17.86609
437.46         17.8112
437.90        17.83132
438.35        17.83369
438.79        17.80416
439.24        17.76989
439.68        17.74422
440.13        17.64762
440.57        17.54207
441.02        17.76018
441.46        18.17072
441.91        18.13127
442.35        17.70856
442.80        17.51372
443.24        17.53453
443.69        17.58648
444.13        17.60216
444.58        17.41385
445.02        17.09736
445.47        17.06647
445.91        17.27252
446.36        17.30807
446.80        17.14944
447.24        17.03245
447.69        16.99237
448.13        16.96917
448.58        16.97423
449.02        17.01705
449.47        17.07067
449.91        17.09085
450.36        17.06964
450.80        17.01194
451.25        16.95026
451.69        16.92401
452.13        16.94534
452.58        16.99203
453.02         17.0402
453.47        17.05071
453.91        17.01831
454.36        16.96292
454.80        16.89678
455.24        16.83729
455.69        16.80275
456.13        16.77853
456.58        16.79439
457.02        16.86986
457.46        17.00854
457.91         17.1906
458.35        17.36846
458.79        17.46209
459.24        17.46366
459.68        17.38276
460.13        17.27744
460.57        17.19644
461.01        17.17649
461.46        17.20162
461.90        17.25371
462.34          17.295
462.79        17.31116
463.23        17.30501
463.68        17.31734
464.12        17.41556
464.56        17.60323
465.01        17.86353
465.45         18.0721
465.89          18.116
466.34        17.99572
466.78        17.65217
467.22        17.26108
467.67        17.27836
468.11        17.66363
468.55         17.8812
468.99        17.85072
469.44         17.8035
469.88        17.79086
470.32        17.88485
470.77        18.04256
471.21         18.0631
471.65        17.93244
472.10         17.8215
472.54        17.76606
472.98        17.76421
473.42        17.82934
473.87        17.96862
474.31        18.13674
474.75        18.25638
475.20        18.31314
475.64        18.31599
476.08         18.3051
476.52        18.34329
476.97        18.44591
477.41        18.59708
477.85        18.74838
478.29         18.8587
478.74        18.91818
479.18        18.84707
479.62        18.70617
480.06        18.90337
480.50         19.0629
480.95        19.23153
481.39        19.23871
481.83        19.21239
482.27        19.14983
482.72        18.91106
483.16        18.61672
483.60        18.67152
484.04        19.09352
484.48        19.39355
484.93        19.73315
485.37        20.15055
485.81        20.58971
486.25        20.78035
486.69        28.68185
487.14        22.94443
487.58        14.47141
488.02        17.63855
488.46        20.10132
488.90        19.95796
489.34        20.10562
489.79        19.89698
490.23        20.96762
490.67        21.46288
491.11         21.1912
491.55         21.1037
491.99        21.12837
492.43        21.01378
492.88        20.82331
493.32        20.84256
493.76        20.93692
494.20        21.15001
494.64        21.41204
495.08        21.73405
495.52        22.08185
495.96        22.36963
496.41        22.54672
496.85         22.7241
497.29        22.87387
497.73        22.58737
498.17        22.15001
498.61        22.27749
499.05        22.97662
499.49        23.07601
499.93        23.13362
500.37        23.24131
500.82        23.32234
501.26        23.56101
501.70        23.83345
502.14        23.95681
502.58        23.92111
503.02        23.93959
503.46        24.02469
503.90        24.04256
504.34        24.01054
504.78        24.01969
505.22        24.07985
505.66        24.17328
506.10        24.27018
506.54         24.3182
506.98        24.30861
507.42        24.26151
507.86         24.2259
508.30        24.27682
508.74        24.42373
509.18         24.6333
509.62        24.85266
510.06        24.99488
510.50         25.0379
510.94        25.01927
511.38         24.9594
511.82        24.88976
512.26        24.82987
512.70        24.76467
513.14         24.7373
513.58         24.8198
514.02        25.00557
514.46        25.26384
514.90         25.5024
515.34        25.54061
515.78        25.32247
516.22         25.0536
516.66        24.83911
517.10        24.42424
517.54        23.85028
517.98        24.62473
518.42        24.48736
518.86        24.87043
519.30        25.07436
519.74        25.31735
520.18        25.53913
520.62        25.61354
521.06        25.54964
521.50        25.36055
521.93         25.1183
522.37        24.95588
522.81        24.91096
523.25        24.95114
523.69        25.04069
524.13        25.11958
524.57        25.16534
525.01        25.19617
525.45         25.2121
525.89        25.21095
526.32        25.19115
526.76        25.14821
527.20        25.08552
527.64        25.02202
528.08        24.96778
528.52        24.89791
528.96        24.80634
529.40        24.75033
529.83        24.74528
530.27        24.52792
530.71        24.57835
531.15        24.49682
531.59        24.43066
532.03        24.36695
532.46        24.34298
532.90        24.41569
533.34        24.57679
533.78        24.79934
534.22        25.00866
534.66        25.09745
535.09        25.04031
535.53         24.8808
535.97        24.67503
536.41        24.51987
536.85        24.44965
537.28        24.44369
537.72        24.47952
538.16        24.52052
538.60        24.55434
539.04         24.5746
539.47        24.59821
539.91        24.71181
540.35         24.8905
540.79        25.01793
541.22        25.07888
541.66        25.15248
542.10        25.23518
542.54        25.26883
542.97        25.28338
543.41        25.36853
543.85        25.53125
544.29        25.75848
544.72         25.9846
545.16        26.11683
545.60        26.13746
546.04        26.07199
546.47        26.01823
546.91        26.14201
547.35        26.45909
547.79        26.91736
548.22        27.37537
548.66        27.59167
549.10        27.53438
549.53        27.32238
549.97        27.09456
550.41         26.9968
550.84        27.08221
551.28        27.31861
551.72        27.64617
552.15        27.95055
552.59        28.18435
553.03        28.37769
553.46        28.52855
553.90        28.65852
554.34        28.77973
554.77        28.84909
555.21        28.87377
555.65        28.95854
556.08        29.12547
556.52         28.9971
556.96        29.24345
557.39        29.30141
557.83        29.37968
558.27        29.45693
558.70        29.55695
559.14        29.70008
559.57        29.87263
560.01        30.07572
560.45        30.25795
560.88         30.3391
561.32        30.33104
561.75        30.24584
562.19        30.15637
562.63        30.13284
563.06        30.18965
563.50        30.31011
563.93        30.46787
564.37         30.6286
564.80         30.7641
565.24        30.90944
565.68        31.04917
566.11        31.08159
566.55        31.15726
566.98        31.17813
567.42        31.22578
567.85        31.35711
568.29        31.60656
568.72        31.86818
569.16        32.16735
569.60           32.62
570.03        33.06104
570.47        33.19264
570.90        33.17584
571.34        32.70064
571.77        33.31216
572.21         33.5006
572.64         33.7187
573.08        33.14146
573.51        32.01143
573.95        33.37482
574.38        35.59077
574.82        35.00903
