SpectraSmart Spectrum 2.9.0.0
--------- Device Information -----------
Spectrum Name :  反射率_0
Saving Time :  2024/04/25 23:40:18
Spectro-Module Model Name : SE2030-DUVN
Spectro-Module Serial Number : OS361AC55029948
Wavelength Start : 200
Wavelength End : 1025
Wavelength Unit : Wavelength(nm)
Spectrum Unit : Reflectance(%)
-----------Spectrum Setting ------------
Integration Time : 20ms
Average : 10
Boxcar : 0
Background removal :  enabled
linearity correction :  enabled
SC :  disabled
Intensity correction :  disabled
DWT denoise :  enabled
savitzky-golay :  disabled
FFT :  disabled
Running average :  disabled
Kalman :  disabled
High pass :  disabled
---------------BEGIN--------------------
Wavelength(nm)             Reflectance(%)
200.29               0
200.75        89.27676
201.21        82.28461
201.67        73.71447
202.13        68.02969
202.58        65.86501
203.04        66.17753
203.50        67.83236
203.96        68.98661
204.42        69.00256
204.88        68.55667
205.34        68.07638
205.80        67.89922
206.26        68.16538
206.72        68.96204
207.18        70.03782
207.64        69.04594
208.10        64.70368
208.55        60.65212
209.01        58.93972
209.47        59.22481
209.93         60.7102
210.39        63.49263
210.85        65.90148
211.31        64.36372
211.77        58.22243
212.23        48.88687
212.69        40.25114
213.14        38.36174
213.60        44.07182
214.06        55.96387
214.52        69.55991
214.98        77.82945
215.44        78.96873
215.90        74.97578
216.36        69.35024
216.81        66.98773
217.27        68.91291
217.73        73.19536
218.19        76.85854
218.65        76.07086
219.11        69.52613
219.57        56.52778
220.02        38.92458
220.48        27.61643
220.94        29.25095
221.40        41.22035
221.86        53.39716
222.32         54.9785
222.77        46.99731
223.23        35.20581
223.69        25.30395
224.15        22.99734
224.61         27.6549
225.06        36.32975
225.52        45.00515
225.98        48.61293
226.44         46.2855
226.90        40.24201
227.36        33.43004
227.81        29.80243
228.27        30.47095
228.73        33.83833
229.19         38.1722
229.65        40.96229
230.10        41.62547
230.56        41.15297
231.02        40.47873
231.48        40.60008
231.93          41.601
232.39         43.0291
232.85        44.37634
233.31        44.96605
233.77        44.62746
234.22        43.60352
234.68        42.25988
235.14        41.24692
235.60        40.84777
236.05        40.88893
236.51         41.1424
236.97        41.21652
237.43        41.01904
237.88        40.77175
238.34        40.53659
238.80        40.58375
239.26        41.04478
239.71         41.7904
240.17        42.83657
240.63        44.69416
241.08        47.39972
241.54         50.6898
242.00        53.80004
242.46        55.81215
242.91        56.68849
243.37         55.9162
243.83        53.76991
244.28        62.09461
244.74        101.7402
245.20         117.007
245.66        112.9299
246.11        111.0004
246.57        111.9912
247.03        115.9245
247.48        119.7821
247.94         88.6979
248.40        77.33544
248.85        77.06567
249.31        78.31049
249.77         79.6672
250.22        81.29202
250.68         83.7743
251.14        86.57284
251.59        86.04194
252.05        80.29198
252.51        71.94785
252.96        64.51347
253.42         60.9881
253.88        60.60978
254.33        62.15751
254.79        65.53728
255.25        69.89523
255.70        74.18368
256.16        78.29556
256.62        80.69427
257.07        79.85526
257.53        76.62803
257.99          71.613
258.44        66.59238
258.90        64.47234
259.35        64.41306
259.81        65.34782
260.27        65.37885
260.72        62.69131
261.18        58.05014
261.63          52.292
262.09        47.12672
262.55        43.87934
263.00        42.44513
263.46        42.19515
263.91        42.07267
264.37        41.20596
264.83        39.45231
265.28        37.07809
265.74        34.81199
266.19        33.51321
266.65        33.38308
267.11        33.91894
267.56        34.46232
268.02        34.25101
268.47        33.16829
268.93        31.49714
269.38        29.61111
269.84         28.3712
270.30        28.01221
270.75         28.2785
271.21        28.74645
271.66        28.79152
272.12        28.24325
272.57        27.31433
273.03        26.31362
273.48        25.61402
273.94        25.33756
274.39        25.31474
274.85        25.35279
275.31        25.17551
275.76        24.71426
276.22        24.09323
276.67        23.45969
277.13        23.10188
277.58        23.01603
278.04        23.12258
278.49        23.20258
278.95        23.00579
279.40        22.47738
279.86        21.77178
280.31        21.03589
280.77         20.5912
281.22        20.45591
281.68        20.53425
282.13        20.68685
282.59        20.74806
283.04        20.66714
283.50        20.53182
283.95          20.342
284.41         20.1111
284.86        19.85283
285.32        19.56599
285.77        19.33355
286.22         19.3421
286.68        19.58377
287.13        19.97836
287.59        20.33693
288.04        20.37062
288.50        20.05522
288.95        19.47783
289.41        18.84117
289.86        18.35162
290.32        18.12021
290.77         18.0706
291.22        18.16748
291.68        18.31811
292.13        18.49834
292.59        18.74006
293.04         19.0675
293.50        19.51387
293.95        20.06088
294.40        20.65172
294.86        21.22216
295.31        21.69455
295.77          22.055
296.22        22.33381
296.68        22.55336
297.13         22.7239
297.58        22.88214
298.04        23.04505
298.49        23.27752
298.95        23.71112
299.40        24.35056
299.85        25.15365
300.31        25.99661
300.76        26.69187
301.21        27.17083
301.67        27.49972
302.12        27.72032
302.58        27.95291
303.03        28.21153
303.48        28.46953
303.94        28.75119
304.39        29.06133
304.84        29.40147
305.30        29.76976
305.75        30.09194
306.20        30.26219
306.66        30.28523
307.11        30.18171
307.57        30.05464
308.02        29.98599
308.47        30.02688
308.93        30.14962
309.38        30.31674
309.83        30.49885
310.29        30.66601
310.74        30.81252
311.19        30.92245
311.65          30.971
312.10        30.95101
312.55        30.87114
313.00        30.71954
313.46        30.49035
313.91        30.19107
314.36        29.85111
314.82        29.55322
315.27        29.40445
315.72        29.42833
316.18        29.58896
316.63        29.80309
317.08        29.90873
317.53        29.85774
317.99        29.68287
318.44        29.46586
318.89          29.342
319.35        29.33594
319.80        29.41009
320.25         29.4699
320.70        29.36531
321.16        29.06894
321.61        28.63756
322.06        28.17937
322.51        27.85468
322.97        27.69076
323.42        27.64617
323.87        27.63355
324.32        27.50795
324.78        27.23261
325.23          26.869
325.68        26.47952
326.13        26.16603
326.59        25.95856
327.04        25.83992
327.49        25.79415
327.94        25.80067
328.39        25.84192
328.85         25.9111
329.30        26.00592
329.75        26.08024
330.20        26.11837
330.66        26.10726
331.11        26.06724
331.56        25.99147
332.01        25.88046
332.46        25.72233
332.92        25.53882
333.37        25.40138
333.82        25.31993
334.27        25.30102
334.72        25.27822
335.17        25.13214
335.63        24.84404
336.08        24.45821
336.53        24.10134
336.98           23.98
337.43         24.1327
337.88        24.49632
338.34        24.89588
338.79         25.0912
339.24        24.99214
339.69        24.66447
340.14        24.26691
340.59        24.07906
341.05          24.165
341.50         24.4368
341.95        24.74283
342.40        24.86234
342.85        24.74874
343.30        24.48895
343.75        24.17316
344.20        23.95612
344.66        23.88694
345.11        23.87592
345.56        23.91001
346.01        23.96938
346.46        24.02674
346.91        24.10825
347.36        24.10464
347.81        23.83661
348.26        23.30807
348.72        22.61387
349.17        21.94622
349.62        21.70256
350.07        21.96474
350.52        22.59298
350.97        23.36311
351.42        23.92837
351.87        24.18174
352.32        24.21712
352.77         24.0922
353.22        23.90704
353.67        23.71024
354.13         23.4702
354.58        23.21829
355.03         23.0486
355.48        22.97904
355.93        23.01025
356.38        23.06909
356.83        23.02185
357.28        22.83884
357.73         22.5524
358.18        22.24987
358.63        22.07119
359.08         22.0458
359.53         22.1323
359.98         22.2284
360.43         22.1769
360.88        21.94748
361.33        21.58907
361.78         21.2205
362.23         21.0334
362.68        21.06316
363.13        21.23608
363.58        21.42314
364.03        21.42493
364.48        21.19753
364.93        20.81833
365.38        20.37778
365.83        20.01809
366.28        19.79164
366.73        19.65374
367.18        19.59731
367.63         19.6123
368.08        19.67428
368.53        19.78122
368.98        19.88038
369.43        19.88284
369.88        19.77536
370.33        19.58833
370.78        19.35932
371.23        19.16199
371.68        19.02439
372.13        18.91549
372.58        18.86878
373.03        18.93571
373.48         19.1051
373.93        19.36101
374.38        19.57777
374.83        19.55967
375.28         19.2803
375.72        18.79152
376.17        18.27707
376.62        17.99979
377.07        18.02823
377.52        18.27702
377.97        18.61502
378.42        18.82681
378.87        18.84614
379.32        18.74294
379.77        18.57614
380.22         18.4285
380.67         18.3269
381.11        18.23881
381.56        18.15262
382.01        18.06605
382.46        17.97547
382.91        17.88911
383.36        17.80675
383.81         17.7195
384.26        17.62733
384.71        17.53728
385.15        17.43695
385.60        17.31873
386.05        17.17746
386.50        17.01188
386.95         16.8589
387.40        16.78372
387.85        16.79745
388.29         16.8729
388.74        16.95427
389.19        16.94518
389.64        16.83225
390.09        16.63465
390.54        16.42374
390.98        16.32122
391.43        16.36037
391.88        16.49067
392.33        16.61694
392.78        16.59844
393.23         16.4222
393.67        16.14209
394.12        15.86969
394.57        15.70094
395.02        15.65953
395.47        15.70582
395.91         15.8096
396.36        15.89606
396.81        15.93798
397.26         15.9406
397.71        15.90997
398.15        15.83925
398.60        15.75651
399.05        15.66967
399.50        15.56265
399.95        15.36796
400.39        15.15528
400.84        14.88937
401.29        14.66208
401.74        14.60991
402.18        14.76851
402.63        15.07191
403.08        15.41039
403.53        15.60459
403.97        15.60627
404.42        15.46689
404.87        15.24758
405.32        15.06162
405.76        14.95053
406.21        14.88241
406.66        14.84967
407.11        14.84715
407.55        14.86868
408.00        14.91814
408.45        14.96341
408.90        14.93032
409.34        14.80729
409.79        14.62406
410.24        14.44437
410.68        14.35716
411.13        14.38341
411.58        14.49795
412.03        14.66096
412.47        14.80188
412.92        14.87865
413.37         14.9045
413.81        14.89957
414.26        14.91281
414.71        14.94664
415.15        14.98952
415.60        14.99323
416.05        14.90257
416.49        14.71368
416.94        14.46552
417.39        14.21965
417.83        14.07819
418.28        14.07374
418.73        14.16017
419.17        14.30031
419.62         14.4292
420.07         14.5236
420.51        14.60376
420.96        14.63251
421.41         14.5484
421.85        14.35111
422.30          14.082
422.74         13.8253
423.19        13.73336
423.64        13.81547
424.08        14.04049
424.53        14.30284
424.98        14.43782
425.42         14.4007
425.87        14.23204
426.31        14.01146
426.76        13.90848
427.21         13.9377
427.65        13.95257
428.10        13.97563
428.54        14.12632
428.99        14.39157
429.44         14.7173
429.88        14.96147
430.33        14.94578
430.77        14.65406
431.22        14.14463
431.66        13.62654
432.11        13.47256
432.56        13.71504
433.00        14.17759
433.45        14.64641
433.89        14.92164
434.34        14.87558
434.78         14.4484
435.23        13.92455
435.67        13.82591
436.12        14.12112
436.57        14.29782
437.01        14.27146
437.46        14.25784
437.90        14.26595
438.35        14.23409
438.79        14.17359
439.24        14.14225
439.68        14.15603
440.13        14.13695
440.57        14.10251
441.02        14.27361
441.46         14.5359
441.91        14.38521
442.35        13.91944
442.80        13.69943
443.24        13.70734
443.69        13.73136
444.13        13.70819
444.58        13.53976
445.02        13.27982
445.47         13.2299
445.91        13.34898
446.36        13.33034
446.80        13.15905
447.24        13.01407
447.69        12.93502
448.13        12.89511
448.58        12.90685
449.02        12.97159
449.47        13.05372
449.91        13.09315
450.36        13.07781
450.80        13.01929
451.25         12.9542
451.69        12.93066
452.13        12.96242
452.58        13.02099
453.02        13.08526
453.47        13.11805
453.91        13.11275
454.36        13.08792
454.80         13.0428
455.24        12.97526
455.69        12.90009
456.13         12.8125
456.58        12.75923
457.02        12.78945
457.46        12.91242
457.91         13.1035
458.35         13.3037
458.79        13.41087
459.24        13.41092
459.68        13.32003
460.13        13.20854
460.57        13.15044
461.01        13.18011
461.46        13.26594
461.90        13.36782
462.34        13.41144
462.79        13.37751
463.23        13.28492
463.68          13.189
464.12        13.18042
464.56        13.28085
465.01        13.46494
465.45         13.6346
465.89        13.69536
466.34          13.641
466.78         13.4294
467.22        13.18073
467.67        13.22192
468.11        13.51781
468.55        13.66193
468.99        13.60943
469.44        13.56586
469.88        13.57793
470.32        13.69243
470.77        13.86328
471.21        13.91572
471.65        13.83029
472.10        13.74591
472.54        13.69637
472.98        13.69382
473.42        13.75173
473.87        13.86973
474.31        14.00629
474.75        14.08941
475.20        14.10718
475.64        14.07289
476.08        14.02781
476.52        14.03564
476.97        14.11158
477.41        14.23972
477.85        14.37558
478.29        14.47514
478.74        14.52747
479.18        14.47388
479.62        14.36415
480.06        14.52054
480.50        14.65287
480.95        14.78409
481.39         14.7847
481.83        14.76254
482.27        14.71863
482.72        14.54379
483.16        14.31691
483.60        14.35567
484.04        14.66233
484.48        14.83458
484.93        15.07847
485.37        15.51554
485.81        15.98351
486.25        16.54214
486.69        21.40965
487.14        17.08629
487.58        11.33833
488.02        14.07546
488.46        15.95727
488.90        15.67262
489.34        15.91955
489.79        15.76247
490.23        16.58211
490.67        17.11589
491.11        17.12297
491.55        17.02709
491.99        16.80634
492.43        16.63224
492.88        16.58212
493.32        16.65407
493.76        16.73285
494.20        16.95833
494.64        17.27568
495.08        17.64089
495.52        18.02224
495.96        18.39747
496.41        18.70035
496.85        18.90867
497.29        19.01896
497.73        18.84309
498.17        18.61072
498.61        18.79162
499.05        19.39088
499.49        19.50946
499.93        19.61914
500.37        19.74302
500.82        19.83263
501.26        20.09388
501.70        20.42329
502.14        20.65191
502.58        20.72559
503.02        20.75696
503.46        20.74701
503.90        20.60659
504.34        20.41384
504.78        20.34447
505.22        20.43156
505.66        20.63424
506.10        20.87554
506.54        21.02039
506.98        21.03292
507.42        20.95633
507.86        20.87086
508.30         20.9006
508.74        21.06944
509.18        21.32766
509.62        21.60157
510.06        21.77299
510.50        21.81211
510.94        21.76843
511.38        21.68534
511.82        21.62843
512.26        21.62321
512.70        21.64151
513.14        21.69907
513.58        21.82328
514.02          21.997
514.46        22.20595
514.90        22.38191
515.34        22.38067
515.78        22.15549
516.22        21.90423
516.66         21.7247
517.10        21.33274
517.54        20.76131
517.98        21.58513
518.42        21.44259
518.86        21.80697
519.30        21.95259
519.74        22.11483
520.18         22.2536
520.62        22.27489
521.06        22.19766
521.50        22.02367
521.93        21.81601
522.37        21.69204
522.81        21.67901
523.25        21.74631
523.69        21.84657
524.13        21.90297
524.57        21.89144
525.01        21.83409
525.45        21.74934
525.89        21.66653
526.32        21.59514
526.76        21.52706
527.20        21.45235
527.64         21.3657
528.08        21.27067
528.52        21.15189
528.96        21.02116
529.40        20.95235
529.83        20.96098
530.27         20.8128
530.71        20.88717
531.15        20.80321
531.59        20.67831
532.03        20.51482
532.46        20.37568
532.90        20.36349
533.34        20.48516
533.78        20.70202
534.22         20.9223
534.66         21.0113
535.09        20.93634
535.53        20.74759
535.97        20.51251
536.41        20.34412
536.85        20.27854
537.28        20.28643
537.72        20.33242
538.16         20.3595
538.60        20.35331
539.04        20.32293
539.47        20.29785
539.91        20.37027
540.35        20.52572
540.79        20.65931
541.22        20.75572
541.66        20.87617
542.10        21.01186
542.54        21.11257
542.97        21.19036
543.41         21.3006
543.85        21.44749
544.29        21.62973
544.72        21.80538
545.16        21.91805
545.60        21.96065
546.04        21.94708
546.47        21.96351
546.91        22.15549
547.35        22.53073
547.79        23.04124
548.22        23.54455
548.66        23.79776
549.10        23.77005
549.53         23.5775
549.97        23.36567
550.41        23.29974
550.84        23.43749
551.28        23.74076
551.72        24.14959
552.15        24.54884
552.59        24.88309
553.03         25.1762
553.46        25.41644
553.90        25.60975
554.34        25.76747
554.77        25.85593
555.21        25.88638
555.65        25.96153
556.08        26.10702
556.52        25.98446
556.96        26.20657
557.39        26.28636
557.83        26.41163
558.27        26.55821
558.70        26.72513
559.14        26.89267
559.57        27.04088
560.01        27.18249
560.45         27.2943
560.88        27.34153
561.32        27.34389
561.75        27.29849
562.19        27.25593
562.63         27.2565
563.06        27.30801
563.50        27.40611
563.93        27.53112
564.37        27.66383
564.80        27.78655
565.24        27.91605
565.68        28.04174
566.11        28.14981
566.55        28.25996
566.98        28.36589
567.42        28.49811
567.85         28.6973
568.29        28.98284
568.72        29.25667
569.16        29.53545
569.60        29.91241
570.03        30.24602
570.47        30.28501
570.90        30.18467
571.34        29.67875
571.77        30.23499
572.21        30.33147
572.64        30.44444
573.08        30.11058
573.51        29.16407
573.95         30.5145
574.38        32.55364
574.82        31.72771
