SpectraSmart Spectrum 2.9.0.0
--------- Device Information -----------
Spectrum Name :  反射率_0
Saving Time :  2024/04/26 00:08:52
Spectro-Module Model Name : SE2030-DUVN
Spectro-Module Serial Number : OS361AC55029948
Wavelength Start : 200
Wavelength End : 1025
Wavelength Unit : Wavelength(nm)
Spectrum Unit : Reflectance(%)
-----------Spectrum Setting ------------
Integration Time : 20ms
Average : 10
Boxcar : 0
Background removal :  enabled
linearity correction :  enabled
SC :  disabled
Intensity correction :  disabled
DWT denoise :  enabled
savitzky-golay :  disabled
FFT :  disabled
Running average :  disabled
Kalman :  disabled
High pass :  disabled
---------------BEGIN--------------------
Wavelength(nm)             Reflectance(%)
200.29               0
200.75        84.85761
201.21        76.95379
201.67        68.01723
202.13        62.98017
202.58         62.3823
203.04        65.17583
203.50        69.40511
203.96        71.60409
204.42        70.93185
204.88        68.76064
205.34        66.61284
205.80        65.98385
206.26        67.39364
206.72        71.65659
207.18        80.15347
207.64        86.41208
208.10        79.06996
208.55        67.34122
209.01        60.53135
209.47        58.86351
209.93        60.24696
210.39        63.92298
210.85        67.88892
211.31        67.86854
211.77        62.76875
212.23        54.23918
212.69        46.23506
213.14        44.92472
213.60        51.07327
214.06        62.82771
214.52        75.71831
214.98        82.86658
215.44        82.59563
215.90        77.26406
216.36        69.91851
216.81        64.77239
217.27        63.19696
217.73        63.75189
218.19        64.61983
218.65        63.45337
219.11        59.32478
219.57         51.7595
220.02        41.97367
220.48        36.92985
220.94        40.00697
221.40        49.18022
221.86        57.01455
222.32         55.9617
222.77        47.47037
223.23        36.31272
223.69        27.30362
224.15        25.32385
224.61        29.75705
225.06        38.00404
225.52        46.74372
225.98        51.83133
226.44        52.34583
226.90        49.94916
227.36         46.4596
227.81        44.30822
228.27        44.36986
228.73        45.55592
229.19        47.13338
229.65        48.11161
230.10        48.25659
230.56        48.11136
231.02        47.93444
231.48        47.92781
231.93        48.11298
232.39         48.3622
232.85        48.65084
233.31        49.03554
233.77        49.47167
234.22        49.92864
234.68        50.23311
235.14        50.00688
235.60        49.19968
236.05         48.0098
236.51        46.69183
236.97        45.50267
237.43         44.5125
237.88        43.70072
238.34        43.18892
238.80        43.43541
239.26        44.60105
239.71        46.66982
240.17        49.04496
240.63        51.09832
241.08        52.61501
241.54        53.56764
242.00        54.06595
242.46        54.34113
242.91        54.59545
243.37        54.47481
243.83        55.09354
244.28        66.39852
244.74        96.41985
245.20        101.6488
245.66        95.41959
246.11        91.94815
246.57        89.86523
247.03        86.31126
247.48        69.01755
247.94        46.71772
248.40        57.17308
248.85         63.7378
249.31        67.40885
249.77        70.19224
250.22        73.17119
250.68        77.39536
251.14        82.18571
251.59        82.18746
252.05        74.22771
252.51        61.92019
252.96        50.83284
253.42        45.37396
253.88        44.57528
254.33         46.7018
254.79        50.99269
255.25        55.69363
255.70        59.71695
256.16        63.38762
256.62        65.39311
257.07        64.39011
257.53        61.23898
257.99        56.51463
258.44        52.16595
258.90         51.1785
259.35        52.57167
259.81        54.93098
260.27        56.19334
260.72         54.4095
261.18        50.34335
261.63        45.01058
262.09        40.09832
262.55        36.94374
263.00        35.52607
263.46        35.23198
263.91        35.16635
264.37        34.58572
264.83        33.34921
265.28        31.65273
265.74        30.07309
266.19        29.23016
266.65        29.25744
267.11        29.75994
267.56        30.19787
268.02        29.92928
268.47        28.87424
268.93        27.27118
269.38        25.47816
269.84         24.3283
270.30        24.04281
270.75        24.39149
271.21        24.94419
271.66         25.0606
272.12        24.57224
272.57        23.69512
273.03        22.76362
273.48        22.19991
273.94        22.12243
274.39         22.3364
274.85        22.60619
275.31        22.59929
275.76         22.2328
276.22        21.64869
276.67        21.01053
277.13        20.62257
277.58        20.50225
278.04         20.5739
278.49        20.63522
278.95        20.45261
279.40         19.9721
279.86        19.32575
280.31        18.66463
280.77        18.30871
281.22        18.26446
281.68        18.43027
282.13        18.61633
282.59        18.57833
283.04        18.27327
283.50        17.82603
283.95        17.32815
284.41        16.92915
284.86        16.67054
285.32        16.49801
285.77        16.42833
286.22        16.54137
286.68        16.79669
287.13        17.15125
287.59        17.42753
288.04        17.35878
288.50        16.93413
288.95        16.23672
289.41        15.49125
289.86        14.94775
290.32        14.71628
290.77        14.70666
291.22        14.84977
291.68        15.00067
292.13        15.11986
292.59        15.24783
293.04        15.42058
293.50        15.69083
293.95        16.05225
294.40        16.44743
294.86        16.81087
295.31        17.06368
295.77        17.19416
296.22         17.2391
296.68        17.24098
297.13        17.23871
297.58        17.27638
298.04         17.3643
298.49        17.53632
298.95         17.8717
299.40        18.36274
299.85        18.97295
300.31          19.618
300.76        20.17883
301.21        20.59779
301.67        20.91611
302.12        21.12164
302.58        21.24174
303.03         21.2868
303.48        21.26511
303.94        21.26947
304.39        21.41394
304.84        21.72126
305.30        22.15384
305.75        22.58877
306.20        22.83645
306.66        22.87783
307.11        22.76697
307.57        22.62977
308.02        22.59576
308.47        22.72069
308.93        22.95075
309.38        23.24067
309.83        23.54608
310.29        23.82786
310.74        24.09281
311.19        24.30578
311.65        24.41317
312.10        24.41088
312.55        24.31403
313.00        24.15868
313.46        24.01598
313.91        23.90469
314.36        23.82679
314.82        23.79747
315.27        23.82702
315.72        23.91566
316.18        24.05516
316.63         24.2163
317.08        24.32795
317.53        24.36646
317.99        24.33738
318.44        24.27475
318.89        24.23901
319.35        24.23931
319.80        24.26298
320.25        24.26261
320.70        24.16335
321.16        23.95615
321.61        23.67068
322.06        23.37077
322.51        23.15026
322.97        23.02146
323.42        22.96224
323.87        22.91516
324.32        22.78642
324.78        22.55222
325.23        22.24862
325.68        21.91975
326.13        21.63732
326.59        21.42443
327.04        21.28306
327.49        21.19352
327.94        21.12399
328.39        21.06585
328.85        21.01824
329.30        21.02984
329.75         21.1495
330.20        21.37465
330.66         21.6588
331.11        21.93759
331.56        22.07053
332.01        22.02253
332.46        21.81865
332.92        21.53417
333.37        21.33432
333.82        21.27303
334.27        21.32766
334.72        21.42778
335.17        21.44539
335.63        21.34492
336.08        21.17075
336.53         21.0111
336.98        21.00693
337.43        21.18477
337.88        21.49798
338.34        21.81138
338.79        21.95316
339.24         21.8604
339.69        21.58773
340.14        21.28189
340.59        21.19547
341.05        21.37624
341.50        21.73812
341.95        22.13289
342.40          22.347
342.85        22.33197
343.30        22.16776
343.75        21.91796
344.20        21.69578
344.66        21.54607
345.11        21.39993
345.56        21.29079
346.01          21.266
346.46        21.31592
346.91        21.45199
347.36        21.53396
347.81        21.33141
348.26        20.83333
348.72        20.14717
349.17        19.48738
349.62        19.28767
350.07        19.63533
350.52        20.37368
350.97        21.24538
351.42        21.85822
351.87        22.09639
352.32        22.06768
352.77         21.8678
353.22        21.65507
353.67        21.49324
354.13        21.33887
354.58        21.18188
355.03        21.04922
355.48         20.9463
355.93        20.89324
356.38        20.87289
356.83        20.84022
357.28        20.77787
357.73        20.68242
358.18        20.56985
358.63        20.46926
359.08        20.38753
359.53        20.32543
359.98         20.2404
360.43        20.06737
360.88        19.80453
361.33        19.47263
361.78        19.17054
362.23        19.05681
362.68        19.15062
363.13        19.38939
363.58        19.63465
364.03        19.66988
364.48        19.44903
364.93        19.04902
365.38        18.57539
365.83        18.19965
366.28        17.98134
366.73        17.86879
367.18        17.84235
367.63        17.86908
368.08        17.91984
368.53        18.00319
368.98         18.0754
369.43        18.06079
369.88        17.94966
370.33        17.76528
370.78        17.54779
371.23        17.37447
371.68        17.27386
372.13        17.22046
372.58        17.22909
373.03        17.31923
373.48        17.47477
373.93        17.68358
374.38         17.8622
374.83        17.88278
375.28        17.72437
375.72        17.41276
376.17        17.06563
376.62        16.83698
377.07        16.77408
377.52        16.83451
377.97        16.95119
378.42        17.01224
378.87        16.98333
379.32        16.89917
379.77        16.79796
380.22         16.7324
380.67        16.71171
381.11        16.71273
381.56        16.69705
382.01        16.61523
382.46        16.45818
382.91        16.24765
383.36        16.02691
383.81        15.86087
384.26        15.77047
384.71        15.74427
385.15        15.73977
385.60        15.70207
386.05        15.61116
386.50        15.47395
386.95        15.33956
387.40        15.29211
387.85        15.34344
388.29        15.45833
388.74        15.55695
389.19        15.51738
389.64        15.32914
390.09        15.02759
390.54        14.72112
390.98        14.59242
391.43        14.68932
391.88         14.9383
392.33        15.20896
392.78        15.30938
393.23        15.20804
393.67        14.96793
394.12        14.71126
394.57        14.55378
395.02        14.52479
395.47        14.58104
395.91        14.67761
396.36        14.71873
396.81        14.67822
397.26        14.57525
397.71        14.45395
398.15        14.36089
398.60        14.32722
399.05        14.34008
399.50        14.34003
399.95         14.2033
400.39        13.98337
400.84        13.66534
401.29        13.37099
401.74        13.29363
402.18        13.48662
402.63        13.86749
403.08        14.29469
403.53        14.54128
403.97        14.54728
404.42         14.3785
404.87        14.12484
405.32        13.94583
405.76        13.89268
406.21        13.91513
406.66        13.97235
407.11        14.01381
407.55        14.02483
408.00        14.02234
408.45         14.0034
408.90        13.94916
409.34        13.86164
409.79        13.74818
410.24        13.63844
410.68        13.57333
411.13        13.56582
411.58        13.61312
412.03         13.6938
412.47        13.76945
412.92        13.81602
413.37        13.83589
413.81        13.85993
414.26        13.95378
414.71        14.11355
415.15        14.31681
415.60        14.47614
416.05        14.47352
416.49        14.28883
416.94        13.97655
417.39        13.62805
417.83        13.40012
418.28        13.34767
418.73        13.41497
419.17        13.55486
419.62        13.68451
420.07        13.77483
420.51        13.85184
420.96         13.8872
421.41        13.82957
421.85        13.67733
422.30        13.46449
422.74        13.25398
423.19        13.17011
423.64        13.22023
424.08        13.38003
424.53         13.5746
424.98        13.69431
425.42        13.70815
425.87        13.64097
426.31        13.53267
426.76        13.48903
427.21         13.5116
427.65        13.47749
428.10        13.43926
428.54        13.56368
428.99        13.85061
429.44        14.22493
429.88        14.53413
430.33        14.58337
430.77        14.34743
431.22        13.89299
431.66        13.41136
432.11        13.24691
432.56        13.43121
433.00        13.79357
433.45        14.16107
433.89        14.41128
434.34        14.43733
434.78        14.15275
435.23        13.77954
435.67         13.7648
436.12        14.06697
436.57        14.19539
437.01        14.09234
437.46        14.01839
437.90         13.9995
438.35        13.96192
438.79         13.9094
439.24         13.8879
439.68        13.90858
440.13        13.90074
440.57        13.88203
441.02        14.06767
441.46        14.34433
441.91        14.21252
442.35        13.76499
442.80        13.55423
443.24        13.56365
443.69        13.58519
444.13        13.56113
444.58        13.40237
445.02        13.16334
445.47        13.14026
445.91        13.28827
446.36        13.29473
446.80        13.14081
447.24        13.00518
447.69        12.93027
448.13          12.894
448.58        12.90985
449.02        12.97874
449.47        13.05973
449.91        13.08396
450.36        13.04051
450.80        12.94697
451.25        12.85237
451.69        12.82358
452.13          12.877
452.58        12.97541
453.02        13.08809
453.47        13.16306
453.91        13.18871
454.36        13.18942
454.80        13.16019
455.24        13.09205
455.69        13.00212
456.13          12.888
456.58        12.81469
457.02        12.85918
457.46        13.03307
457.91        13.30068
458.35        13.58055
458.79        13.73453
459.24        13.73967
459.68        13.62423
460.13        13.47235
460.57        13.37899
461.01        13.38668
461.46        13.45843
461.90        13.55372
462.34         13.5979
462.79         13.5704
463.23        13.49149
463.68        13.41335
464.12        13.41962
464.56        13.52862
465.01        13.71524
465.45        13.88193
465.89        13.93665
466.34        13.87515
466.78        13.65528
467.22        13.39804
467.67         13.4341
468.11        13.72736
468.55         13.8639
468.99        13.80579
469.44        13.77304
469.88        13.81274
470.32        13.96863
470.77        14.17641
471.21        14.22861
471.65         14.1014
472.10        13.94789
472.54        13.82535
472.98        13.78304
473.42        13.84341
473.87        13.99273
474.31        14.17312
474.75        14.28707
475.20        14.31369
475.64        14.27389
476.08        14.21136
476.52        14.19263
476.97        14.23675
477.41        14.32808
477.85        14.42743
478.29        14.50139
478.74        14.54135
479.18        14.48439
479.62        14.38093
480.06        14.55228
480.50        14.70589
480.95        14.86674
481.39        14.88753
481.83        14.85335
482.27        14.76005
482.72        14.49724
483.16        14.17989
483.60         14.1791
484.04        14.51459
484.48        14.76433
484.93        15.06599
485.37        15.49137
485.81        15.89693
486.25        16.09214
486.69        20.91232
487.14         16.5941
487.58        11.14469
488.02        13.67068
488.46        15.59398
488.90        15.60679
489.34        15.56637
489.79        15.45649
490.23        16.32417
490.67        16.76639
491.11        16.57532
491.55        16.43271
491.99        16.31306
492.43        16.15338
492.88        16.01885
493.32        16.02983
493.76        16.08304
494.20        16.27062
494.64        16.54062
495.08        16.86311
495.52        17.19995
495.96         17.5178
496.41        17.75298
496.85        17.88617
497.29        17.93038
497.73        17.73709
498.17        17.52493
498.61        17.72347
499.05        18.31948
499.49        18.42916
499.93        18.49065
500.37        18.54457
500.82        18.55526
501.26        18.73014
501.70        18.97925
502.14         19.1362
502.58        19.17546
503.02           19.24
503.46        19.32939
503.90        19.34694
504.34        19.30376
504.78        19.26663
505.22        19.24863
505.66        19.24097
506.10        19.24199
506.54        19.24759
506.98        19.26133
507.42        19.28941
507.86        19.35384
508.30        19.48605
508.74        19.68167
509.18        19.91773
509.62        20.14999
510.06        20.30713
510.50        20.37185
510.94         20.3734
511.38        20.33116
511.82        20.27732
512.26        20.23188
512.70        20.18402
513.14        20.17343
513.58        20.26431
514.02        20.44891
514.46        20.69721
514.90         20.9283
515.34        20.97773
515.78        20.78944
516.22        20.57171
516.66        20.41065
517.10         19.9957
517.54         19.3602
517.98        20.11329
518.42        19.88388
518.86         20.2263
519.30        20.40958
519.74        20.65676
520.18        20.89063
520.62        20.95558
521.06        20.85595
521.50        20.61381
521.93        20.31924
522.37        20.13423
522.81         20.1025
523.25        20.18148
523.69        20.31563
524.13        20.41588
524.57        20.45213
525.01         20.4495
525.45         20.4248
525.89        20.40352
526.32        20.39003
526.76        20.37001
527.20        20.32745
527.64        20.25014
528.08        20.14235
528.52        19.99717
528.96        19.83097
529.40        19.72095
529.83        19.68804
530.27        19.51266
530.71        19.56385
531.15        19.50282
531.59        19.44002
532.03        19.37128
532.46           19.33
532.90        19.37016
533.34        19.48626
533.78         19.6517
534.22        19.80548
534.66        19.86125
535.09        19.79754
535.53        19.65064
535.97        19.46321
536.41          19.308
536.85         19.2137
537.28        19.16754
537.72        19.15943
538.16        19.17141
538.60        19.19678
539.04        19.22696
539.47        19.27177
539.91        19.39284
540.35        19.56773
540.79        19.70534
541.22        19.78881
541.66        19.87295
542.10        19.95348
542.54        19.98394
542.97        19.99478
543.41        20.06942
543.85         20.2161
544.29        20.42389
544.72        20.63091
545.16        20.74696
545.60        20.75714
546.04        20.68785
546.47        20.63428
546.91        20.75688
547.35        21.07056
547.79        21.52065
548.22        21.97432
548.66        22.20503
549.10        22.18067
549.53         22.0104
549.97        21.81578
550.41        21.72653
550.84        21.79341
551.28          21.988
551.72        22.27645
552.15        22.59098
552.59         22.8896
553.03        23.18219
553.46        23.43703
553.90        23.62644
554.34        23.75313
554.77        23.79678
555.21        23.77863
555.65        23.80951
556.08        23.91772
556.52        23.79099
556.96        23.98919
557.39        24.05343
557.83         24.1494
558.27        24.30595
558.70        24.42873
559.14        24.56454
559.57        24.66842
560.01        24.76035
560.45        24.81725
560.88        24.80634
561.32        24.75108
561.75        24.64944
562.19        24.56644
562.63        24.56655
563.06        24.65734
563.50        24.82332
563.93        25.01668
564.37        25.16852
564.80        25.25121
565.24        25.30201
565.68        25.34083
566.11        25.36503
566.55        25.44567
566.98        25.54652
567.42        25.70094
567.85         25.8463
568.29        26.13018
568.72        26.36476
569.16        26.61021
569.60        26.93382
570.03        27.20469
570.47        27.23303
570.90        27.16933
571.34        26.59931
571.77        27.18343
572.21         27.2646
572.64         27.3418
573.08        27.08912
573.51        26.18667
573.95        27.31558
574.38        29.01079
574.82        28.42164
