SpectraSmart Spectrum 2.9.0.0
--------- Device Information -----------
Spectrum Name :  反射率_0
Saving Time :  2024/04/25 23:18:19
Spectro-Module Model Name : SE2030-DUVN
Spectro-Module Serial Number : OS361AC55029948
Wavelength Start : 200
Wavelength End : 1025
Wavelength Unit : Wavelength(nm)
Spectrum Unit : Reflectance(%)
-----------Spectrum Setting ------------
Integration Time : 20ms
Average : 10
Boxcar : 0
Background removal :  enabled
linearity correction :  enabled
SC :  disabled
Intensity correction :  disabled
DWT denoise :  enabled
savitzky-golay :  disabled
FFT :  disabled
Running average :  disabled
Kalman :  disabled
High pass :  disabled
---------------BEGIN--------------------
Wavelength(nm)             Reflectance(%)
200.29               0
200.75        82.80733
201.21        78.83508
201.67        74.36431
202.13        71.37167
202.58        70.06825
203.04        70.42397
203.50        71.45686
203.96         71.5307
204.42        70.41273
204.88        68.67859
205.34        67.38115
205.80        67.71928
206.26        70.32771
206.72        76.86208
207.18        89.81428
207.64        100.8008
208.10        92.58427
208.55        76.50362
209.01        66.61376
209.47        63.87959
209.93        65.41691
210.39        69.92517
210.85        74.99995
211.31        75.48829
211.77        69.93642
212.23        60.36825
212.69        51.15033
213.14        48.98196
213.60        54.85455
214.06         66.8782
214.52        80.36529
214.98        88.09787
215.44        88.28663
215.90        83.26172
216.36        76.45109
216.81        72.60085
217.27        72.91382
217.73        75.55205
218.19        78.02131
218.65        77.11608
219.11        71.69102
219.57        61.25016
220.02        47.24731
220.48        38.41014
220.94        39.95087
221.40        49.79813
221.86        59.70431
222.32        60.94265
222.77        54.37902
223.23        44.77474
223.69        36.89853
224.15        35.61774
224.61        40.34061
225.06        48.54115
225.52        56.70892
225.98        60.38004
226.44        58.80196
226.90         53.9824
227.36        48.40119
227.81        45.36936
228.27        45.93084
228.73        48.68502
229.19        52.44947
229.65         55.5003
230.10        57.20321
230.56        58.15828
231.02        58.68042
231.48         59.0971
231.93        59.48706
232.39        59.74394
232.85        59.76368
233.31        59.49971
233.77        58.94618
234.22        58.16379
234.68        57.29148
235.14        56.56425
235.60        56.11929
236.05        55.96944
236.51        55.97522
236.97        55.85099
237.43        55.51965
237.88        55.07291
238.34        54.64119
238.80        54.85947
239.26        55.98094
239.71        57.96486
240.17        60.08316
240.63        61.58508
241.08        62.31926
241.54        62.40643
242.00        62.35818
242.46        62.97348
242.91        65.00734
243.37        69.57645
243.83        83.24117
244.28        127.1891
244.74        175.6503
245.20        147.4217
245.66        121.3317
246.11        111.5288
246.57        108.7352
247.03        109.8445
247.48        109.5731
247.94        78.80014
248.40        70.93319
248.85        71.99634
249.31         74.5267
249.77        78.37708
250.22        84.20305
250.68        93.53935
251.14        105.9978
251.59        112.6705
252.05         105.537
252.51         89.1571
252.96        72.76196
253.42        64.47911
253.88        63.56363
254.33        67.19048
254.79        73.55057
255.25        79.46282
255.70        83.52027
256.16         86.6523
256.62        88.31555
257.07        87.88107
257.53        86.03977
257.99        82.75726
258.44        78.93838
258.90        76.68172
259.35         75.3279
259.81        74.53616
260.27        73.11108
260.72        69.84238
261.18        65.42892
261.63        60.33311
262.09        55.84974
262.55        52.79673
263.00        51.07573
263.46        50.32297
263.91        49.79095
264.37         49.0013
264.83        47.75922
265.28        46.15225
265.74        44.57004
266.19        43.31897
266.65         42.6147
267.11        42.24036
267.56        41.89753
268.02        41.24199
268.47        40.16641
268.93        38.80995
269.38        37.36485
269.84        36.37013
270.30        35.95993
270.75        35.99617
271.21        36.17527
271.66        36.04086
272.12        35.47744
272.57        34.62238
273.03        33.75613
273.48        33.21014
273.94        33.08548
274.39        33.21694
274.85        33.38963
275.31        33.27637
275.76        32.79522
276.22        32.08243
276.67         31.3072
277.13        30.81742
277.58        30.61289
278.04        30.61527
278.49        30.57146
278.95        30.20394
279.40        29.44786
279.86        28.48643
280.31         27.4983
280.77        26.86669
281.22         26.6169
281.68        26.64577
282.13        26.77094
282.59        26.78116
283.04        26.60897
283.50        26.36087
283.95        26.06452
284.41        25.78899
284.86        25.54576
285.32        25.30731
285.77        25.11029
286.22        25.08237
286.68        25.20755
287.13        25.43157
287.59        25.59394
288.04        25.43604
288.50        24.95662
288.95        24.23207
289.41        23.48685
289.86        22.94948
290.32         22.7293
290.77         22.7313
291.22        22.88337
291.68        23.03516
292.13         23.1446
292.59        23.25908
293.04        23.42271
293.50        23.70679
293.95        24.10918
294.40        24.57097
294.86        25.02697
295.31        25.39299
295.77        25.65721
296.22        25.85668
296.68        26.02727
297.13        26.19699
297.58        26.40084
298.04        26.64294
298.49        26.96091
298.95        27.44981
299.40        28.10157
299.85        28.88076
300.31        29.67717
300.76        30.32668
301.21        30.77018
301.67        31.07217
302.12        31.26662
302.58        31.46782
303.03        31.68828
303.48        31.91057
303.94        32.17023
304.39        32.48442
304.84        32.85532
305.30        33.27082
305.75        33.64489
306.20        33.85683
306.66        33.90697
307.11        33.82029
307.57        33.69569
308.02        33.60334
308.47        33.59945
308.93        33.66002
309.38        33.77319
309.83        33.95334
310.29        34.17546
310.74        34.41614
311.19        34.62339
311.65        34.71509
312.10        34.67148
312.55        34.52264
313.00        34.28322
313.46         33.9923
313.91        33.67407
314.36        33.34415
314.82        33.07995
315.27         32.9789
315.72        33.05613
316.18        33.27217
316.63        33.53218
317.08        33.65388
317.53        33.58127
317.99        33.35038
318.44        33.04198
318.89        32.79223
319.35          32.632
319.80        32.53145
320.25        32.41889
320.70        32.18252
321.16         31.8091
321.61        31.35008
322.06        30.89751
322.51        30.58181
322.97        30.41863
323.42        30.37317
323.87        30.35883
324.32        30.23458
324.78        29.96224
325.23        29.59438
325.68        29.19274
326.13        28.86362
326.59        28.63477
327.04        28.48973
327.49        28.40078
327.94        28.32759
328.39        28.25248
328.85         28.1794
329.30        28.13209
329.75        28.10398
330.20        28.09534
330.66        28.08644
331.11        28.08566
331.56        28.06275
332.01        28.00799
332.46        27.91202
332.92        27.79413
333.37        27.72696
333.82        27.71451
334.27        27.75568
334.72        27.77273
335.17        27.63464
335.63         27.3195
336.08        26.87447
336.53        26.44404
336.98        26.26221
337.43        26.37745
337.88         26.7293
338.34        27.12098
338.79        27.27517
339.24         27.0953
339.69         26.6555
340.14        26.16279
340.59        25.97842
341.05        26.17819
341.50        26.64123
341.95        27.13608
342.40         27.3282
342.85         27.1499
343.30        26.72124
343.75        26.20207
344.20        25.87015
344.66        25.81136
345.11        25.89713
345.56        26.05536
346.01        26.17669
346.46        26.21032
346.91        26.21175
347.36        26.10786
347.81         25.7732
348.26        25.22542
348.72        24.53916
349.17        23.88075
349.62        23.60766
350.07         23.7961
350.52         24.3297
350.97         25.0106
351.42        25.52785
351.87        25.78371
352.32        25.85608
352.77        25.79348
353.22        25.68392
353.67        25.56229
354.13        25.39168
354.58        25.18623
355.03         25.0141
355.48        24.89084
355.93        24.83134
356.38        24.77379
356.83        24.60395
357.28        24.30706
357.73        23.91563
358.18        23.54539
358.63        23.37722
359.08        23.44097
359.53        23.67912
359.98        23.93818
360.43        23.97993
360.88        23.75525
361.33        23.33447
361.78         22.8756
362.23        22.63848
362.68         22.6765
363.13        22.89081
363.58        23.13152
364.03         23.1667
364.48        22.94233
364.93          22.553
365.38        22.08708
365.83        21.68047
366.28        21.38983
366.73        21.16982
367.18        21.04174
367.63        21.04346
368.08        21.15711
368.53        21.36555
368.98        21.57159
369.43        21.61714
369.88        21.47283
370.33        21.18679
370.78        20.83769
371.23        20.56802
371.68        20.42792
372.13        20.37273
372.58        20.39819
373.03        20.49165
373.48        20.62631
373.93        20.80464
374.38        20.95141
374.83        20.94697
375.28        20.77478
375.72        20.45744
376.17        20.10974
376.62        19.88523
377.07        19.82779
377.52        19.88835
377.97        20.00507
378.42        20.07478
378.87         20.0603
379.32         19.9945
379.77        19.88933
380.22        19.75739
380.67        19.60897
381.11        19.44116
381.56        19.26235
382.01        19.10016
382.46        18.96527
382.91        18.85365
383.36         18.7721
383.81        18.72534
384.26        18.70841
384.71        18.71992
385.15        18.72094
385.60        18.66655
386.05        18.54305
386.50        18.35883
386.95         18.1654
387.40        18.05603
387.85        18.05399
388.29        18.12504
388.74        18.21286
389.19        18.21637
389.64        18.12013
390.09        17.94517
390.54        17.76406
390.98        17.69576
391.43        17.77344
391.88        17.95049
392.33        18.12076
392.78        18.12985
393.23        17.96307
393.67        17.66985
394.12        17.39226
394.57        17.26802
395.02        17.32198
395.47        17.50186
395.91        17.72118
396.36        17.80146
396.81        17.69908
397.26        17.46514
397.71        17.18816
398.15        16.98081
398.60        16.89838
399.05        16.90549
399.50        16.94096
399.95          16.873
400.39        16.75841
400.84        16.57502
401.29        16.41376
401.74        16.40213
402.18        16.57463
402.63        16.86006
403.08        17.16321
403.53        17.33344
403.97        17.33121
404.42        17.20445
404.87        17.00844
405.32        16.84134
405.76        16.74109
406.21        16.68537
406.66        16.66949
407.11        16.69263
407.55         16.7517
408.00        16.84615
408.45        16.94729
408.90        16.98515
409.34        16.93987
409.79        16.83096
410.24         16.7085
410.68        16.64515
411.13        16.66128
411.58        16.73912
412.03        16.84327
412.47        16.91416
412.92        16.91969
413.37        16.87649
413.81        16.82232
414.26        16.83091
414.71        16.90543
415.15         17.0259
415.60        17.11793
416.05        17.08288
416.49        16.90499
416.94        16.63324
417.39        16.34627
417.83        16.17678
418.28        16.16887
418.73        16.26853
419.17        16.43173
419.62        16.58603
420.07        16.70396
420.51        16.80762
420.96        16.86281
421.41         16.8107
421.85        16.64785
422.30        16.41479
422.74        16.18183
423.19        16.08798
423.64        16.14125
424.08        16.31547
424.53        16.52484
424.98          16.645
425.42         16.6422
425.87        16.54252
426.31        16.39804
426.76        16.33967
427.21        16.36909
427.65        16.33915
428.10        16.29995
428.54        16.43235
428.99        16.73627
429.44        17.13164
429.88        17.45537
430.33        17.50658
430.77        17.25785
431.22         16.7733
431.66        16.26762
432.11        16.13761
432.56         16.4146
433.00        16.89375
433.45        17.35695
433.89         17.6409
434.34        17.61795
434.78        17.19505
435.23        16.65856
435.67        16.56753
436.12        16.87226
436.57        16.97923
437.01        16.83379
437.46        16.76525
437.90        16.80332
438.35         16.8521
438.79        16.88211
439.24        16.89532
439.68        16.89738
440.13        16.82001
440.57        16.71969
441.02        16.91456
441.46        17.28212
441.91        17.19667
442.35        16.74414
442.80        16.56083
443.24        16.62169
443.69        16.68343
444.13        16.66936
444.58        16.45611
445.02         16.1152
445.47        16.01271
445.91        16.11878
446.36        16.09667
446.80        15.93424
447.24        15.83804
447.69        15.82921
448.13        15.83232
448.58         15.8518
449.02        15.90303
449.47        15.96464
449.91        16.00034
450.36        16.00441
450.80        15.97744
451.25        15.94839
451.69        15.95342
452.13        16.00212
452.58        16.07113
453.02        16.13762
453.47        16.16389
453.91        16.14382
454.36        16.09577
454.80        16.02637
455.24         15.9446
455.69        15.86991
456.13        15.79594
456.58         15.7615
457.02         15.7991
457.46        15.91622
457.91        16.09023
458.35        16.27537
458.79        16.39261
459.24        16.43068
459.68        16.39671
460.13        16.33741
460.57        16.28646
461.01        16.27556
461.46        16.28951
461.90        16.31931
462.34        16.34185
462.79        16.34701
463.23        16.33534
463.68        16.33687
464.12        16.40035
464.56        16.52973
465.01        16.71745
465.45        16.86314
465.89        16.88051
466.34        16.77247
466.78        16.47837
467.22        16.14737
467.67        16.18317
468.11        16.54241
468.55        16.72866
468.99         16.6829
469.44        16.64767
469.88        16.67584
470.32        16.82564
470.77        17.03838
471.21         17.0951
471.65        16.97397
472.10         16.8459
472.54        16.76125
472.98        16.74527
473.42        16.81739
473.87        16.97559
474.31        17.16282
474.75         17.2835
475.20        17.31975
475.64        17.28871
476.08         17.2419
476.52        17.25899
476.97        17.35833
477.41        17.51721
477.85        17.67931
478.29        17.78853
478.74         17.8322
479.18        17.74357
479.62        17.58522
480.06        17.75039
480.50        17.88734
480.95        18.02929
481.39        18.02659
481.83        18.01904
482.27        18.00724
482.72        17.85409
483.16         17.6404
483.60        17.71962
484.04        18.08851
484.48        18.26475
484.93        18.50198
485.37        18.90879
485.81        19.41135
486.25        19.90325
486.69        26.47515
487.14        20.99944
487.58        13.64993
488.02        16.66234
488.46        19.04944
488.90        19.08902
489.34        19.12055
489.79        18.95941
490.23        20.00028
490.67        20.62715
491.11         20.5807
491.55        20.53721
491.99        20.44452
492.43        20.30024
492.88        20.17879
493.32        20.19392
493.76        20.22741
494.20        20.43094
494.64        20.74753
495.08        21.14431
495.52        21.56733
495.96        21.93873
496.41        22.18698
496.85        22.34496
497.29        22.42522
497.73        22.18763
498.17        21.90436
498.61        22.14235
499.05         22.8896
499.49        23.03843
499.93        23.13554
500.37        23.22679
500.82        23.26785
501.26        23.51751
501.70        23.86277
502.14         24.0987
502.58        24.17473
503.02        24.24247
503.46        24.30118
503.90        24.23836
504.34        24.11224
504.78        24.07646
505.22        24.15849
505.66        24.32442
506.10        24.51438
506.54        24.62441
506.98        24.63001
507.42        24.56659
507.86        24.51036
508.30        24.57779
508.74        24.78773
509.18        25.09254
509.62        25.40984
510.06        25.60672
510.50        25.64909
510.94        25.58716
511.38        25.47451
511.82         25.3945
512.26        25.37837
512.70         25.3969
513.14        25.45567
513.58        25.56454
514.02        25.70477
514.46        25.86864
514.90        26.00846
515.34        26.01253
515.78        25.83981
516.22        25.66978
516.66        25.57023
517.10         25.2301
517.54        24.67186
517.98        25.40611
518.42         25.2132
518.86        25.53622
519.30        25.69388
519.74        25.89505
520.18        26.08509
520.62        26.14769
521.06        26.09335
521.50        25.93683
521.93        25.73911
522.37        25.61231
522.81        25.58651
523.25        25.62878
523.69        25.71405
524.13        25.80157
524.57        25.87023
525.01        25.93108
525.45        25.96268
525.89        25.92893
526.32        25.82548
526.76        25.66459
527.20        25.48034
527.64        25.33899
528.08        25.26151
528.52        25.20534
528.96        25.14687
529.40        25.11558
529.83          25.116
530.27        24.89148
530.71        24.92208
531.15        24.79054
531.59        24.64892
532.03        24.48623
532.46        24.36797
532.90        24.40027
533.34        24.58289
533.78        24.87124
534.22         25.1546
534.66        25.26983
535.09        25.17821
535.53        24.94126
535.97        24.63591
536.41         24.3928
536.85        24.25885
537.28        24.20407
537.72        24.20411
538.16        24.21978
538.60        24.23698
539.04        24.25385
539.47        24.28418
539.91        24.40566
540.35        24.59318
540.79        24.73441
541.22        24.81573
541.66        24.91939
542.10          25.042
542.54        25.12032
542.97        25.18813
543.41        25.34163
543.85        25.58569
544.29        25.90469
544.72        26.21311
545.16        26.38802
545.60        26.40826
546.04        26.30895
546.47        26.21862
546.91        26.35163
547.35        26.73431
547.79        27.30127
548.22        27.87944
548.66        28.17594
549.10        28.14775
549.53        27.93147
549.97         27.6959
550.41        27.63218
550.84          27.804
551.28        28.16348
551.72        28.62477
552.15         29.0292
552.59        29.31525
553.03        29.52653
553.46        29.68031
553.90        29.82877
554.34        29.99289
554.77        30.11973
555.21        30.20448
555.65        30.33727
556.08        30.53563
556.52         30.4096
556.96        30.67407
557.39        30.75587
557.83         30.8775
558.27         31.0117
558.70        31.16642
559.14        31.33726
559.57        31.50395
560.01         31.6744
560.45        31.81863
560.88        31.88645
561.32        31.89478
561.75        31.85538
562.19        31.81432
562.63        31.77284
563.06        31.75406
563.50        31.81931
563.93        31.95446
564.37         32.1018
564.80        32.24292
565.24        32.42197
565.68        32.61773
566.11        32.78791
566.55        32.94971
566.98        33.09565
567.42        33.25633
567.85        33.49243
568.29        33.81897
568.72        34.08105
569.16        34.32988
569.60        34.74289
570.03        35.15438
570.47        35.26056
570.90        35.22305
571.34        34.58916
571.77        35.26694
572.21        35.38768
572.64          35.399
573.08        35.06652
573.51        33.89342
573.95        35.34987
574.38        37.47191
574.82        37.06694
