SpectraSmart Spectrum 2.9.0.0
--------- Device Information -----------
Spectrum Name :  反射率_0
Saving Time :  2024/04/25 23:19:54
Spectro-Module Model Name : SE2030-DUVN
Spectro-Module Serial Number : OS361AC55029948
Wavelength Start : 200
Wavelength End : 1025
Wavelength Unit : Wavelength(nm)
Spectrum Unit : Reflectance(%)
-----------Spectrum Setting ------------
Integration Time : 20ms
Average : 10
Boxcar : 0
Background removal :  enabled
linearity correction :  enabled
SC :  disabled
Intensity correction :  disabled
DWT denoise :  enabled
savitzky-golay :  disabled
FFT :  disabled
Running average :  disabled
Kalman :  disabled
High pass :  disabled
---------------BEGIN--------------------
Wavelength(nm)             Reflectance(%)
200.29               0
200.75        92.25926
201.21        86.38539
201.67        79.48095
202.13        76.55518
202.58        78.21228
203.04        83.27022
203.50          89.143
203.96        91.41228
204.42         89.3411
204.88        84.97038
205.34        80.86073
205.80        79.46761
206.26        81.56821
206.72        88.65437
207.18        103.4974
207.64        115.9038
208.10        105.7073
208.55        86.87217
209.01        75.50755
209.47        72.27192
209.93        73.82803
210.39        78.67246
210.85        84.09977
211.31        84.41022
211.77        78.07886
212.23        67.38816
212.69        57.29438
213.14         55.4311
213.60        62.86631
214.06        77.17224
214.52        93.07097
214.98        102.4184
215.44        103.1979
215.90        98.34345
216.36        91.01254
216.81        85.53521
217.27        83.54514
217.73        83.48116
218.19        84.21181
218.65        84.46004
219.11        83.68844
219.57        81.88419
220.02        79.58844
220.48        79.40903
220.94         81.8874
221.40        86.07348
221.86        88.02499
222.32        84.05172
222.77        75.51096
223.23        65.68333
223.69        58.08942
224.15        56.41763
224.61        60.03234
225.06        66.98186
225.52        74.29651
225.98         78.1558
226.44        77.84531
226.90        74.89604
227.36        71.31673
227.81        69.83907
228.27        71.30009
228.73        74.38805
229.19        77.89913
229.65        80.11996
230.10        80.60037
230.56        80.23402
231.02        79.49561
231.48        78.89335
231.93        78.50352
232.39        78.16178
232.85        77.83994
233.31        77.63966
233.77        77.52853
234.22        77.54399
234.68        77.43733
235.14        76.74322
235.60        75.44605
236.05        73.80981
236.51        72.21745
236.97         71.1073
237.43        70.56409
237.88        70.54457
238.34        70.98467
238.80        72.04048
239.26        73.60528
239.71        75.80692
240.17        77.74255
240.63        78.51122
241.08        78.05815
241.54        76.55637
242.00        74.99271
242.46        74.77545
242.91        76.96116
243.37        83.25105
243.83        102.9858
244.28        164.0715
244.74        225.9982
245.20        183.0448
245.66        147.5222
246.11        136.6979
246.57        138.8191
247.03        155.8956
247.48        205.3642
247.94        163.5396
248.40        106.2097
248.85        90.45983
249.31        87.08693
249.77        88.79536
250.22        94.01188
250.68        103.5529
251.14        116.9358
251.59        124.6688
252.05        117.9497
252.51        101.6422
252.96        84.95178
253.42        76.11186
253.88         74.4168
254.33        76.84655
254.79         82.2548
255.25        88.35499
255.70        93.53146
256.16        98.26827
256.62         101.068
257.07        100.3329
257.53         97.1296
257.99         92.0647
258.44        86.84709
258.90        84.52731
259.35        84.17168
259.81        84.75536
260.27         84.5897
260.72        82.04693
261.18        77.89524
261.63        72.78254
262.09        68.03159
262.55        64.38407
263.00        61.85557
263.46        60.23935
263.91         58.9799
264.37        57.88081
264.83         56.6798
265.28        55.32959
265.74        54.03548
266.19        52.77621
266.65        51.77128
267.11        50.96246
267.56        50.17076
268.02        49.20539
268.47          47.958
268.93        46.50652
269.38        45.05828
269.84        44.18914
270.30        44.01122
270.75         44.3574
271.21        44.80672
271.66        44.71838
272.12        43.95412
272.57        42.70873
273.03        41.37449
273.48        40.45083
273.94        40.09338
274.39         40.0766
274.85        40.16741
275.31        39.99432
275.76         39.4514
276.22        38.70617
276.67        37.87628
277.13        37.24616
277.58        36.80948
278.04        36.51618
278.49         36.1927
278.95        35.69592
279.40        34.96278
279.86        34.13536
280.31         33.2841
280.77         32.6446
281.22        32.21317
281.68        31.95134
282.13        31.76672
282.59        31.58871
283.04        31.36723
283.50        31.16385
283.95        30.93198
284.41        30.63794
284.86        30.26958
285.32        29.84667
285.77        29.45233
286.22        29.28862
286.68        29.35417
287.13        29.55276
287.59         29.7051
288.04        29.52004
288.50        28.98575
288.95        28.19064
289.41        27.33822
289.86        26.61572
290.32        26.14056
290.77        25.83035
291.22        25.67835
291.68        25.63262
292.13        25.66542
292.59        25.79542
293.04        25.99481
293.50        26.22108
293.95        26.44508
294.40         26.6431
294.86        26.81316
295.31        26.96728
295.77         27.1162
296.22        27.26561
296.68          27.402
297.13        27.47514
297.58         27.5052
298.04        27.53201
298.49        27.63827
298.95        27.98463
299.40        28.57726
299.85        29.35146
300.31         30.1733
300.76        30.84333
301.21        31.28498
301.67        31.57223
302.12        31.72647
302.58        31.84399
303.03        31.93977
303.48        32.00336
303.94        32.10026
304.39        32.29567
304.84        32.60232
305.30        32.99578
305.75        33.36655
306.20         33.5547
306.66         33.5516
307.11        33.39725
307.57        33.20602
308.02        33.07025
308.47        33.05204
308.93        33.11929
309.38        33.25277
309.83        33.45653
310.29        33.70094
310.74        33.96384
311.19        34.19722
311.65        34.32542
312.10         34.3281
312.55        34.23056
313.00        34.03444
313.46         33.7597
313.91        33.42594
314.36        33.05391
314.82        32.73901
315.27        32.60524
315.72        32.67647
316.18        32.91361
316.63        33.20477
317.08        33.33711
317.53        33.25207
317.99        32.99673
318.44        32.68708
318.89         32.5153
319.35        32.51812
319.80        32.63944
320.25        32.75695
320.70        32.67375
321.16        32.34816
321.61        31.85488
322.06        31.31519
322.51        30.90738
322.97         30.6675
323.42        30.55122
323.87        30.47852
324.32        30.31929
324.78        30.03816
325.23        29.69193
325.68        29.33298
326.13        29.04581
326.59        28.85097
327.04        28.73485
327.49         28.6716
327.94        28.62719
328.39        28.58562
328.85        28.54539
329.30        28.53098
329.75        28.53881
330.20        28.56679
330.66        28.59167
331.11        28.61645
331.56        28.60179
332.01         28.5365
332.46         28.4166
332.92        28.26183
333.37        28.14729
333.82        28.08264
334.27        28.07022
334.72        28.05016
335.17        27.91855
335.63        27.65844
336.08        27.30857
336.53        26.98706
336.98        26.88738
337.43        27.04262
337.88        27.39374
338.34        27.76215
338.79        27.90319
339.24        27.73056
339.69        27.31782
340.14        26.83942
340.59        26.60223
341.05        26.68023
341.50        26.97602
341.95         27.3337
342.40        27.52617
342.85        27.49916
343.30        27.33795
343.75        27.10923
344.20        26.92786
344.66        26.83607
345.11        26.75688
345.56        26.70768
346.01        26.71755
346.46        26.77095
346.91        26.87829
347.36        26.91784
347.81         26.6882
348.26        26.18604
348.72        25.51818
349.17        24.86752
349.62        24.61489
350.07        24.84188
350.52        25.40811
350.97        26.12337
351.42        26.69513
351.87        27.02152
352.32        27.17982
352.77        27.17208
353.22         27.0095
353.67        26.72456
354.13        26.31529
354.58        25.87592
355.03        25.60159
355.48        25.53389
355.93        25.64065
356.38        25.79647
356.83        25.78461
357.28        25.55292
357.73        25.16228
358.18        24.73386
358.63        24.45872
359.08        24.38341
359.53        24.45133
359.98        24.54404
360.43        24.48087
360.88        24.22516
361.33        23.83472
361.78        23.44248
362.23        23.26064
362.68        23.32554
363.13        23.55075
363.58         23.7856
364.03        23.79923
364.48        23.54069
364.93        23.09855
365.38        22.57832
365.83        22.14719
366.28        21.86665
366.73        21.68503
367.18        21.59629
367.63        21.59048
368.08        21.64249
368.53        21.75492
368.98        21.86176
369.43        21.85276
369.88        21.70928
370.33        21.46009
370.78        21.16821
371.23        20.95069
371.68        20.84454
372.13        20.81256
372.58        20.83879
373.03        20.89106
373.48        20.94595
373.93        21.01638
374.38        21.05786
374.83        20.99808
375.28        20.83088
375.72        20.56487
376.17        20.29652
376.62        20.14656
377.07        20.14469
377.52        20.24927
377.97        20.39344
378.42        20.46746
378.87        20.43656
379.32        20.33525
379.77        20.19261
380.22         20.0475
380.67        19.91656
381.11        19.79303
381.56        19.67101
382.01        19.55276
382.46        19.44017
382.91        19.33195
383.36        19.24906
383.81        19.21972
384.26        19.24082
384.71        19.30093
385.15        19.33414
385.60        19.25799
386.05        19.05329
386.50         18.7411
386.95        18.40923
387.40         18.2145
387.85        18.19781
388.29        18.30609
388.74        18.44441
389.19        18.45884
389.64        18.32599
390.09        18.08392
390.54        17.83453
390.98        17.74721
391.43        17.86403
391.88        18.11319
392.33        18.36027
392.78        18.41033
393.23        18.24217
393.67        17.92783
394.12        17.61658
394.57         17.4533
395.02        17.46903
395.47        17.60383
395.91        17.79966
396.36        17.92877
396.81        17.94861
397.26        17.88791
397.71        17.76844
398.15        17.60345
398.60        17.43915
399.05        17.28277
399.50        17.13593
399.95        16.95243
400.39        16.80828
400.84        16.65316
401.29        16.55766
401.74        16.61067
402.18        16.82876
402.63        17.15572
403.08        17.48901
403.53        17.66501
403.97        17.64562
404.42        17.47693
404.87        17.23823
405.32        17.07288
405.76        17.02466
406.21        17.05347
406.66        17.12339
407.11        17.18863
407.55        17.23643
408.00        17.28051
408.45        17.30607
408.90        17.27172
409.34        17.17479
409.79        17.03048
410.24        16.89101
410.68        16.83088
411.13        16.86733
411.58        16.98146
412.03        17.13137
412.47        17.24252
412.92        17.27506
413.37        17.24782
413.81         17.1934
414.26        17.18037
414.71        17.21487
415.15        17.27968
415.60        17.31935
416.05        17.26586
416.49        17.10938
416.94        16.89042
417.39        16.66685
417.83        16.53406
418.28        16.52571
418.73        16.59983
419.17         16.7261
419.62        16.85378
420.07        16.96087
420.51        17.05945
420.96         17.1151
421.41        17.06923
421.85        16.91611
422.30        16.69962
422.74        16.47674
423.19        16.36665
423.64        16.37589
424.08        16.48248
424.53         16.6258
424.98        16.72814
425.42        16.76848
425.87        16.76113
426.31        16.72193
426.76        16.72572
427.21        16.76069
427.65        16.69102
428.10        16.60184
428.54        16.73636
428.99        17.10392
429.44        17.59493
429.88        18.00879
430.33        18.09118
430.77        17.80547
431.22        17.24414
431.66        16.64023
432.11        16.41191
432.56        16.59737
433.00        16.98042
433.45        17.37069
433.89        17.66012
434.34        17.72782
434.78        17.45506
435.23        17.06604
435.67        17.05262
436.12         17.3519
436.57         17.3724
437.01        17.09859
437.46        16.93958
437.90        16.94903
438.35        17.00965
438.79        17.07001
439.24        17.09841
439.68        17.08978
440.13        16.98783
440.57        16.86017
441.02        17.04036
441.46        17.40904
441.91        17.33153
442.35        16.88311
442.80        16.69154
443.24        16.73064
443.69        16.75954
444.13        16.71954
444.58        16.51609
445.02        16.22398
445.47        16.20003
445.91        16.39057
446.36         16.4137
446.80        16.24572
447.24        16.10823
447.69        16.04572
448.13        16.01893
448.58        16.04114
449.02        16.11613
449.47        16.20248
449.91        16.23158
450.36        16.19178
450.80        16.09862
451.25        16.00048
451.69        15.96183
452.13         16.0004
452.58        16.08312
453.02        16.17848
453.47        16.23562
453.91        16.24334
454.36        16.22425
454.80        16.18195
455.24        16.12029
455.69        16.05634
456.13        15.97986
456.58        15.93733
457.02        15.97427
457.46        16.09993
457.91        16.29029
458.35         16.4842
458.79        16.57777
459.24         16.5594
459.68        16.44779
460.13        16.31641
460.57        16.23928
461.01        16.25408
461.46        16.32941
461.90        16.43093
462.34        16.49649
462.79        16.50445
463.23         16.4671
463.68        16.42373
464.12        16.44121
464.56        16.53376
465.01        16.68973
465.45        16.81404
465.89        16.82736
466.34        16.73218
466.78        16.46776
467.22        16.17297
467.67        16.23535
468.11        16.60677
468.55        16.78953
468.99        16.73409
469.44        16.70189
469.88        16.74849
470.32        16.92612
470.77        17.15969
471.21        17.20294
471.65        17.03048
472.10        16.82541
472.54        16.65919
472.98        16.59074
473.42        16.64736
473.87        16.81502
474.31        17.02167
474.75        17.14788
475.20        17.16902
475.64        17.11229
476.08         17.0329
476.52        17.01484
476.97        17.08127
477.41        17.20889
477.85        17.35021
478.29        17.46458
478.74        17.53895
479.18        17.49774
479.62         17.3919
480.06        17.59436
480.50        17.75154
480.95        17.90231
481.39        17.88799
481.83        17.83559
482.27        17.74591
482.72        17.48306
483.16         17.1684
483.60        17.20544
484.04        17.59515
484.48        17.87937
484.93        18.24244
485.37        18.65387
485.81        19.00636
486.25         19.4841
486.69        25.47794
487.14        20.29945
487.58        13.30376
488.02        16.08059
488.46        18.38494
488.90        18.39432
489.34        18.51299
489.79        18.40948
490.23        19.39926
490.67        19.97015
491.11        19.86487
491.55         19.7253
491.99        19.52461
492.43        19.30965
492.88        19.16799
493.32        19.19986
493.76        19.27017
494.20        19.48296
494.64        19.77284
495.08        20.11235
495.52        20.46922
495.96        20.81841
496.41        21.08839
496.85        21.25402
497.29        21.31722
497.73        21.07749
498.17        20.79205
498.61        20.97821
499.05        21.63641
499.49        21.75628
499.93        21.86138
500.37         21.9821
500.82        22.05576
501.26        22.29656
501.70        22.59039
502.14         22.7548
502.58        22.75882
503.02        22.77111
503.46        22.79917
503.90        22.72961
504.34        22.61197
504.78        22.58204
505.22        22.66129
505.66        22.82063
506.10        23.00113
506.54        23.09962
506.98        23.09258
507.42        23.01479
507.86         22.9418
508.30        22.98986
508.74        23.17974
509.18        23.46639
509.62        23.77374
510.06        23.97806
510.50        24.04657
510.94        24.02506
511.38         23.9602
511.82         23.9251
512.26        23.94561
512.70        23.99188
513.14        24.06794
513.58        24.18226
514.02        24.31659
514.46        24.46503
514.90        24.58036
515.34        24.55146
515.78        24.33909
516.22        24.12667
516.66        23.99326
517.10         23.6354
517.54        23.07819
517.98        23.86146
518.42        23.70088
518.86        24.04034
519.30        24.17989
519.74        24.34088
520.18        24.48966
520.62        24.54441
521.06        24.52181
521.50        24.42108
521.93        24.28236
522.37        24.18411
522.81         24.1474
523.25        24.15458
523.69        24.18796
524.13         24.2171
524.57        24.22899
525.01        24.23164
525.45        24.22191
525.89        24.19362
526.32        24.14415
526.76        24.07487
527.20        23.98656
527.64         23.8915
528.08        23.79857
528.52        23.68332
528.96        23.54926
529.40        23.46583
529.83        23.44932
530.27         23.2467
530.71          23.296
531.15        23.19095
531.59        23.06845
532.03        22.92713
532.46        22.82611
532.90        22.86025
533.34        23.02898
533.78        23.28773
534.22        23.54528
534.66        23.66972
535.09        23.62595
535.53        23.46544
535.97         23.2368
536.41        23.02431
536.85        22.86649
537.28        22.74937
537.72        22.67855
538.16        22.66387
538.60        22.70147
539.04        22.76931
539.47        22.85952
539.91        23.01426
540.35        23.19936
540.79        23.32072
541.22        23.36241
541.66        23.39552
542.10        23.42397
542.54        23.39462
542.97        23.36498
543.41        23.46664
543.85        23.70985
544.29        24.06321
544.72        24.42453
545.16        24.64196
545.60        24.68248
546.04        24.59034
546.47        24.47953
546.91        24.54306
547.35        24.81077
547.79        25.22379
548.22        25.65411
548.66        25.88127
549.10        25.87485
549.53        25.74899
549.97         25.6192
550.41        25.59573
550.84        25.72282
551.28         25.9741
551.72        26.31152
552.15        26.65955
552.59        26.97559
553.03        27.27217
553.46        27.52022
553.90        27.70262
554.34          27.826
554.77        27.86476
555.21        27.84649
555.65        27.90483
556.08        28.07168
556.52        27.97223
556.96        28.24719
557.39        28.34562
557.83        28.46291
558.27        28.58031
558.70        28.71116
559.14        28.85782
559.57        29.00616
560.01        29.16517
560.45        29.29757
560.88        29.34675
561.32        29.33046
561.75        29.25212
562.19        29.18335
562.63        29.19338
563.06        29.29199
563.50        29.46191
563.93        29.65708
564.37        29.81847
564.80        29.91846
565.24        29.98932
565.68        30.03987
566.11        30.08615
566.55        30.15929
566.98        30.24506
567.42        30.37095
567.85        30.57261
568.29        30.86924
568.72        31.15776
569.16         31.4471
569.60        31.85735
570.03         32.2364
570.47        32.25498
570.90        32.05954
571.34        31.68703
571.77        32.13792
572.21        32.40096
572.64        32.25089
573.08        32.25404
573.51        30.98862
573.95        32.38804
574.38        34.43006
574.82        33.80663
