SpectraSmart Spectrum 2.9.0.0
--------- Device Information -----------
Spectrum Name :  反射率_0
Saving Time :  2024/04/26 00:06:02
Spectro-Module Model Name : SE2030-DUVN
Spectro-Module Serial Number : OS361AC55029948
Wavelength Start : 200
Wavelength End : 1025
Wavelength Unit : Wavelength(nm)
Spectrum Unit : Reflectance(%)
-----------Spectrum Setting ------------
Integration Time : 20ms
Average : 10
Boxcar : 0
Background removal :  enabled
linearity correction :  enabled
SC :  disabled
Intensity correction :  disabled
DWT denoise :  enabled
savitzky-golay :  disabled
FFT :  disabled
Running average :  disabled
Kalman :  disabled
High pass :  disabled
---------------BEGIN--------------------
Wavelength(nm)             Reflectance(%)
200.29               0
200.75        85.20471
201.21        78.48488
201.67        70.88707
202.13        66.22245
202.58        64.94717
203.04        66.51402
203.50        69.40004
203.96        70.91671
204.42        70.36726
204.88        68.60672
205.34        67.02455
205.80        67.12343
206.26        69.57787
206.72        75.97316
207.18        87.89944
207.64        94.44769
208.10        80.43818
208.55        61.70042
209.01         51.8266
209.47        50.55695
209.93        54.51843
210.39          62.556
210.85        71.36861
211.31        73.39594
211.77        66.27831
212.23        52.82084
212.69        39.04439
213.14        34.20129
213.60        39.94211
214.06        53.73094
214.52        69.71999
214.98        78.79093
215.44        78.69409
215.90        72.45609
216.36        64.27074
216.81         59.9489
217.27        60.77163
217.73        64.34074
218.19        67.65496
218.65        66.91487
219.11        60.78848
219.57        48.87261
220.02         32.5486
220.48        21.20595
220.94        20.91308
221.40        29.77276
221.86        39.75042
222.32         42.0409
222.77        37.11045
223.23          29.344
223.69        22.98925
224.15        22.34559
224.61        26.91928
225.06         34.4727
225.52        41.88123
225.98        45.31182
226.44        44.09134
226.90        39.95047
227.36        35.04214
227.81         32.2327
228.27        32.44457
228.73        34.46701
229.19        37.27337
229.65        39.37787
230.10        40.31907
230.56        40.63702
231.02        40.67671
231.48        40.74869
231.93         40.9371
232.39        41.13208
232.85        41.22787
233.31         41.1543
233.77        40.88324
234.22        40.40341
234.68        39.93907
235.14        39.81472
235.60        40.12186
236.05        40.83163
236.51         41.5047
236.97        41.45062
237.43        40.53031
237.88        38.80573
238.34        36.91677
238.80        36.74702
239.26        39.19741
239.71        43.97629
240.17        49.48198
240.63        53.20772
241.08        54.37632
241.54        53.45272
242.00        51.67741
242.46        50.84609
242.91        51.82245
243.37        55.35142
243.83        66.62127
244.28        100.2605
244.74        132.3549
245.20        109.0939
245.66        90.27125
246.11         84.3289
246.57        84.97768
247.03        92.63121
247.48        119.7789
247.94        117.2977
248.40         90.7055
248.85         81.4127
249.31        78.84805
249.77        79.42722
250.22        82.14233
250.68        86.99245
251.14        93.71301
251.59        97.43959
252.05        93.83702
252.51        85.73347
252.96        76.99339
253.42        71.24413
253.88        68.03983
254.33        66.00435
254.79        66.23985
255.25        69.59072
255.70        74.89771
256.16        81.17283
256.62         85.4769
257.07        84.89742
257.53        80.54091
257.99        73.73697
258.44        67.23001
258.90        65.00871
259.35        65.97842
259.81        68.29416
260.27        69.44857
260.72        67.08346
261.18        62.10053
261.63        55.72365
262.09         49.8424
262.55        45.94962
263.00        44.01771
263.46        43.34354
263.91        42.98611
264.37         42.2221
264.83        40.85145
265.28        39.07235
265.74          37.344
266.19        36.09355
266.65          35.522
267.11        35.33913
267.56        35.19933
268.02        34.69384
268.47        33.72048
268.93        32.43243
269.38        31.01581
269.84        29.99554
270.30        29.50722
270.75        29.42128
271.21        29.46531
271.66        29.23541
272.12        28.62465
272.57        27.76324
273.03        26.90804
273.48        26.36131
273.94        26.20792
274.39        26.29712
274.85        26.41658
275.31        26.25244
275.76        25.73466
276.22        24.99886
276.67        24.21543
277.13        23.71668
277.58        23.51321
278.04         23.5166
278.49        23.51358
278.95        23.26033
279.40        22.69522
279.86        21.97025
280.31        21.20791
280.77        20.69139
281.22           20.44
281.68        20.38098
282.13         20.4035
282.59        20.38109
283.04        20.27377
283.50        20.15553
283.95         20.0248
284.41        19.89102
284.86        19.75836
285.32        19.62101
285.77        19.53669
286.22        19.65573
286.68        19.96145
287.13         20.3775
287.59        20.73736
288.04        20.78899
288.50        20.51554
288.95        19.99358
289.41        19.40416
289.86        18.91929
290.32        18.64892
290.77        18.53481
291.22        18.56946
291.68        18.70021
292.13        18.91103
292.59        19.21855
293.04        19.63046
293.50         20.1531
293.95         20.7589
294.40        21.40189
294.86        22.01637
295.31        22.52207
295.77         22.9092
296.22        23.20699
296.68        23.45777
297.13        23.70467
297.58        23.98754
298.04        24.31144
298.49         24.7083
298.95        25.26111
299.40         25.9612
299.85        26.77659
300.31        27.61213
300.76        28.32477
301.21        28.85989
301.67        29.27906
302.12        29.59103
302.58        29.87122
303.03        30.12861
303.48         30.3513
303.94        30.61989
304.39        31.02171
304.84        31.56462
305.30        32.21277
305.75         32.8046
306.20         33.1022
306.66         33.0878
307.11        32.82776
307.57        32.51234
308.02        32.34983
308.47          32.421
308.93        32.65574
309.38        32.96186
309.83         33.2253
310.29        33.39346
310.74        33.49277
311.19        33.53468
311.65         33.5321
312.10        33.49063
312.55         33.4039
313.00        33.25748
313.46        33.04531
313.91        32.77053
314.36        32.46367
314.82        32.19888
315.27        32.06529
315.72        32.08482
316.18        32.22688
316.63        32.41489
317.08        32.49924
317.53        32.43595
317.99        32.25142
318.44        32.03115
318.89        31.91748
319.35        31.93083
319.80        32.02974
320.25        32.09853
320.70        31.95266
321.16        31.55985
321.61        30.99201
322.06        30.38228
322.51        29.92709
322.97        29.66664
323.42        29.55585
323.87        29.50309
324.32        29.35507
324.78        29.06916
325.23        28.70503
325.68        28.32685
326.13        28.03964
326.59        27.86718
327.04         27.7868
327.49        27.75459
327.94        27.70762
328.39         27.6232
328.85        27.51017
329.30         27.4117
329.75         27.3583
330.20         27.3597
330.66          27.384
331.11        27.42227
331.56         27.4155
332.01        27.34456
332.46        27.21099
332.92        27.03723
333.37        26.89968
333.82        26.81176
334.27        26.77551
334.72        26.73201
335.17        26.58075
335.63        26.30634
336.08        25.94567
336.53         25.6239
336.98        25.54353
337.43        25.73759
337.88        26.14564
338.34         26.5692
338.79        26.73007
339.24        26.53518
339.69         26.0643
340.14        25.52289
340.59        25.27308
341.05         25.3988
341.50        25.78188
341.95        26.22503
342.40        26.44065
342.85        26.36168
343.30        26.09246
343.75        25.72823
344.20        25.43605
344.66        25.27559
345.11        25.15263
345.56          25.072
346.01        25.04123
346.46        25.03942
346.91        25.09351
347.36         25.0751
347.81        24.76949
348.26        24.17499
348.72        23.39645
349.17        22.65335
349.62        22.38901
350.07        22.69094
350.52        23.39629
350.97        24.24619
351.42        24.84361
351.87        25.06729
352.32          25.027
352.77        24.79614
353.22        24.49945
353.67        24.20019
354.13        23.86682
354.58        23.53594
355.03        23.30916
355.48        23.20616
355.93        23.22507
356.38         23.2961
356.83        23.28844
357.28        23.16442
357.73        22.94737
358.18        22.69639
358.63        22.51001
359.08        22.41143
359.53        22.37458
359.98          22.328
360.43        22.16268
360.88        21.86521
361.33        21.47648
361.78        21.10411
362.23        20.91957
362.68        20.94934
363.13         21.1216
363.58        21.31419
364.03        21.33739
364.48        21.14542
364.93        20.80975
365.38        20.39434
365.83        20.00248
366.28        19.68162
366.73        19.39973
367.18        19.19522
367.63        19.13177
368.08        19.20335
368.53        19.38953
368.98        19.58781
369.43        19.63086
369.88         19.4863
370.33        19.20416
370.78        18.87023
371.23        18.63766
371.68        18.55523
372.13        18.57093
372.58        18.65948
373.03        18.77509
373.48        18.88425
373.93        19.00108
374.38        19.07409
374.83        19.02035
375.28        18.83331
375.72        18.52508
376.17        18.20002
376.62        17.99318
377.07        17.94133
377.52        18.00224
377.97        18.11508
378.42        18.17637
378.87        18.15264
379.32        18.07955
379.77        17.97293
380.22        17.85232
380.67         17.7295
381.11        17.59664
381.56        17.46661
382.01        17.37383
382.46        17.32336
382.91         17.3042
383.36        17.29894
383.81        17.27436
384.26        17.22178
384.71        17.15771
385.15        17.07053
385.60        16.95419
386.05         16.8059
386.50        16.61923
386.95        16.44603
387.40        16.37724
387.85        16.42568
388.29        16.55741
388.74        16.68453
389.19        16.66842
389.64        16.49368
390.09        16.19423
390.54        15.88164
390.98        15.74601
391.43         15.8362
391.88        16.07734
392.33        16.32897
392.78        16.38449
393.23        16.21637
393.67        15.89881
394.12        15.57556
394.57        15.38769
395.02        15.36784
395.47        15.46276
395.91        15.61468
396.36        15.70203
396.81         15.6874
397.26        15.59582
397.71        15.47137
398.15         15.3613
398.60        15.30219
399.05        15.28179
399.50        15.25121
399.95        15.09945
400.39        14.88619
400.84        14.59051
401.29        14.32607
401.74        14.26801
402.18        14.46315
402.63        14.83201
403.08        15.24141
403.53        15.47796
403.97        15.48502
404.42        15.32438
404.87        15.07675
405.32        14.88702
405.76        14.80479
406.21        14.78757
406.66        14.80821
407.11        14.83478
407.55        14.85631
408.00         14.8846
408.45        14.90574
408.90        14.87816
409.34         14.7968
409.79        14.67654
410.24        14.55668
410.68        14.49379
411.13        14.50213
411.58        14.56642
412.03        14.66215
412.47         14.7468
412.92        14.79093
413.37        14.80292
413.81        14.79438
414.26        14.80001
414.71        14.81849
415.15        14.84284
415.60        14.83481
416.05        14.75367
416.49        14.59677
416.94        14.39663
417.39        14.19693
417.83        14.07076
418.28        14.04552
418.73        14.08639
419.17        14.17657
419.62        14.28197
420.07        14.38492
420.51         14.4921
420.96        14.55684
421.41        14.50068
421.85        14.31592
422.30        14.05305
422.74        13.78751
423.19        13.65712
423.64        13.67333
424.08        13.80802
424.53        13.98626
424.98        14.10056
425.42        14.11924
425.87         14.0649
426.31        13.97406
426.76        13.94803
427.21        13.98435
427.65        13.95597
428.10        13.91069
428.54        14.01316
428.99        14.26381
429.44        14.58842
429.88         14.8439
430.33        14.85028
430.77        14.58651
431.22        14.11831
431.66         13.6285
432.11         13.4484
432.56        13.60611
433.00        13.93181
433.45        14.26662
433.89        14.51766
434.34        14.58284
434.78        14.35875
435.23        14.04264
435.67        14.05815
436.12        14.35699
436.57        14.44661
437.01        14.28213
437.46        14.15266
437.90        14.09461
438.35        14.02923
438.79        13.95656
439.24        13.91631
439.68        13.91667
440.13        13.88801
440.57        13.85319
441.02        14.03336
441.46        14.31474
441.91        14.19624
442.35          13.754
442.80        13.51807
443.24        13.47058
443.69        13.41212
444.13        13.30989
444.58        13.11808
445.02        12.89905
445.47        12.92824
445.91        13.14106
446.36        13.19411
446.80        13.05613
447.24        12.91416
447.69        12.81864
448.13        12.76094
448.58        12.75962
449.02        12.81043
449.47        12.87254
449.91        12.87886
450.36         12.8186
450.80        12.71059
451.25        12.60282
451.69        12.55904
452.13        12.59448
452.58        12.67232
453.02        12.76109
453.47        12.80746
453.91        12.79982
454.36        12.76271
454.80         12.6933
455.24        12.58767
455.69        12.46454
456.13        12.32069
456.58        12.22017
457.02        12.23789
457.46        12.38509
457.91        12.62945
458.35         12.8877
458.79        13.01815
459.24        12.99868
459.68        12.85795
460.13        12.68989
460.57        12.60606
461.01        12.64808
461.46        12.77039
461.90        12.91386
462.34        12.97489
462.79        12.92661
463.23        12.79832
463.68        12.65666
464.12        12.61099
464.56        12.69157
465.01        12.86723
465.45        13.03799
465.89        13.10469
466.34        13.05829
466.78        12.86077
467.22        12.62858
467.67        12.67707
468.11        12.97137
468.55        13.11713
468.99        13.06549
469.44        13.00681
469.88         12.9846
470.32        13.04713
470.77        13.15276
471.21           13.14
471.65        12.99664
472.10        12.85815
472.54        12.76268
472.98        12.73228
473.42        12.78144
473.87        12.90442
474.31        13.05824
474.75        13.16785
475.20        13.21626
475.64        13.21452
476.08        13.19243
476.52        13.19788
476.97         13.2434
477.41        13.31708
477.85        13.38877
478.29        13.43733
478.74         13.4593
479.18        13.39709
479.62        13.28924
480.06        13.42087
480.50        13.51954
480.95        13.61055
481.39        13.58315
481.83        13.54572
482.27        13.50412
482.72        13.36227
483.16        13.17642
483.60        13.21981
484.04         13.4943
484.48        13.60383
484.93         13.7787
485.37        14.21851
485.81        14.79438
486.25        15.30612
486.69        20.17172
487.14        15.86851
487.58         10.5143
488.02         12.8097
488.46        14.33279
488.90        14.21638
489.34        14.25275
489.79        14.20177
490.23        15.04901
490.67        15.58567
491.11        15.57028
491.55        15.44087
491.99        15.19829
492.43        14.99155
492.88        14.90283
493.32        14.93529
493.76         14.9825
494.20        15.15781
494.64        15.41022
495.08        15.70992
495.52         16.0253
495.96        16.32633
496.41        16.55454
496.85        16.69456
497.29        16.75256
497.73        16.57928
498.17        16.37918
498.61        16.55773
499.05        17.11445
499.49        17.24505
499.93        17.35945
500.37        17.48191
500.82        17.56208
501.26        17.77292
501.70        18.02271
502.14        18.16351
502.58         18.1696
503.02        18.17455
503.46        18.18545
503.90        18.11608
504.34        18.00521
504.78        17.95887
505.22        17.99614
505.66        18.09525
506.10        18.22218
506.54        18.31537
506.98        18.35808
507.42        18.36962
507.86        18.38707
508.30        18.46831
508.74        18.62042
509.18        18.81425
509.62        19.00853
510.06        19.13775
510.50         19.1865
510.94        19.18608
511.38        19.15398
511.82        19.11621
512.26        19.08858
512.70        19.05818
513.14        19.05995
513.58        19.15166
514.02        19.32411
514.46        19.54964
514.90        19.74924
515.34        19.76174
515.78        19.53361
516.22        19.27579
516.66        19.08338
517.10        18.65156
517.54         18.0156
517.98        18.80913
518.42        18.60743
518.86        18.96716
519.30        19.14071
519.74        19.35974
520.18        19.56119
520.62         19.6129
521.06        19.52391
521.50        19.30661
521.93        19.03553
522.37        18.84811
522.81        18.78242
523.25        18.80619
523.69        18.87578
524.13        18.91939
524.57        18.91286
525.01        18.87648
525.45        18.82693
525.89        18.78899
526.32        18.76647
526.76        18.74796
527.20        18.71201
527.64        18.63607
528.08        18.52268
528.52        18.36763
528.96        18.19716
529.40        18.10085
529.83        18.09889
530.27        17.97862
530.71        18.06469
531.15        18.02218
531.59         17.9472
532.03        17.84466
532.46        17.75076
532.90         17.7257
533.34        17.77282
533.78        17.86836
534.22         17.9663
534.66        18.00163
535.09        17.95417
535.53        17.85044
535.97        17.71764
536.41        17.60177
536.85        17.52338
537.28        17.47867
537.72        17.45712
538.16         17.4418
538.60        17.43039
539.04        17.41341
539.47        17.42136
539.91        17.54256
540.35        17.75913
540.79         17.9789
541.22        18.14821
541.66         18.2559
542.10        18.28747
542.54        18.22011
542.97         18.1248
543.41         18.1467
543.85        18.30868
544.29        18.57808
544.72        18.86402
545.16         19.0297
545.60        19.04795
546.04        18.96321
546.47        18.88237
546.91        18.98268
547.35        19.28725
547.79        19.73319
548.22        20.19493
548.66        20.45971
549.10        20.49313
549.53         20.3966
549.97        20.27286
550.41        20.22493
550.84        20.29701
551.28        20.46735
551.72        20.71644
552.15          21.003
552.59        21.29415
553.03        21.59379
553.46        21.86411
553.90        22.06571
554.34        22.19888
554.77        22.24956
555.21        22.24336
555.65        22.29257
556.08        22.42579
556.52        22.34137
556.96        22.55843
557.39        22.64993
557.83        22.77236
558.27        22.90676
558.70         23.0504
559.14         23.1805
559.57        23.28193
560.01        23.37175
560.45        23.43332
560.88        23.44178
561.32        23.41923
561.75        23.36181
562.19        23.32393
562.63        23.35609
563.06        23.46275
563.50        23.63074
563.93        23.81878
564.37         23.9715
564.80        24.06492
565.24        24.12557
565.68        24.16489
566.11        24.20271
566.55        24.26785
566.98        24.34942
567.42        24.46887
567.85        24.65245
568.29        24.91473
568.72        25.17051
569.16        25.42984
569.60        25.81072
570.03        26.19308
570.47        26.28102
570.90        26.17541
571.34        25.97424
571.77        26.27752
572.21        26.47798
572.64        26.45651
573.08        26.24672
573.51         25.5098
573.95        26.70994
574.38        28.39263
574.82        27.87308
