SpectraSmart Spectrum 2.9.0.0
--------- Device Information -----------
Spectrum Name :  反射率_0
Saving Time :  2024/04/26 00:15:23
Spectro-Module Model Name : SE2030-DUVN
Spectro-Module Serial Number : OS361AC55029948
Wavelength Start : 200
Wavelength End : 1025
Wavelength Unit : Wavelength(nm)
Spectrum Unit : Reflectance(%)
-----------Spectrum Setting ------------
Integration Time : 20ms
Average : 10
Boxcar : 0
Background removal :  enabled
linearity correction :  enabled
SC :  disabled
Intensity correction :  disabled
DWT denoise :  enabled
savitzky-golay :  disabled
FFT :  disabled
Running average :  disabled
Kalman :  disabled
High pass :  disabled
---------------BEGIN--------------------
Wavelength(nm)             Reflectance(%)
200.29               0
200.75        79.75692
201.21        73.71712
201.67        66.74863
202.13        62.91924
202.58        62.71445
203.04        65.06628
203.50         68.5384
203.96        70.69888
204.42        70.82557
204.88        69.89202
205.34        68.81242
205.80         68.4626
206.26         69.1226
206.72        70.97887
207.18        74.30532
207.64        75.57178
208.10        70.37771
208.55        64.22215
209.01        60.64877
209.47         59.0239
209.93        58.24304
210.39         58.1108
210.85        57.71936
211.31        55.52075
211.77        51.55472
212.23          46.582
212.69         42.7294
213.14        43.42042
213.60        48.85157
214.06         58.0569
214.52        68.40163
214.98        75.81067
215.44        78.96965
215.90        78.88883
216.36        76.81689
216.81        74.48757
217.27        72.84153
217.73        71.37703
218.19        69.50283
218.65        66.24901
219.11        60.90058
219.57        52.64447
220.02        41.81633
220.48        33.52939
220.94        31.27032
221.40        34.95524
221.86        39.68289
222.32        39.69717
222.77        35.30889
223.23        29.26925
223.69        24.83979
224.15         25.4841
224.61         30.5944
225.06        38.32623
225.52        45.56788
225.98        48.41032
226.44        46.24929
226.90        40.82792
227.36        34.59128
227.81        30.84645
228.27         30.6088
228.73        32.61131
229.19        35.60162
229.65        37.71313
230.10        38.45525
230.56        38.51221
231.02        38.41882
231.48        38.72616
231.93        39.48016
232.39        40.37946
232.85        41.16893
233.31        41.55365
233.77        41.43849
234.22        40.93773
234.68        40.17334
235.14        39.31978
235.60        38.54346
236.05        37.89156
236.51        37.40199
236.97         37.0363
237.43        36.80754
237.88         36.8254
238.34        37.24171
238.80        38.37052
239.26        40.23119
239.71        42.68661
240.17        45.24163
240.63        47.56195
241.08        49.54627
241.54        51.11752
242.00        52.32005
242.46          53.388
242.91        54.73494
243.37        56.70533
243.83        63.03733
244.28        91.25529
244.74        138.3708
245.20        131.4845
245.66        115.2403
246.11        108.5654
246.57        106.6577
247.03        106.4497
247.48        99.93009
247.94        70.54646
248.40        69.14208
248.85        72.61042
249.31        75.57239
249.77        78.33501
250.22        81.67657
250.68        86.53896
251.14         92.6431
251.59        95.12512
252.05        90.03538
252.51        80.19855
252.96        69.96931
253.42        63.16405
253.88        59.21559
254.33        56.91217
254.79        56.97628
255.25        59.73859
255.70        64.10982
256.16        69.19543
256.62        72.63251
257.07        72.08488
257.53        68.41833
257.99        62.68769
258.44        56.98772
258.90         54.5206
259.35        54.49383
259.81        55.54048
260.27        55.79548
260.72        53.49189
261.18        49.28091
261.63        44.03288
262.09        39.22006
262.55         35.9477
263.00        34.21556
263.46        33.52433
263.91        33.09816
264.37        32.29359
264.83          30.967
265.28        29.25909
265.74        27.69774
266.19        26.84822
266.65        26.82971
267.11        27.28168
267.56        27.68381
268.02        27.40139
268.47        26.36083
268.93        24.78679
269.38        23.04003
269.84        21.95955
270.30        21.75858
270.75            22.2
271.21        22.82926
271.66          22.974
272.12        22.45778
272.57        21.50408
273.03         20.4714
273.48         19.8229
273.94        19.68789
274.39        19.87118
274.85        20.11355
275.31        20.04826
275.76        19.59451
276.22        18.90874
276.67        18.19424
277.13        17.80748
277.58         17.7646
278.04        17.94637
278.49        18.11355
278.95        17.97368
279.40        17.46697
279.86        16.75675
280.31        15.99563
280.77        15.49772
281.22        15.29625
281.68        15.29984
282.13        15.39022
282.59        15.41729
283.04        15.34014
283.50        15.23138
283.95        15.09728
284.41        14.95023
284.86        14.79692
285.32        14.62383
285.77        14.48462
286.22        14.51697
286.68        14.70638
287.13        14.99544
287.59        15.22876
288.04        15.17704
288.50        14.83002
288.95        14.26934
289.41        13.67526
289.86         13.2299
290.32        13.03042
290.77        13.00593
291.22        13.13365
291.68         13.3424
292.13        13.60523
292.59        13.93487
293.04        14.31642
293.50        14.72169
293.95          15.127
294.40        15.50388
294.86        15.83255
295.31        16.10491
295.77        16.32807
296.22        16.51611
296.68        16.68381
297.13        16.82471
297.58        16.96733
298.04        17.13666
298.49        17.37845
298.95        17.78991
299.40          18.369
299.85         19.0697
300.31        19.80194
300.76        20.43973
301.21        20.92146
301.67        21.29096
302.12        21.53686
302.58        21.68754
303.03        21.75477
303.48        21.74783
303.94        21.75958
304.39        21.90432
304.84        22.20457
305.30         22.6207
305.75          23.033
306.20        23.25743
306.66        23.27459
307.11        23.13735
307.57        22.96079
308.02        22.85653
308.47        22.88062
308.93        22.98807
309.38        23.15183
309.83        23.35723
310.29         23.5711
310.74        23.78845
311.19        23.96191
311.65        24.01746
312.10        23.94415
312.55        23.76606
313.00        23.51444
313.46         23.2541
313.91        23.00874
314.36        22.78259
314.82        22.61662
315.27        22.56038
315.72        22.61684
316.18        22.76532
316.63        22.93859
317.08        23.00333
317.53         22.9217
317.99        22.71808
318.44        22.46388
318.89        22.27816
319.35        22.18655
319.80        22.16017
320.25        22.12788
320.70        21.97466
321.16        21.68175
321.61        21.29556
322.06        20.90089
322.51        20.62007
322.97        20.47203
323.42         20.4223
323.87        20.39784
324.32        20.27984
324.78        20.03693
325.23        19.71188
325.68         19.3587
326.13        19.06522
326.59        18.85773
327.04        18.72624
327.49        18.64713
327.94        18.58205
328.39        18.51911
328.85        18.46508
329.30        18.45316
329.75         18.5106
330.20         18.6345
330.66        18.78288
331.11        18.92994
331.56        18.99915
332.01        18.96412
332.46        18.83175
332.92        18.62192
333.37        18.38979
333.82        18.16435
334.27        17.96243
334.72        17.77313
335.17        17.57316
335.63        17.36429
336.08        17.15231
336.53        17.02122
336.98        17.10047
337.43        17.39561
337.88        17.86673
338.34        18.30437
338.79        18.40941
339.24        18.09837
339.69        17.45286
340.14         16.7433
340.59         16.4489
341.05        16.67055
341.50        17.24764
341.95        17.89918
342.40        18.20995
342.85        18.08393
343.30        17.67167
343.75        17.10226
344.20        16.60451
344.66        16.27629
345.11        16.01313
345.56        15.85593
346.01        15.86565
346.46        16.01613
346.91        16.31093
347.36        16.55359
347.81        16.41943
348.26        15.87672
348.72        15.05826
349.17        14.21616
349.62        13.85752
350.07        14.09705
350.52        14.75651
350.97        15.58305
351.42         16.1873
351.87        16.44762
352.32        16.47937
352.77        16.33738
353.22        16.11216
353.67         15.8557
354.13        15.53534
354.58        15.20991
355.03        15.01693
355.48        14.98255
355.93        15.09802
356.38        15.25442
356.83        15.25904
357.28        15.06978
357.73        14.73533
358.18        14.38185
358.63        14.21232
359.08        14.26589
359.53        14.47438
359.98        14.69562
360.43         14.7108
360.88        14.47731
361.33        14.07225
361.78        13.63591
362.23        13.39438
362.68        13.39686
363.13        13.55186
363.58         13.7472
364.03        13.81139
364.48        13.69514
364.93        13.46747
365.38        13.15783
365.83        12.80815
366.28        12.45525
366.73        12.08858
367.18        11.78187
367.63        11.65993
368.08         11.7355
368.53        11.96639
368.98        12.24078
369.43        12.37709
369.88        12.33148
370.33        12.15834
370.78        11.91765
371.23        11.71861
371.68        11.60213
372.13        11.52546
372.58        11.50229
373.03        11.55724
373.48        11.67635
373.93        11.85519
374.38        12.00941
374.83        12.00252
375.28        11.81548
375.72        11.48112
376.17         11.1243
376.62        10.90977
377.07        10.88543
377.52        10.99739
377.97        11.18017
378.42        11.32533
378.87        11.38983
379.32        11.40311
379.77        11.37396
380.22        11.31221
380.67        11.22868
381.11        11.12212
381.56        10.99765
382.01        10.87852
382.46        10.77326
382.91         10.6746
383.36        10.60303
383.81        10.58432
384.26        10.61631
384.71        10.69535
385.15        10.75349
385.60        10.69425
386.05        10.50197
386.50        10.19724
386.95        9.885748
387.40        9.753102
387.85        9.835011
388.29        10.06583
388.74        10.30259
389.19        10.35884
389.64        10.21058
390.09        9.916224
390.54        9.599404
390.98        9.467291
391.43          9.5767
391.88        9.843397
392.33         10.1366
392.78        10.26717
393.23        10.20119
393.67        10.00359
394.12        9.786015
394.57         9.66293
395.02        9.662452
395.47        9.743423
395.91        9.856058
396.36        9.901847
396.81        9.853785
397.26        9.736185
397.71        9.603046
398.15        9.519218
398.60        9.513741
399.05        9.567872
399.50        9.616625
399.95        9.542826
400.39         9.37596
400.84        9.115474
401.29        8.873214
401.74         8.83384
402.18        9.044273
402.63        9.424349
403.08        9.828889
403.53         10.0277
403.97        9.964346
404.42        9.711679
404.87        9.376747
405.32        9.147948
405.76        9.087047
406.21        9.134981
406.66        9.238207
407.11        9.324596
407.55        9.372995
408.00        9.408846
408.45        9.431879
408.90        9.427938
409.34        9.396297
409.79        9.333397
410.24        9.266238
410.68        9.238615
411.13        9.260888
411.58        9.329068
412.03        9.411405
412.47        9.450817
412.92         9.42557
413.37        9.348585
413.81        9.268905
414.26        9.274453
414.71        9.371693
415.15         9.53766
415.60         9.68396
416.05        9.688523
416.49        9.527465
416.94         9.25528
417.39        8.961842
417.83        8.801077
418.28        8.821923
418.73        8.963077
419.17        9.164916
419.62        9.326894
420.07        9.419909
420.51        9.474133
420.96        9.478465
421.41         9.40985
421.85        9.275146
422.30        9.096823
422.74        8.924421
423.19        8.854637
423.64        8.891373
424.08        9.014178
424.53        9.161934
424.98         9.24337
425.42        9.231756
425.87        9.152628
426.31        9.030542
426.76        8.935666
427.21        8.872693
427.65        8.763104
428.10        8.671863
428.54        8.751347
428.99        9.006532
429.44        9.371333
429.88        9.708679
430.33        9.829486
430.77        9.704281
431.22        9.392435
431.66        9.043681
432.11        8.922152
432.56         9.05753
433.00        9.326519
433.45        9.600678
433.89        9.780363
434.34        9.785505
434.78        9.565145
435.23         9.28218
435.67        9.247236
436.12        9.434249
436.57         9.50952
437.01         9.42583
437.46          9.3443
437.90        9.280915
438.35        9.195844
438.79        9.103871
439.24        9.055085
439.68        9.059175
440.13        9.058875
440.57        9.059681
441.02        9.190702
441.46        9.370931
441.91        9.277693
442.35        8.958957
442.80        8.762243
443.24        8.673206
443.69         8.56626
444.13        8.426352
444.58        8.242895
445.02        8.060825
445.47        8.050666
445.91        8.166604
446.36        8.187469
446.80        8.090165
447.24        7.992517
447.69        7.926697
448.13        7.884306
448.58        7.878908
449.02        7.908791
449.47         7.94821
449.91        7.955613
450.36        7.924938
450.80        7.864259
451.25        7.812144
451.69        7.819755
452.13        7.896056
452.58        8.009504
453.02        8.121976
453.47        8.165731
453.91        8.130933
454.36        8.044892
454.80        7.928885
455.24        7.822328
455.69        7.749036
456.13        7.692245
456.58        7.678995
457.02        7.735746
457.46        7.862668
457.91        8.045519
458.35        8.229322
458.79        8.313787
459.24        8.287408
459.68        8.167006
460.13        8.032473
460.57        7.980164
461.01         8.04395
461.46        8.184708
461.90        8.343882
462.34        8.413394
462.79        8.368529
463.23        8.235411
463.68        8.087574
464.12        8.043321
464.56        8.134008
465.01        8.319293
465.45        8.498956
465.89        8.555263
466.34        8.477789
466.78        8.267024
467.22        8.031866
467.67         8.02551
468.11        8.239873
468.55        8.405997
468.99        8.475784
469.44        8.544195
469.88        8.626849
470.32          8.7638
470.77        8.908171
471.21        8.922342
471.65        8.794362
472.10        8.625055
472.54        8.477051
472.98        8.432791
473.42        8.515558
473.87        8.701114
474.31        8.919351
474.75        9.049137
475.20        9.064534
475.64        8.996392
476.08         8.90221
476.52        8.871976
476.97        8.927837
477.41        9.043939
477.85         9.17155
478.29        9.251345
478.74        9.268007
479.18        9.195213
479.62        9.082497
480.06        9.159233
480.50        9.247148
480.95        9.350917
481.39        9.371026
481.83        9.350517
482.27        9.285725
482.72        9.118994
483.16        8.921002
483.60        8.922901
484.04        9.123301
484.48         9.29328
484.93        9.560487
485.37        9.881909
485.81        10.07986
486.25        10.71389
486.69        13.46728
487.14        10.65223
487.58        7.341331
488.02        9.017446
488.46        10.12325
488.90         10.0209
489.34        10.00026
489.79        9.973536
490.23        10.60085
490.67        10.99329
491.11        10.96612
491.55        10.86633
491.99         10.6893
492.43        10.52017
492.88        10.41874
493.32        10.37995
493.76        10.35978
494.20        10.49567
494.64        10.75974
495.08        11.10493
495.52        11.47389
495.96        11.79434
496.41        12.00861
496.85        12.12153
497.29        12.14864
497.73        12.00292
498.17        11.84344
498.61        11.95644
499.05        12.35163
499.49        12.46784
499.93        12.60234
500.37        12.76839
500.82        12.90549
501.26         13.1053
501.70        13.29232
502.14        13.36648
502.58        13.32875
503.02         13.3115
503.46        13.32754
503.90        13.30061
504.34        13.24537
504.78        13.21791
505.22        13.22658
505.66        13.26691
506.10        13.31712
506.54        13.33591
506.98        13.31854
507.42        13.28069
507.86        13.26521
508.30        13.33891
508.74        13.50781
509.18        13.73905
509.62        13.98104
510.06         14.1494
510.50        14.22077
510.94        14.22861
511.38        14.18928
511.82        14.12969
512.26        14.06832
512.70        13.99263
513.14        13.94762
513.58        14.00742
514.02        14.16847
514.46        14.40293
514.90        14.62239
515.34        14.64713
515.78        14.41649
516.22        14.15224
516.66        13.96344
517.10         13.5392
517.54        12.91613
517.98        13.82352
518.42        13.65933
518.86        14.03487
519.30        14.15355
519.74        14.27752
520.18        14.38211
520.62        14.39335
521.06         14.3376
521.50        14.20975
521.93        14.05175
522.37        13.94771
522.81        13.91711
523.25        13.93925
523.69         13.9935
524.13        14.04457
524.57        14.07597
525.01        14.09613
525.45        14.09519
525.89        14.05648
526.32        13.97986
526.76        13.87387
527.20        13.75483
527.64        13.65678
528.08        13.59134
528.52        13.53432
528.96         13.4851
529.40        13.47718
529.83        13.51482
530.27        13.45363
530.71        13.52557
531.15        13.46287
531.59         13.3413
532.03         13.1663
532.46        13.01076
532.90        13.00012
533.34        13.14502
533.78        13.39829
534.22        13.65442
534.66        13.75647
535.09        13.66895
535.53        13.44955
535.97        13.17572
536.41        12.97336
536.85        12.88461
537.28        12.87661
537.72        12.91819
538.16        12.95759
538.60        12.97717
539.04        12.98573
539.47        13.00197
539.91        13.08133
540.35        13.21374
540.79        13.33231
541.22          13.417
541.66        13.49239
542.10        13.55422
542.54        13.57417
542.97         13.5877
543.41        13.67524
543.85        13.84433
544.29        14.07973
544.72        14.31431
545.16         14.4481
545.60        14.46366
546.04        14.38971
546.47        14.31922
546.91        14.40819
547.35        14.67554
547.79        15.06919
548.22        15.47056
548.66        15.67711
549.10        15.65912
549.53        15.50946
549.97        15.33921
550.41         15.2741
550.84        15.35919
551.28        15.56463
551.72        15.85302
552.15        16.15552
552.59        16.43044
553.03        16.68777
553.46        16.90906
553.90        17.07825
554.34        17.20083
554.77        17.26028
555.21        17.26637
555.65        17.28982
556.08        17.35259
556.52        17.23301
556.96        17.35237
557.39        17.41112
557.83        17.53464
558.27        17.69695
558.70        17.87789
559.14        18.02848
559.57        18.12755
560.01         18.1976
560.45        18.23213
560.88        18.22201
561.32        18.19181
561.75         18.1359
562.19        18.10108
562.63        18.13351
563.06        18.23719
563.50        18.39931
563.93        18.58492
564.37        18.74408
564.80        18.85456
565.24        18.93751
565.68        18.99618
566.11        19.03796
566.55        19.08629
566.98        19.13536
567.42        19.21473
567.85        19.36399
568.29        19.59736
568.72        19.84073
569.16        20.08944
569.60        20.42318
570.03        20.74784
570.47        20.82456
570.90        20.73341
571.34        20.58033
571.77         20.8457
572.21        20.90527
572.64        20.96418
573.08        20.71437
573.51        20.25163
573.95        21.21139
574.38        22.51452
574.82        22.12816
