SpectraSmart Spectrum 2.9.0.0
--------- Device Information -----------
Spectrum Name :  反射率_0
Saving Time :  2024/04/26 00:14:31
Spectro-Module Model Name : SE2030-DUVN
Spectro-Module Serial Number : OS361AC55029948
Wavelength Start : 200
Wavelength End : 1025
Wavelength Unit : Wavelength(nm)
Spectrum Unit : Reflectance(%)
-----------Spectrum Setting ------------
Integration Time : 20ms
Average : 10
Boxcar : 0
Background removal :  enabled
linearity correction :  enabled
SC :  disabled
Intensity correction :  disabled
DWT denoise :  enabled
savitzky-golay :  disabled
FFT :  disabled
Running average :  disabled
Kalman :  disabled
High pass :  disabled
---------------BEGIN--------------------
Wavelength(nm)             Reflectance(%)
200.29               0
200.75        84.18516
201.21        82.93017
201.67        80.87222
202.13        79.08251
202.58        77.82415
203.04        77.37247
203.50        77.30261
203.96        77.00894
204.42        76.47369
204.88        75.81124
205.34        75.81081
205.80        77.63538
206.26        82.25536
206.72        92.35719
207.18        111.8808
207.64        129.0943
208.10        118.1579
208.55         94.7712
209.01        79.77505
209.47        74.45436
209.93        74.65413
210.39        78.39105
210.85        82.91257
211.31         82.6431
211.77        76.13108
212.23        65.62175
212.69        55.80569
213.14        53.86752
213.60        60.76442
214.06        74.20016
214.52        89.04301
214.98        97.43447
215.44        97.42467
215.90        91.74256
216.36        83.68341
216.81        77.80309
217.27        75.67524
217.73        75.74488
218.19        76.32883
218.65        75.27118
219.11         71.7381
219.57        65.48472
220.02         57.6869
220.48        54.36152
220.94        58.17176
221.40        66.99871
221.86        74.23787
222.32        73.41653
222.77        65.79832
223.23         55.7256
223.69        47.30219
224.15        44.72802
224.61        47.49136
225.06        53.37002
225.52        59.65604
225.98         63.0323
226.44        62.79917
226.90        60.42767
227.36        57.23836
227.81         54.9232
228.27        54.26682
228.73        54.41546
229.19        55.28574
229.65        56.78736
230.10        58.56456
230.56        60.60284
231.02        62.32931
231.48        63.05957
231.93         62.8146
232.39        61.88041
232.85        60.80781
233.31        60.54356
233.77        61.26831
234.22        62.71049
234.68        64.28442
235.14        64.81541
235.60        63.96859
236.05         62.2178
236.51        60.17889
236.97        58.60583
237.43        57.71757
237.88        57.38746
238.34        57.57993
238.80        58.44769
239.26        59.91394
239.71        62.07845
240.17        64.34944
240.63        66.20023
241.08        67.51698
241.54        68.25469
242.00        68.63818
242.46        69.11404
242.91        70.18066
243.37        72.03596
243.83        78.59723
244.28        107.8727
244.74        155.4012
245.20        147.5237
245.66        130.9518
246.11        124.7609
246.57        124.3112
247.03        127.7632
247.48        131.3943
247.94        96.96117
248.40         84.8404
248.85        84.91975
249.31        86.63275
249.77        88.44002
250.22         90.7101
250.68        94.24661
251.14        98.94652
251.59        101.4298
252.05        98.73423
252.51        92.50595
252.96        86.04736
253.42          82.938
253.88        82.65332
254.33        83.97276
254.79        86.51819
255.25        89.10278
255.70        91.08379
256.16        92.91249
256.62        93.85237
257.07         93.1272
257.53        91.28006
257.99         88.2066
258.44        84.72965
258.90        82.83738
259.35        81.74696
259.81        81.15089
260.27        79.68336
260.72        75.98623
261.18        70.89283
261.63        64.96137
262.09        59.76812
262.55        56.41947
263.00        54.76804
263.46        54.30091
263.91        54.01665
264.37        53.20372
264.83        51.65962
265.28         49.5658
265.74        47.49928
266.19        46.04436
266.65        45.45039
267.11        45.35881
267.56        45.27911
268.02        44.66456
268.47        43.38311
268.93        41.65148
269.38         39.7794
269.84         38.5204
270.30         38.0793
270.75        38.24539
271.21        38.60886
271.66        38.55259
272.12        37.91855
272.57        36.89523
273.03        35.82515
273.48        35.12704
273.94        34.92366
274.39        35.01112
274.85        35.13677
275.31        34.91877
275.76        34.27132
276.22        33.36954
276.67        32.41361
277.13        31.79495
277.58        31.52274
278.04        31.49692
278.49         31.4616
278.95        31.14078
279.40         30.4548
279.86        29.58031
280.31        28.65339
280.77        27.99779
281.22        27.63276
281.68        27.48014
282.13         27.4087
282.59        27.28134
283.04        27.04715
283.50        26.79756
283.95        26.52485
284.41        26.24296
284.86        25.95304
285.32        25.64584
285.77        25.39686
286.22        25.39145
286.68        25.61651
287.13        25.98708
287.59        26.28982
288.04        26.18986
288.50        25.67234
288.95        24.84144
289.41        23.96313
289.86        23.32599
290.32        23.05678
290.77        23.04285
291.22        23.19477
291.68        23.33519
292.13        23.41476
292.59        23.49226
293.04        23.61907
293.50        23.87708
293.95        24.26358
294.40        24.70748
294.86        25.13873
295.31        25.46775
295.77        25.68018
296.22        25.82031
296.68         25.9136
297.13         25.9702
297.58        26.03211
298.04        26.11703
298.49        26.30074
298.95         26.7357
299.40        27.41968
299.85        28.29004
300.31        29.19826
300.76         29.9183
301.21         30.3696
301.67        30.63593
302.12        30.75191
302.58        30.83364
303.03        30.90529
303.48        30.95089
303.94         31.0449
304.39        31.26547
304.84        31.62391
305.30        32.09256
305.75        32.53701
306.20        32.75784
306.66        32.73763
307.11        32.52434
307.57        32.26319
308.02        32.09571
308.47         32.0918
308.93        32.20668
309.38        32.38427
309.83        32.56891
310.29        32.72514
310.74        32.85843
311.19         32.9702
311.65        33.05904
312.10        33.12008
312.55        33.15112
313.00        33.11792
313.46        32.97887
313.91        32.73225
314.36        32.41964
314.82        32.14321
315.27        32.03918
315.72        32.14127
316.18        32.40371
316.63        32.73793
317.08        32.97126
317.53         33.0479
317.99        33.00227
318.44        32.90925
318.89        32.89467
319.35        32.98135
319.80        33.13348
320.25        33.26093
320.70        33.22345
321.16        32.99479
321.61         32.6264
322.06        32.22638
322.51        31.95535
322.97        31.84184
323.42        31.85354
323.87        31.89422
324.32        31.80219
324.78        31.53956
325.23         31.1723
325.68        30.79492
326.13        30.56341
326.59        30.51457
327.04         30.6169
327.49        30.80003
327.94        30.95273
328.39        31.03648
328.85        31.07162
329.30        31.11371
329.75        31.20935
330.20        31.37173
330.66        31.55437
331.11        31.75083
331.56        31.91084
332.01        32.01777
332.46        32.07577
332.92        32.08648
333.37        32.09609
333.82        32.10363
334.27        32.11732
334.72        32.10589
335.17        32.01882
335.63        31.85355
336.08        31.63523
336.53         31.4585
336.98        31.47922
337.43        31.72059
337.88         32.1387
338.34        32.56173
338.79        32.75933
339.24        32.64918
339.69        32.29523
340.14        31.87807
340.59        31.71601
341.05        31.88099
341.50        32.27084
341.95        32.70322
342.40        32.91407
342.85        32.84546
343.30        32.59177
343.75        32.25821
344.20        32.02677
344.66        31.95895
345.11        31.96253
345.56        32.00796
346.01        32.04958
346.46        32.06179
346.91        32.08337
347.36        32.04441
347.81         31.8256
348.26        31.43526
348.72        30.93872
349.17        30.47399
349.62        30.34808
350.07        30.61607
350.52        31.16602
350.97        31.80521
351.42        32.23743
351.87        32.37719
352.32        32.30708
352.77        32.09503
353.22        31.85638
353.67        31.64088
354.13        31.41864
354.58        31.19731
355.03        31.03182
355.48        30.92841
355.93        30.89145
356.38        30.86984
356.83         30.7681
357.28        30.56422
357.73        30.28044
358.18        29.97284
358.63        29.73264
359.08        29.58421
359.53        29.50671
359.98        29.44424
360.43        29.30957
360.88        29.08592
361.33        28.79851
361.78        28.52179
362.23        28.37515
362.68         28.3746
363.13        28.46937
363.58        28.55907
364.03        28.49013
364.48        28.23005
364.93        27.83542
365.38        27.38496
365.83        27.00462
366.28        26.73841
366.73         26.5501
367.18        26.42404
367.63        26.33408
368.08        26.26095
368.53        26.21377
368.98        26.16506
369.43        26.06467
369.88        25.90501
370.33        25.69973
370.78        25.47308
371.23        25.27437
371.68        25.12133
372.13        24.99539
372.58        24.91064
373.03        24.88791
373.48        24.91961
373.93        24.99961
374.38        25.06318
374.83        25.00788
375.28         24.8189
375.72        24.51722
376.17        24.20471
376.62        24.01136
377.07        23.96926
377.52        24.02763
377.97        24.12669
378.42        24.16829
378.87        24.12059
379.32        24.02356
379.77        23.87918
380.22         23.6855
380.67        23.45393
381.11         23.1817
381.56        22.91995
382.01        22.76594
382.46        22.73592
382.91        22.80113
383.36        22.88369
383.81         22.8532
384.26        22.68257
384.71        22.42084
385.15        22.12363
385.60        21.88794
386.05        21.72891
386.50        21.60918
386.95        21.52663
387.40        21.48017
387.85        21.46463
388.29        21.48337
388.74        21.50302
389.19        21.43668
389.64        21.27535
390.09        21.02341
390.54        20.77831
390.98        20.70645
391.43        20.84476
391.88        21.13326
392.33        21.40742
392.78        21.42407
393.23        21.16341
393.67        20.71194
394.12        20.28285
394.57         20.1027
395.02        20.21417
395.47         20.5363
395.91        20.94081
396.36        21.16746
396.81        21.13818
397.26        20.91856
397.71        20.61971
398.15        20.38818
398.60        20.29359
399.05        20.29071
399.50        20.30058
399.95        20.15747
400.39        19.93333
400.84        19.60931
401.29        19.31761
401.74        19.25039
402.18        19.46194
402.63        19.86012
403.08         20.3071
403.53        20.58584
403.97        20.63508
404.42        20.51315
404.87        20.29406
405.32        20.11009
405.76        20.00777
406.21        19.95479
406.66        19.92831
407.11        19.90273
407.55        19.87323
408.00        19.84956
408.45        19.83059
408.90        19.79717
409.34        19.74549
409.79        19.67706
410.24        19.61393
410.68        19.58785
411.13        19.60823
411.58        19.66956
412.03         19.7399
412.47        19.76745
412.92        19.72798
413.37        19.63955
413.81        19.55413
414.26        19.56984
414.71        19.69099
415.15        19.88654
415.60        20.06835
416.05         20.1142
416.49        19.99782
416.94        19.77283
417.39        19.50586
417.83        19.31146
418.28        19.23668
418.73         19.2367
419.17        19.30199
419.62         19.4132
420.07        19.55178
420.51        19.72673
420.96        19.87364
421.41        19.87933
421.85        19.72389
422.30        19.46794
422.74        19.20034
423.19        19.09297
423.64        19.15907
424.08        19.36003
424.53        19.60173
424.98         19.7514
425.42        19.77024
425.87         19.6852
426.31        19.54197
426.76        19.46686
427.21        19.45764
427.65        19.35072
428.10        19.22336
428.54        19.32167
428.99        19.65485
429.44         20.1163
429.88         20.5073
430.33        20.58304
430.77         20.3036
431.22         19.7485
431.66        19.15807
432.11         18.9785
432.56        19.24627
433.00          19.727
433.45        20.19122
433.89        20.49811
434.34        20.51415
434.78        20.10837
435.23        19.59043
435.67         19.5938
436.12        20.05462
436.57         20.2763
437.01        20.16959
437.46        20.09262
437.90        20.07953
438.35        20.02736
438.79        19.94164
439.24         19.8869
439.68        19.88452
440.13        19.83803
440.57        19.78828
441.02        20.06932
441.46        20.52311
441.91        20.42025
442.35         19.8713
442.80        19.64007
443.24        19.70308
443.69        19.76519
444.13        19.74369
444.58        19.50506
445.02        19.13471
445.47        19.06172
445.91        19.24129
446.36        19.25289
446.80        19.07623
447.24        18.96459
447.69        18.94701
448.13          18.942
448.58         18.9577
449.02         19.0091
449.47        19.07583
449.91        19.12366
450.36        19.14508
450.80        19.13839
451.25        19.12396
451.69        19.12311
452.13        19.14383
452.58        19.16857
453.02        19.18422
453.47        19.17036
453.91        19.12556
454.36         19.0651
454.80        18.99129
455.24        18.90401
455.69        18.82088
456.13        18.73692
456.58        18.69689
457.02        18.73709
457.46        18.86656
457.91        19.06039
458.35         19.2634
458.79        19.38504
459.24         19.4129
459.68        19.35579
460.13        19.27357
460.57        19.21603
461.01        19.21893
461.46        19.26252
461.90        19.32231
462.34        19.35419
462.79        19.34159
463.23        19.29054
463.68        19.24782
464.12         19.2945
464.56        19.44128
465.01        19.67402
465.45        19.86305
465.89        19.89211
466.34         19.7611
466.78        19.40211
467.22        18.99816
467.67        19.03526
468.11        19.46367
468.55        19.69308
468.99        19.64253
469.44        19.58124
469.88        19.56778
470.32        19.67722
470.77        19.85003
471.21        19.84447
471.65        19.64437
472.10        19.44658
472.54        19.31064
472.98          19.265
473.42        19.33052
473.87        19.50369
474.31        19.71793
474.75        19.86304
475.20        19.91573
475.64        19.89485
476.08        19.84812
476.52        19.85035
476.97        19.92103
477.41        20.03713
477.85        20.15488
478.29        20.24497
478.74        20.29938
479.18        20.23202
479.62         20.0876
480.06        20.27304
480.50        20.37955
480.95        20.46195
481.39        20.37462
481.83        20.31339
482.27        20.28489
482.72        20.11375
483.16        19.87996
483.60         19.9803
484.04        20.43893
484.48        20.62343
484.93         20.7543
485.37        21.23046
485.81        22.06853
486.25        21.73848
486.69        29.32752
487.14        23.41614
487.58        15.15737
488.02        18.29805
488.46        21.05289
488.90        20.98294
489.34        20.90176
489.79         20.6167
490.23        21.68974
490.67        22.35432
491.11        22.30151
491.55         22.1838
491.99        21.96086
492.43        21.75274
492.88        21.64792
493.32        21.69569
493.76        21.73909
494.20        21.92821
494.64        22.19477
495.08         22.5027
495.52        22.82252
495.96        23.13708
496.41        23.37247
496.85         23.5014
497.29        23.53906
497.73        23.28035
498.17        23.00656
498.61        23.28291
499.05         24.0857
499.49        24.24145
499.93        24.31972
500.37        24.37058
500.82        24.35387
501.26        24.55129
501.70        24.84895
502.14        25.03121
502.58        25.05491
503.02        25.08959
503.46        25.13624
503.90        25.07806
504.34         24.9586
504.78          24.909
505.22         24.9509
505.66         25.0528
506.10        25.17575
506.54        25.25272
506.98        25.26667
507.42        25.24223
507.86        25.22336
508.30        25.27607
508.74         25.4101
509.18         25.5947
509.62        25.78517
510.06        25.91075
510.50        25.95313
510.94        25.94302
511.38        25.90033
511.82        25.85427
512.26        25.82203
512.70        25.79309
513.14        25.79448
513.58        25.87131
514.02        26.01538
514.46         26.2032
514.90        26.37873
515.34        26.41961
515.78        26.27835
516.22        26.13784
516.66        26.05565
517.10        25.70598
517.54           25.11
517.98        25.77521
518.42        25.51471
518.86        25.79666
519.30        25.95135
519.74        26.18092
520.18        26.41303
520.62        26.50203
521.06         26.4495
521.50        26.27521
521.93        26.05845
522.37        25.94129
522.81        25.95792
523.25        26.06442
523.69        26.20486
524.13        26.29249
524.57        26.30003
525.01        26.25545
525.45         26.1769
525.89        26.09196
526.32        26.01117
526.76        25.92623
527.20        25.83566
527.64        25.74866
528.08        25.67209
528.52        25.58387
528.96        25.48106
529.40        25.42632
529.83        25.43388
530.27        25.22845
530.71        25.29386
531.15        25.20574
531.59        25.11327
532.03        25.00739
532.46        24.93698
532.90        24.97842
533.34        25.12882
533.78        25.35545
534.22        25.57374
534.66         25.6615
535.09        25.58796
535.53        25.39967
535.97        25.15848
536.41        24.96978
536.85        24.87175
537.28        24.84521
537.72        24.85966
538.16        24.86599
538.60        24.85279
539.04        24.81839
539.47        24.80297
539.91        24.92825
540.35        25.17067
540.79        25.39732
541.22        25.55651
541.66        25.67269
542.10        25.73009
542.54        25.68844
542.97        25.60711
543.41        25.62319
543.85        25.75901
544.29        25.98894
544.72        26.23701
545.16        26.39411
545.60         26.4352
546.04        26.39023
546.47        26.35766
546.91        26.50271
547.35        26.84004
547.79        27.31589
548.22        27.78328
548.66        27.99368
549.10        27.91744
549.53        27.67999
549.97        27.43337
550.41         27.3425
550.84        27.46457
551.28        27.76062
551.72        28.16155
552.15        28.53542
552.59        28.82556
553.03          29.064
553.46        29.24559
553.90        29.39009
554.34        29.51175
554.77        29.56783
555.21        29.57245
555.65         29.6455
556.08        29.81219
556.52        29.68114
556.96        29.93531
557.39        29.99288
557.83        30.06465
558.27        30.13202
558.70        30.21249
559.14        30.31561
559.57        30.42983
560.01        30.56358
560.45        30.68286
560.88        30.73449
561.32        30.73509
561.75        30.68539
562.19        30.64482
562.63        30.66287
563.06          30.746
563.50        30.88203
563.93        31.04006
564.37        31.18764
564.80        31.30107
565.24        31.40273
565.68        31.48418
566.11        31.53549
566.55        31.58247
566.98        31.62011
567.42        31.68758
567.85        31.83749
568.29        32.09644
568.72        32.35856
569.16        32.63997
569.60        33.03532
570.03         33.3792
570.47        33.39685
570.90        33.27217
571.34        32.69183
571.77        33.29362
572.21        33.48551
572.64        33.59282
573.08        33.19818
573.51        31.98956
573.95        33.33495
574.38         35.5061
574.82        34.58899
