SpectraSmart Spectrum 2.9.0.0
--------- Device Information -----------
Spectrum Name :  反射率_0
Saving Time :  2024/04/25 23:54:36
Spectro-Module Model Name : SE2030-DUVN
Spectro-Module Serial Number : OS361AC55029948
Wavelength Start : 200
Wavelength End : 1025
Wavelength Unit : Wavelength(nm)
Spectrum Unit : Reflectance(%)
-----------Spectrum Setting ------------
Integration Time : 20ms
Average : 10
Boxcar : 0
Background removal :  enabled
linearity correction :  enabled
SC :  disabled
Intensity correction :  disabled
DWT denoise :  enabled
savitzky-golay :  disabled
FFT :  disabled
Running average :  disabled
Kalman :  disabled
High pass :  disabled
---------------BEGIN--------------------
Wavelength(nm)             Reflectance(%)
200.29               0
200.75        86.08438
201.21        78.93919
201.67        70.47442
202.13        65.81425
202.58        65.61546
203.04        68.88569
203.50        73.31385
203.96         74.9184
204.42        73.00876
204.88        69.30106
205.34        66.06712
205.80        65.61033
206.26        68.92042
206.72        78.24018
207.18        97.44174
207.64        114.8134
208.10        104.5107
208.55        82.04028
209.01        68.21084
209.47        65.00488
209.93        68.32281
210.39        76.00976
210.85        84.51218
211.31        86.01147
211.77        78.09132
212.23        63.95242
212.69        49.47945
213.14        43.49506
213.60        47.71876
214.06        59.88063
214.52        74.80184
214.98        84.36617
215.44        86.31026
215.90        82.97305
216.36        77.90363
216.81        75.97702
217.27        78.18073
217.73        82.40562
218.19        85.65829
218.65        84.08818
219.11        76.30135
219.57        61.53663
220.02        41.46332
220.48        27.20357
220.94        26.28638
221.40        36.61866
221.86        48.68879
222.32        51.86638
222.77         46.5427
223.23        37.87313
223.69        30.63758
224.15        29.67354
224.61        34.48103
225.06        42.52108
225.52        50.44717
225.98         54.1259
226.44        52.80661
226.90        48.31776
227.36        42.97998
227.81        39.87897
228.27        39.97935
228.73        42.00375
229.19         44.7596
229.65        46.51611
230.10        46.87665
230.56        46.61773
231.02        46.25489
231.48        46.30723
231.93        46.82552
232.39        47.51954
232.85        48.25994
233.31        48.96411
233.77        49.53923
234.22        50.02675
234.68        50.25064
235.14        49.81061
235.60        48.71121
236.05        47.20783
236.51        45.65749
236.97        44.46366
237.43        43.74402
237.88        43.45836
238.34        43.79209
238.80        45.19129
239.26        47.65504
239.71        51.09681
240.17        54.50748
240.63        56.64038
241.08        57.27599
241.54        56.69941
242.00        55.62885
242.46        55.11674
242.91        55.76783
243.37         57.8253
243.83        66.82195
244.28        108.9655
244.74        180.4008
245.20        170.7019
245.66        146.3317
246.11        136.1365
246.57        132.7122
247.03        129.9537
247.48        106.8169
247.94        46.53979
248.40        53.04874
248.85         63.5878
249.31        70.08848
249.77        74.31191
250.22        78.13512
250.68        83.38158
251.14        89.88742
251.59        92.68159
252.05        87.74957
252.51        77.55306
252.96          67.375
253.42        62.19742
253.88        61.33926
254.33        63.09261
254.79        66.64864
255.25        70.22856
255.70        72.91926
256.16        75.20724
256.62         76.2493
257.07        75.13335
257.53        72.51051
257.99        68.57945
258.44        64.52669
258.90        62.60415
259.35        62.08282
259.81         62.2683
260.27        61.70306
260.72        58.97141
261.18        54.73142
261.63        49.59303
262.09        44.98508
262.55        41.94436
263.00        40.39552
263.46        39.87185
263.91         39.4997
264.37        38.56943
264.83        36.94517
265.28        34.81772
265.74        32.81429
266.19        31.65097
266.65        31.49944
267.11        31.92653
267.56        32.35704
268.02        32.11067
268.47         31.0858
268.93        29.53684
269.38        27.79235
269.84        26.63226
270.30         26.2725
270.75          26.494
271.21        26.93061
271.66        27.04288
272.12        26.67473
272.57        25.99962
273.03        25.27788
273.48        24.81716
273.94        24.70992
274.39        24.79593
274.85        24.88892
275.31        24.72431
275.76        24.24248
276.22        23.57226
276.67        22.85753
277.13        22.38127
277.58        22.15437
278.04        22.11209
278.49         22.0772
278.95        21.85016
279.40        21.37751
279.86        20.78743
280.31         20.1806
280.77        19.80599
281.22        19.66703
281.68        19.69242
282.13        19.77192
282.59        19.77901
283.04        19.67799
283.50         19.5457
283.95        19.37976
284.41         19.1894
284.86        18.98418
285.32        18.75986
285.77         18.5977
286.22        18.68005
286.68        18.99111
287.13        19.44451
287.59        19.83502
288.04        19.85299
288.50        19.47466
288.95        18.80146
289.41        18.05462
289.86        17.46844
290.32        17.16331
290.77        17.05718
291.22        17.11419
291.68         17.2406
292.13        17.40517
292.59        17.63219
293.04        17.93276
293.50        18.31917
293.95        18.76809
294.40         19.2313
294.86        19.64454
295.31        19.93041
295.77         20.0838
296.22        20.14289
296.68         20.1589
297.13        20.18775
297.58        20.27577
298.04        20.42391
298.49        20.66849
298.95        21.09325
299.40        21.68489
299.85         22.4079
300.31        23.14277
300.76        23.71346
301.21        24.06046
301.67        24.25062
302.12        24.33252
302.58        24.42902
303.03        24.56216
303.48        24.70765
303.94         24.8995
304.39        25.15959
304.84        25.48488
305.30        25.85904
305.75        26.19325
306.20        26.35563
306.66        26.34353
307.11          26.194
307.57        26.00196
308.02        25.84459
308.47        25.77805
308.93        25.77611
309.38        25.84624
309.83        26.02612
310.29         26.2913
310.74         26.6143
311.19        26.90958
311.65         27.0457
312.10        26.99466
312.55        26.79536
313.00        26.50039
313.46        26.21198
313.91        25.96578
314.36        25.75508
314.82        25.60896
315.27        25.55705
315.72        25.60128
316.18        25.73276
316.63        25.89931
317.08        25.98825
317.53        25.96626
317.99         25.8481
318.44        25.69517
318.89        25.61254
319.35        25.61924
319.80        25.69105
320.25         25.7494
320.70        25.66802
321.16        25.42468
321.61        25.06312
322.06         24.6849
322.51        24.44161
322.97        24.35746
323.42        24.39566
323.87        24.45496
324.32        24.36647
324.78        24.08904
325.23        23.68353
325.68        23.24729
326.13        22.94018
326.59        22.80345
327.04        22.80495
327.49        22.87576
327.94        22.90288
328.39        22.85088
328.85        22.74704
329.30         22.6545
329.75        22.64571
330.20        22.73953
330.66        22.88464
331.11        23.05385
331.56        23.16528
332.01        23.19246
332.46        23.14969
332.92        23.05659
333.37        22.97277
333.82        22.91488
334.27        22.88339
334.72        22.85278
335.17        22.78111
335.63        22.66157
336.08        22.51012
336.53        22.39635
336.98         22.4325
337.43        22.63259
337.88        22.96541
338.34        23.28509
338.79        23.39869
339.24        23.24239
339.69        22.87331
340.14        22.46985
340.59        22.34306
341.05        22.55457
341.50        23.00113
341.95        23.49522
342.40        23.76435
342.85        23.74717
343.30        23.54066
343.75        23.23568
344.20        22.99255
344.66        22.87004
345.11        22.78183
345.56        22.73767
346.01        22.75224
346.46        22.80513
346.91        22.91444
347.36        22.95713
347.81         22.7278
348.26        22.22238
348.72        21.54628
349.17        20.88812
349.62         20.6397
350.07        20.88699
350.52        21.49173
350.97        22.25222
351.42        22.85839
351.87        23.20556
352.32        23.37109
352.77        23.38255
353.22        23.29183
353.67        23.13288
354.13        22.88773
354.58        22.60021
355.03        22.38515
355.48        22.27215
355.93        22.25945
356.38        22.28085
356.83         22.2143
357.28        22.03091
357.73         21.7587
358.18        21.48118
358.63        21.32903
359.08        21.32686
359.53        21.43742
359.98        21.54401
360.43        21.46791
360.88        21.17962
361.33         20.7351
361.78        20.28869
362.23        20.08981
362.68        20.18331
363.13        20.47529
363.58        20.79205
364.03         20.8645
364.48        20.62981
364.93        20.18331
365.38        19.64828
365.83        19.22039
366.28        18.96993
366.73        18.84162
367.18        18.80346
367.63        18.80519
368.08        18.81508
368.53        18.84485
368.98        18.88002
369.43        18.88857
369.88        18.86332
370.33          18.812
370.78        18.71787
371.23         18.5657
371.68        18.36283
372.13        18.10896
372.58        17.88973
373.03        17.84586
373.48        17.99704
373.93        18.30124
374.38        18.60933
374.83        18.68947
375.28        18.49729
375.72        18.09118
376.17        17.64546
376.62        17.40644
377.07        17.43743
377.52        17.65214
377.97        17.92463
378.42         18.0537
378.87        17.98396
379.32        17.79115
379.77        17.54407
380.22        17.33475
380.67        17.19341
381.11        17.08875
381.56        17.00704
382.01        16.94066
382.46        16.88107
382.91        16.83179
383.36        16.79102
383.81        16.74831
384.26        16.70016
384.71        16.65231
385.15        16.57941
385.60        16.45672
386.05        16.27845
386.50        16.04651
386.95        15.82614
387.40         15.7303
387.85        15.77889
388.29        15.93079
388.74        16.08661
389.19        16.09642
389.64         15.9407
390.09        15.65461
390.54        15.35374
390.98        15.23297
391.43        15.34289
391.88        15.61086
392.33        15.88383
392.78        15.93813
393.23        15.74664
393.67        15.38709
394.12        15.03245
394.57        14.86747
395.02        14.92698
395.47        15.14396
395.91        15.41222
396.36        15.52256
396.81        15.41912
397.26         15.1634
397.71        14.86062
398.15         14.6488
398.60        14.58525
399.05        14.62578
399.50        14.69203
399.95        14.63597
400.39        14.50096
400.84        14.27786
401.29        14.07508
401.74        14.05539
402.18        14.26166
402.63        14.61405
403.08          14.985
403.53        15.17453
403.97         15.1332
404.42        14.92302
404.87        14.63639
405.32        14.43547
405.76        14.37131
406.21        14.39504
406.66        14.46135
407.11        14.51062
407.55        14.52683
408.00        14.53098
408.45         14.5185
408.90        14.46802
409.34        14.38273
409.79        14.26835
410.24        14.16753
410.68        14.14279
411.13        14.20684
411.58        14.34595
412.03        14.51274
412.47        14.62253
412.92        14.63635
413.37        14.57283
413.81        14.48245
414.26        14.46075
414.71        14.51823
415.15        14.63091
415.60         14.7191
416.05        14.67429
416.49        14.47914
416.94        14.18935
417.39        13.89028
417.83        13.72466
418.28        13.73799
418.73        13.86931
419.17        14.06782
419.62        14.25139
420.07        14.38866
420.51        14.50198
420.96        14.55566
421.41         14.4879
421.85        14.29979
422.30        14.03758
422.74        13.77701
423.19        13.65836
423.64        13.69349
424.08        13.85408
424.53        14.06883
424.98        14.23319
425.42        14.31123
425.87         14.3201
426.31        14.27882
426.76        14.26565
427.21        14.27251
427.65        14.17523
428.10        14.04468
428.54        14.08488
428.99         14.3103
429.44        14.64423
429.88        14.92416
430.33        14.93786
430.77         14.6608
431.22        14.16971
431.66        13.67641
432.11        13.55629
432.56        13.84512
433.00        14.35833
433.45         14.8925
433.89        15.26881
434.34        15.34988
434.78        15.05152
435.23        14.62201
435.67        14.55604
436.12        14.81659
436.57        14.88284
437.01        14.71038
437.46        14.59667
437.90        14.57443
438.35        14.56243
438.79        14.55071
439.24        14.56201
439.68        14.59977
440.13        14.59562
440.57        14.56896
441.02        14.74866
441.46        15.01898
441.91        14.85681
442.35        14.36847
442.80        14.14214
443.24        14.16197
443.69        14.20734
444.13        14.21289
444.58        14.07472
445.02        13.84393
445.47        13.83188
445.91        13.99126
446.36        13.99194
446.80        13.81627
447.24        13.65668
447.69        13.55682
448.13         13.4927
448.58        13.48163
449.02        13.52567
449.47        13.59784
449.91         13.6512
450.36        13.67384
450.80        13.67124
451.25          13.665
451.69        13.67909
452.13        13.72144
452.58        13.77106
453.02        13.81586
453.47        13.83388
453.91        13.82444
454.36        13.80275
454.80        13.76877
455.24         13.7211
455.69        13.67251
456.13        13.61588
456.58        13.59439
457.02        13.65079
457.46        13.79234
457.91        13.99531
458.35        14.19773
458.79        14.29402
459.24        14.27279
459.68        14.15429
460.13          14.018
460.57        13.95021
461.01        13.98867
461.46        14.09767
461.90        14.23323
462.34        14.31574
462.79        14.32155
463.23        14.26904
463.68         14.2065
464.12        14.21408
464.56        14.31096
465.01        14.47693
465.45        14.61958
465.89        14.65609
466.34        14.58517
466.78         14.3588
467.22        14.10077
467.67        14.15306
468.11        14.47521
468.55        14.63212
468.99        14.58111
469.44        14.55066
469.88        14.59068
470.32        14.74909
470.77        14.96052
471.21        15.01068
471.65        14.87644
472.10        14.71646
472.54        14.59496
472.98        14.56849
473.42        14.65924
473.87        14.85129
474.31        15.07101
474.75        15.19649
475.20        15.20426
475.64         15.1241
476.08        15.01818
476.52        14.98225
476.97        15.04091
477.41        15.16645
477.85        15.30752
478.29        15.41198
478.74        15.46437
479.18         15.4063
479.62        15.28561
480.06        15.43358
480.50        15.54352
480.95        15.64833
481.39        15.61929
481.83        15.58451
482.27        15.54468
482.72        15.36957
483.16        15.14685
483.60        15.22338
484.04        15.61748
484.48        15.86106
484.93        16.09786
485.37        16.52376
485.81        17.04366
486.25        17.00047
486.69        22.24533
487.14        17.79222
487.58        11.81568
488.02        14.43729
488.46        16.44862
488.90        16.47056
489.34         16.4476
489.79        16.30234
490.23        17.15851
490.67        17.62398
491.11        17.48763
491.55        17.41586
491.99        17.36011
492.43        17.23478
492.88        17.09882
493.32        17.08841
493.76        17.11172
494.20         17.2961
494.64        17.59389
495.08        17.96473
495.52        18.35309
495.96        18.69856
496.41        18.92844
496.85        19.03419
497.29         19.0403
497.73        18.80454
498.17        18.56442
498.61        18.76715
499.05        19.40117
499.49        19.53646
499.93        19.63315
500.37        19.73098
500.82        19.77377
501.26         19.9534
501.70        20.17147
502.14        20.26369
502.58        20.22577
503.02        20.24521
503.46        20.33279
503.90         20.3751
504.34        20.37824
504.78        20.40627
505.22        20.46521
505.66        20.53602
506.10        20.59929
506.54        20.64456
506.98          20.658
507.42        20.60122
507.86        20.53291
508.30        20.58866
508.74        20.78083
509.18        21.04593
509.62        21.31458
510.06        21.48637
510.50         21.5327
510.94        21.49108
511.38        21.40353
511.82        21.33747
512.26        21.31833
512.70        21.32135
513.14        21.35782
513.58         21.4463
514.02        21.57151
514.46        21.72458
514.90        21.85357
515.34        21.83817
515.78        21.63552
516.22        21.43697
516.66        21.32177
517.10        20.97232
517.54        20.41235
517.98        21.23123
518.42        21.06964
518.86        21.42934
519.30        21.58653
519.74        21.76909
520.18        21.92952
520.62        21.96227
521.06         21.8842
521.50        21.70496
521.93        21.48974
522.37          21.358
522.81        21.33987
523.25         21.4029
523.69        21.50948
524.13        21.59839
524.57        21.64545
525.01         21.6666
525.45        21.65943
525.89        21.61927
526.32        21.54813
526.76        21.44828
527.20        21.33069
527.64        21.22388
528.08        21.14077
528.52        21.05619
528.96        20.96938
529.40        20.93395
529.83        20.95961
530.27        20.81941
530.71        20.89906
531.15        20.82621
531.59        20.72112
532.03        20.58231
532.46        20.46848
532.90        20.47672
533.34        20.61083
533.78        20.83175
534.22        21.05235
534.66        21.14458
535.09        21.07737
535.53        20.90202
535.97        20.67588
536.41        20.49524
536.85        20.39682
537.28        20.35875
537.72        20.36851
538.16          20.406
538.60        20.45996
539.04        20.52002
539.47        20.58864
539.91         20.7194
540.35        20.88678
540.79        20.99865
541.22        21.04435
541.66        21.09411
542.10        21.14927
542.54        21.16031
542.97        21.16271
543.41        21.24826
543.85        21.42495
544.29        21.67854
544.72        21.93771
545.16        22.09832
545.60        22.13915
546.04        22.08623
546.47        22.03862
546.91        22.16424
547.35        22.48079
547.79        22.93524
548.22        23.38669
548.66        23.59591
549.10        23.53193
549.53        23.31016
549.97         23.0752
550.41        22.98887
550.84        23.10599
551.28        23.38873
551.72         23.7683
552.15        24.11694
552.59        24.38087
553.03        24.59142
553.46        24.75551
553.90        24.90465
554.34        25.05378
554.77        25.16068
555.21        25.22238
555.65        25.31544
556.08        25.45741
556.52        25.32589
556.96        25.52187
557.39        25.57729
557.83        25.67744
558.27        25.79377
558.70        25.93154
559.14        26.08189
559.57        26.22713
560.01        26.38027
560.45        26.50314
560.88        26.53631
561.32        26.49703
561.75        26.39086
562.19        26.29393
562.63        26.28643
563.06        26.38089
563.50         26.5573
563.93         26.7648
564.37        26.93367
564.80        27.03533
565.24        27.10448
565.68        27.15614
566.11        27.21534
566.55        27.31259
566.98        27.42883
567.42        27.58394
567.85        27.80337
568.29         28.0966
568.72        28.36944
569.16        28.63818
569.60        28.98782
570.03        29.28301
570.47        29.29543
570.90         29.1677
571.34        28.59995
571.77        29.06782
572.21        29.04683
572.64        29.04276
573.08        28.70168
573.51         27.9086
573.95        29.20725
574.38         31.0409
574.82        30.43003
