SpectraSmart Spectrum 2.9.0.0
--------- Device Information -----------
Spectrum Name :  反射率_0
Saving Time :  2024/04/26 00:17:56
Spectro-Module Model Name : SE2030-DUVN
Spectro-Module Serial Number : OS361AC55029948
Wavelength Start : 200
Wavelength End : 1025
Wavelength Unit : Wavelength(nm)
Spectrum Unit : Reflectance(%)
-----------Spectrum Setting ------------
Integration Time : 20ms
Average : 10
Boxcar : 0
Background removal :  enabled
linearity correction :  enabled
SC :  disabled
Intensity correction :  disabled
DWT denoise :  enabled
savitzky-golay :  disabled
FFT :  disabled
Running average :  disabled
Kalman :  disabled
High pass :  disabled
---------------BEGIN--------------------
Wavelength(nm)             Reflectance(%)
200.29               0
200.75        78.15742
201.21        71.98453
201.67        65.35546
202.13        60.92057
202.58        58.87947
203.04        58.90188
203.50        60.06096
203.96        60.70592
204.42        60.39148
204.88         59.6689
205.34        58.99444
205.80         58.8248
206.26        59.37877
206.72         60.9719
207.18        64.34894
207.64        68.12668
208.10        67.44199
208.55        63.80037
209.01        61.30125
209.47        60.94126
209.93        62.02452
210.39        64.43721
210.85        66.66338
211.31        65.51054
211.77        60.41714
212.23        52.67146
212.69        45.98013
213.14        46.10941
213.60         53.6722
214.06        66.99505
214.52        81.27009
214.98        89.12194
215.44        88.79622
215.90        82.66248
216.36        74.35944
216.81        69.01907
217.27        68.02061
217.73        69.56017
218.19        71.08445
218.65        69.15362
219.11        62.52949
219.57        50.78134
220.02        35.50047
220.48        26.20315
220.94        28.51082
221.40        39.81615
221.86        51.61494
222.32        55.00569
222.77         50.5482
223.23        42.89019
223.69        36.14322
224.15        34.47088
224.61        37.53771
225.06        43.22913
225.52        49.02384
225.98        51.95843
226.44        51.42159
226.90         48.8017
227.36        45.43657
227.81        43.00471
228.27        42.27877
228.73        42.51109
229.19         43.4655
229.65        44.80199
230.10        46.22979
230.56        47.80473
231.02        49.28321
231.48          50.375
231.93        51.06142
232.39        51.38665
232.85        51.55548
233.31        51.97069
233.77         52.6577
234.22        53.47558
234.68        54.01939
235.14        53.49706
235.60        51.81001
236.05         49.4255
236.51        46.89817
236.97        44.81705
237.43        43.34052
237.88        42.35751
238.34        42.10672
238.80         43.2265
239.26        45.82988
239.71        49.79606
240.17        54.00441
240.63        56.95999
241.08        58.23638
241.54        58.02012
242.00        56.90939
242.46         55.7564
242.91        54.80564
243.37        53.11685
243.83         51.2067
244.28        60.77137
244.74        99.67198
245.20        113.6468
245.66        108.9155
246.11        105.7577
246.57        104.0439
247.03        100.7008
247.48        77.93821
247.94        37.51948
248.40        48.94429
248.85        58.28418
249.31        63.71252
249.77        67.80101
250.22        72.17142
250.68        78.51521
251.14        86.57183
251.59        90.08665
252.05        84.12191
252.51        72.16254
252.96        60.47749
253.42        54.67636
253.88        54.04696
254.33        56.37336
254.79        61.12697
255.25        66.87964
255.70        72.16189
256.16        77.00224
256.62        79.54673
257.07        77.86507
257.53        73.10023
257.99        66.31121
258.44        59.79617
258.90        57.02985
259.35        57.14041
259.81        58.57965
260.27        59.32061
260.72        57.44724
261.18        53.58724
261.63        48.61488
262.09        43.96877
262.55        40.67958
263.00        38.77426
263.46         37.8349
263.91        37.15639
264.37        36.20128
264.83        34.81479
265.28        33.10031
265.74        31.54707
266.19        30.64812
266.65        30.52811
267.11         30.8556
267.56        31.13977
268.02        30.78676
268.47        29.71919
268.93          28.157
269.38        26.43693
269.84        25.35991
270.30        25.12988
270.75        25.51197
271.21        26.09855
271.66        26.28579
272.12        25.90204
272.57        25.14303
273.03        24.27924
273.48        23.63876
273.94        23.33788
274.39        23.22822
274.85        23.16908
275.31         22.9608
275.76        22.55223
276.22         22.0481
276.67        21.54153
277.13        21.23619
277.58        21.11672
278.04        21.12293
278.49        21.10616
278.95        20.90845
279.40        20.48307
279.86        19.94607
280.31        19.35692
280.77        18.90211
281.22        18.59302
281.68        18.39656
282.13        18.27786
282.59        18.21146
283.04        18.17147
283.50         18.1839
283.95        18.18792
284.41        18.10061
284.86        17.90519
285.32        17.63175
285.77        17.36714
286.22         17.3001
286.68        17.43524
287.13        17.69334
287.59         17.9239
288.04        17.90319
288.50         17.6132
288.95        17.12421
289.41        16.58958
289.86        16.14438
290.32        15.87996
290.77         15.7389
291.22        15.71883
291.68        15.77942
292.13        15.90727
292.59        16.11351
293.04        16.38858
293.50        16.71394
293.95        17.06447
294.40        17.40647
294.86        17.71546
295.31        17.97161
295.77        18.17614
296.22        18.34719
296.68        18.47968
297.13         18.5384
297.58        18.55206
298.04        18.55414
298.49        18.63902
298.95        18.98002
299.40        19.58587
299.85         20.3881
300.31        21.23454
300.76        21.89707
301.21        22.29651
301.67        22.51804
302.12        22.61007
302.58        22.69062
303.03        22.78959
303.48        22.88204
303.94        23.02858
304.39        23.29517
304.84        23.68547
305.30        24.17244
305.75        24.63348
306.20         24.8811
306.66        24.89776
307.11        24.73276
307.57        24.51466
308.02        24.37459
308.47        24.37705
308.93        24.48017
309.38        24.64702
309.83         24.8459
310.29        25.04209
310.74        25.23358
311.19        25.39571
311.65        25.48913
312.10        25.50363
312.55        25.44849
313.00        25.31284
313.46        25.09351
313.91        24.80058
314.36         24.4633
314.82        24.16747
315.27        24.02983
315.72        24.07267
316.18        24.25613
316.63        24.49313
317.08        24.61565
317.53        24.57267
317.99         24.4004
318.44        24.17374
318.89         24.0159
319.35          23.955
319.80        23.95846
320.25        23.95547
320.70        23.83526
321.16        23.57803
321.61        23.22615
322.06        22.86478
322.51        22.61726
322.97        22.50067
323.42         22.4817
323.87        22.47466
324.32        22.33984
324.78        22.04359
325.23        21.63704
325.68         21.1989
326.13        20.85744
326.59        20.64897
327.04        20.55529
327.49        20.52865
327.94        20.48896
328.39        20.41228
328.85        20.31627
329.30        20.25653
329.75        20.29574
330.20        20.44244
330.66        20.64393
331.11        20.85713
331.56         20.9778
332.01        20.97284
332.46        20.85752
332.92        20.66582
333.37         20.4826
333.82        20.33955
334.27        20.23756
334.72        20.14588
335.17        20.00916
335.63        19.81974
336.08        19.60024
336.53        19.43544
336.98        19.45763
337.43        19.68076
337.88        20.06178
338.34        20.43048
338.79        20.55357
339.24        20.35684
339.69        19.90859
340.14        19.40566
340.59        19.19426
341.05        19.35021
341.50        19.76181
341.95        20.23817
342.40        20.50026
342.85        20.47978
343.30        20.27436
343.75        19.96586
344.20        19.69752
344.66        19.52651
345.11        19.37709
345.56        19.26769
346.01        19.22543
346.46        19.23812
346.91        19.32326
347.36        19.36995
347.81        19.19153
348.26        18.78089
348.72        18.22973
349.17         17.7008
349.62        17.54465
350.07         17.8311
350.52        18.43025
350.97        19.14403
351.42        19.67082
351.87        19.91674
352.32        19.96335
352.77        19.85819
353.22        19.68465
353.67        19.48385
354.13          19.229
354.58        18.95287
355.03        18.74797
355.48        18.63438
355.93        18.61688
356.38        18.62079
356.83        18.51052
357.28        18.26138
357.73        17.90982
358.18        17.56429
358.63        17.39598
359.08        17.43653
359.53        17.63162
359.98        17.84782
360.43        17.87907
360.88        17.68352
361.33        17.32429
361.78        16.93975
362.23        16.75607
362.68        16.81662
363.13        17.03011
363.58        17.26247
364.03        17.30761
364.48        17.11651
364.93        16.77409
365.38        16.35065
365.83         15.9541
366.28          15.636
366.73        15.36268
367.18        15.17506
367.63        15.14257
368.08        15.25543
368.53        15.48454
368.98        15.72079
369.43         15.7872
369.88        15.64839
370.33        15.36106
370.78         15.0009
371.23        14.70527
371.68        14.52608
372.13        14.41762
372.58        14.39583
373.03        14.48271
373.48        14.65731
373.93        14.91275
374.38         15.1404
374.83        15.16899
375.28        14.97149
375.72        14.58421
376.17        14.15881
376.62        13.90764
377.07        13.89055
377.52        14.04408
377.97        14.26912
378.42        14.40229
378.87        14.39392
379.32        14.29613
379.77        14.16306
380.22        14.06958
380.67         14.0346
381.11        14.03009
381.56        14.01829
382.01        13.95229
382.46        13.82171
382.91        13.64578
383.36        13.46878
383.81         13.3555
384.26        13.32146
384.71        13.35125
385.15        13.38598
385.60        13.34544
386.05         13.2103
386.50        12.99879
386.95        12.78507
387.40        12.69722
387.85        12.75878
388.29        12.91985
388.74        13.07949
389.19        13.09805
389.64        12.95835
390.09         12.7015
390.54        12.42843
390.98        12.30817
391.43        12.38789
391.88        12.59989
392.33        12.82957
392.78        12.90925
393.23        12.81317
393.67        12.59909
394.12        12.37803
394.57        12.25701
395.02        12.26168
395.47        12.35082
395.91        12.47812
396.36        12.54693
396.81        12.52736
397.26        12.43695
397.71        12.31648
398.15        12.21115
398.60        12.15319
399.05        12.13505
399.50        12.10568
399.95        11.95812
400.39        11.73772
400.84        11.43299
401.29        11.16118
401.74        11.11073
402.18        11.33088
402.63        11.74181
403.08        12.19274
403.53        12.44402
403.97        12.43455
404.42        12.23245
404.87        11.94637
405.32        11.76819
405.76        11.75572
406.21        11.84801
406.66        11.97877
407.11        12.05988
407.55        12.07066
408.00        12.04046
408.45        11.99067
408.90        11.94777
409.34        11.92301
409.79        11.90084
410.24        11.88334
410.68        11.87684
411.13        11.88427
411.58        11.91324
412.03        11.94535
412.47        11.94883
412.92        11.91041
413.37        11.83522
413.81        11.76789
414.26        11.79173
414.71        11.90868
415.15        12.09665
415.60         12.2621
416.05        12.27397
416.49        12.10612
416.94         11.8132
417.39        11.48868
417.83        11.29387
418.28        11.28203
418.73        11.39324
419.17        11.56827
419.62         11.7073
420.07        11.78096
420.51        11.82025
420.96        11.81674
421.41        11.75229
421.85        11.63073
422.30        11.47045
422.74        11.31304
423.19         11.2486
423.64        11.28004
424.08         11.3953
424.53        11.52997
424.98         11.5924
425.42        11.55976
425.87         11.4508
426.31        11.31484
426.76        11.26667
427.21        11.30981
427.65        11.33654
428.10        11.36043
428.54        11.46804
428.99        11.65239
429.44        11.87217
429.88        12.04139
430.33        12.05775
430.77        11.91005
431.22        11.62467
431.66         11.3339
432.11        11.29278
432.56        11.51823
433.00          11.879
433.45        12.21515
433.89        12.40432
434.34        12.35673
434.78        12.00555
435.23        11.58288
435.67        11.51623
436.12        11.77618
436.57        11.94169
437.01        11.92432
437.46        11.87314
437.90        11.79393
438.35        11.64846
438.79        11.48105
439.24        11.39359
439.68        11.40922
440.13        11.44634
440.57        11.49166
441.02        11.67986
441.46        11.90382
441.91         11.7654
442.35        11.35354
442.80        11.14134
443.24        11.11751
443.69         11.1057
444.13        11.06172
444.58        10.92273
445.02        10.73321
445.47        10.73385
445.91        10.87774
446.36        10.89219
446.80        10.75505
447.24         10.6127
447.69        10.51177
448.13         10.4517
448.58        10.44891
449.02        10.50363
449.47        10.56125
449.91         10.5316
450.36        10.40397
450.80         10.2044
451.25        10.01973
451.69        9.975017
452.13        10.09337
452.58        10.31791
453.02        10.56276
453.47        10.68904
453.91        10.66785
454.36        10.54731
454.80        10.37777
455.24        10.24676
455.69        10.19257
456.13        10.17828
456.58        10.21345
457.02        10.29802
457.46        10.42606
457.91        10.59323
458.35        10.75227
458.79        10.81434
459.24        10.77363
459.68        10.64406
460.13        10.50094
460.57        10.43167
461.01        10.47009
461.46        10.57956
461.90        10.71517
462.34        10.79048
462.79        10.78396
463.23        10.72002
463.68        10.64602
464.12        10.63672
464.56        10.71541
465.01        10.85852
465.45        11.00045
465.89        11.08436
466.34         11.1045
466.78        11.01727
467.22        10.89899
467.67        10.98598
468.11        11.24055
468.55        11.33482
468.99        11.24491
469.44        11.16453
469.88        11.14214
470.32        11.20979
470.77        11.33286
471.21        11.37539
471.65        11.31967
472.10        11.28026
472.54        11.27159
472.98        11.28338
473.42        11.32337
473.87        11.39743
474.31        11.48387
474.75         11.5418
475.20        11.56579
475.64         11.5583
476.08         11.5492
476.52        11.58574
476.97        11.67592
477.41        11.80859
477.85        11.93775
478.29        12.01198
478.74        12.02126
479.18        11.92237
479.62         11.7738
480.06        11.86563
480.50         11.9669
480.95        12.09136
481.39        12.11877
481.83        12.11402
482.27        12.07232
482.72        11.90982
483.16         11.7021
483.60        11.73437
484.04        12.02599
484.48        12.20118
484.93        12.39896
485.37        12.79459
485.81        13.28674
486.25        13.39718
486.69        17.60536
487.14        13.92255
487.58        9.349503
488.02        11.37987
488.46        12.89035
488.90        12.87326
489.34        12.89101
489.79        12.85004
490.23        13.60262
490.67        14.08791
491.11        14.07433
491.55        13.91474
491.99        13.62317
492.43        13.40328
492.88        13.33716
493.32        13.38528
493.76        13.44558
494.20        13.62709
494.64        13.87917
495.08        14.16896
495.52        14.46749
495.96        14.74958
496.41        14.96269
496.85        15.09292
497.29        15.14332
497.73        14.97663
498.17        14.77828
498.61        14.91432
499.05        15.39159
499.49        15.50051
499.93        15.61373
500.37         15.7518
500.82        15.85252
501.26        16.04618
501.70        16.24639
502.14        16.32752
502.58        16.29188
503.02        16.30048
503.46         16.3651
503.90        16.39015
504.34        16.38068
504.78         16.3865
505.22        16.41251
505.66        16.45491
506.10        16.49613
506.54        16.50388
506.98        16.47742
507.42        16.43079
507.86        16.40911
508.30        16.48188
508.74        16.65508
509.18        16.89629
509.62        17.14904
510.06        17.32002
510.50        17.38425
510.94        17.37822
511.38        17.32427
511.82        17.25871
512.26         17.2031
512.70        17.14287
513.14        17.11925
513.58        17.20028
514.02        17.37938
514.46        17.62786
514.90        17.86028
515.34        17.90339
515.78        17.69794
516.22        17.45782
516.66        17.28044
517.10        16.85562
517.54        16.21882
517.98        17.03929
518.42        16.83211
518.86        17.17719
519.30        17.31264
519.74        17.48265
520.18        17.64211
520.62        17.68515
521.06        17.62794
521.50        17.47454
521.93        17.28293
522.37        17.16346
522.81        17.14234
523.25        17.18936
523.69         17.2696
524.13        17.32603
524.57         17.3389
525.01        17.32735
525.45        17.29331
525.89        17.23867
526.32        17.16738
526.76        17.07783
527.20        16.98389
527.64        16.91681
528.08        16.88476
528.52         16.8634
528.96        16.83367
529.40        16.80993
529.83         16.7968
530.27        16.62312
530.71        16.61981
531.15        16.52403
531.59        16.44091
532.03        16.35987
532.46        16.31453
532.90        16.36146
533.34        16.49409
533.78        16.68621
534.22        16.87144
534.66        16.95331
535.09        16.90688
535.53        16.76723
535.97        16.57781
536.41         16.4131
536.85        16.30327
537.28        16.23694
537.72        16.20451
538.16        16.18829
538.60        16.18409
539.04         16.1874
539.47        16.21553
539.91        16.33199
540.35        16.51745
540.79        16.68869
541.22        16.81484
541.66        16.91619
542.10         16.9844
542.54        16.98915
542.97        16.97023
543.41        17.02143
543.85        17.15721
544.29        17.36221
544.72        17.57991
545.16         17.7275
545.60        17.78736
546.04        17.78024
546.47        17.78352
546.91        17.92877
547.35        18.22555
547.79        18.62817
548.22        19.01878
548.66        19.19673
549.10        19.13861
549.53        18.94406
549.97        18.73477
550.41        18.64555
550.84        18.72566
551.28        18.94612
551.72        19.26455
552.15        19.59928
552.59        19.90331
553.03        20.18723
553.46        20.43096
553.90        20.62188
554.34        20.76577
554.77        20.84124
555.21        20.85505
555.65        20.88604
556.08        20.95817
556.52        20.80279
556.96        20.93135
557.39        20.98575
557.83        21.11873
558.27        21.29971
558.70        21.49869
559.14        21.65039
559.57        21.72827
560.01        21.75938
560.45        21.75028
560.88        21.71278
561.32        21.67668
561.75        21.62827
562.19        21.59773
562.63        21.60253
563.06        21.64355
563.50        21.71819
563.93        21.81532
564.37        21.93344
564.80        22.05504
565.24        22.17021
565.68        22.26805
566.11        22.35319
566.55        22.44255
566.98        22.51749
567.42        22.61187
567.85        22.78686
568.29        23.05568
568.72        23.30957
569.16        23.54813
569.60        23.88293
570.03         24.2062
570.47        24.23847
570.90         24.0901
571.34        23.86743
571.77        24.24417
572.21        24.35436
572.64        24.42774
573.08        24.25937
573.51        23.49057
573.95        24.53731
574.38         26.0914
574.82        25.33987
