SpectraSmart Spectrum 2.9.0.0
--------- Device Information -----------
Spectrum Name :  反射率_0
Saving Time :  2024/04/26 00:42:30
Spectro-Module Model Name : SE2030-DUVN
Spectro-Module Serial Number : OS361AC55029948
Wavelength Start : 200
Wavelength End : 1025
Wavelength Unit : Wavelength(nm)
Spectrum Unit : Reflectance(%)
-----------Spectrum Setting ------------
Integration Time : 20ms
Average : 10
Boxcar : 0
Background removal :  enabled
linearity correction :  enabled
SC :  disabled
Intensity correction :  disabled
DWT denoise :  enabled
savitzky-golay :  disabled
FFT :  disabled
Running average :  disabled
Kalman :  disabled
High pass :  disabled
---------------BEGIN--------------------
Wavelength(nm)             Reflectance(%)
200.29               0
200.75        103.5813
201.21        96.12058
201.67        87.91574
202.13         83.2181
202.58        82.43171
203.04        84.81466
203.50        88.22202
203.96        88.98633
204.42        86.61154
204.88        82.77597
205.34        79.43684
205.80        78.51035
206.26        80.74282
206.72        87.70621
207.18        103.1218
207.64        120.4839
208.10        118.1741
208.55        103.5535
209.01        93.32403
209.47        90.29343
209.93        91.79726
210.39        96.17487
210.85        100.9409
211.31        100.8891
211.77        94.64887
212.23        84.49051
212.69        74.86706
213.14        72.50764
213.60        78.36213
214.06        90.38872
214.52        104.0038
214.98         112.139
215.44        112.9519
215.90        108.8175
216.36         102.593
216.81        98.14713
217.27        96.96378
217.73        97.76197
218.19        99.04359
218.65        99.01265
219.11        97.05872
219.57        92.91557
220.02        88.29814
220.48         89.2009
220.94        97.48189
221.40        110.3474
221.86         119.585
222.32        117.7191
222.77        106.9043
223.23        92.75251
223.69        81.28137
224.15        78.71779
224.61        84.30241
225.06        94.93246
225.52        106.1744
225.98        111.9909
226.44        111.2664
226.90        106.3241
227.36         100.503
227.81        98.38216
228.27        101.1285
228.73        106.7249
229.19         112.715
229.65        115.5772
230.10        114.7712
230.56         112.322
231.02         109.774
231.48        108.8869
231.93        109.7486
232.39        111.5874
232.85         113.845
233.31        115.9138
233.77        117.4724
234.22        118.8512
234.68        119.4732
235.14        118.3439
235.60        115.4632
236.05        111.2752
236.51        106.9774
236.97        104.1527
237.43        103.0492
237.88        103.4289
238.34        104.6441
238.80        105.5536
239.26        105.3777
239.71        104.8343
240.17        103.1145
240.63        99.69361
241.08        95.01577
241.54        89.36366
242.00        84.53599
242.46        82.82838
242.91        85.69807
243.37        96.43554
243.83        130.4846
244.28        228.0104
244.74        310.9711
245.20        231.2977
245.66         174.347
246.11        158.5189
246.57        164.3138
247.03        197.1335
247.48        298.7389
247.94        249.3494
248.40        140.8051
248.85        107.5619
249.31         97.8627
249.77        96.80372
250.22        100.5387
250.68        109.0009
251.14        122.0393
251.59        131.7648
252.05        129.6778
252.51        119.0422
252.96         107.124
253.42        101.4663
253.88        101.7211
254.33         105.108
254.79        110.5092
255.25        115.7269
255.70        119.5676
256.16        123.0038
256.62        125.2198
257.07        125.2548
257.53        123.9911
257.99        121.3931
258.44        118.2699
258.90        116.8759
259.35        116.1808
259.81        115.8903
260.27        114.7243
260.72        111.4179
261.18        106.9157
261.63        101.5547
262.09        96.61039
262.55        92.59155
263.00        89.45642
263.46        87.19096
263.91        85.27734
264.37        83.75929
264.83        82.27466
265.28        80.69713
265.74        79.05595
266.19        76.99754
266.65        74.89104
267.11         72.8633
267.56        70.99536
268.02        69.44403
268.47        68.03934
268.93        66.74883
269.38        65.58566
269.84        64.78478
270.30        64.36909
270.75        64.28675
271.21        64.26405
271.66        63.86666
272.12        63.02334
272.57         61.8323
273.03        60.64361
273.48        59.87736
273.94        59.65682
274.39        59.74476
274.85        59.89547
275.31        59.67962
275.76        58.98075
276.22        58.01118
276.67        56.88386
277.13        55.93278
277.58        55.15789
278.04        54.53848
278.49         53.9344
278.95        53.30272
279.40        52.55089
279.86        51.80349
280.31        51.02115
280.77        50.31882
281.22        49.65246
281.68        49.05484
282.13         48.4884
282.59        48.00714
283.04        47.56981
283.50        47.22248
283.95        46.87275
284.41        46.44954
284.86         45.9167
285.32        45.31866
285.77        44.75208
286.22        44.45807
286.68        44.43991
287.13         44.5704
287.59         44.6417
288.04        44.29338
288.50        43.52405
288.95        42.44299
289.41        41.30835
289.86        40.35775
290.32        39.73454
290.77        39.32147
291.22        39.10843
291.68        39.03391
292.13        39.05022
292.59        39.18327
293.04        39.36689
293.50        39.50613
293.95        39.56572
294.40        39.54515
294.86         39.4995
295.31        39.52335
295.77        39.64941
296.22        39.85598
296.68        40.09104
297.13        40.23982
297.58        40.29588
298.04        40.31311
298.49        40.38051
298.95         40.6796
299.40        41.21634
299.85        41.91577
300.31        42.63895
300.76        43.17796
301.21        43.46646
301.67        43.60817
302.12        43.62729
302.58        43.64002
303.03        43.66047
303.48        43.67989
303.94        43.78852
304.39        44.07781
304.84        44.55555
305.30        45.17491
305.75        45.76238
306.20        46.07197
306.66        46.07866
307.11         45.8391
307.57        45.51879
308.02        45.26912
308.47        45.17672
308.93        45.19218
309.38        45.27979
309.83        45.42558
310.29        45.59929
310.74        45.79272
311.19        45.96091
311.65        46.02457
312.10        45.96282
312.55        45.79964
313.00        45.55683
313.46        45.29109
313.91        45.02266
314.36        44.75622
314.82        44.54559
315.27        44.44368
315.72        44.46447
316.18         44.5868
316.63        44.74068
317.08        44.78284
317.53        44.67329
317.99        44.43684
318.44        44.16008
318.89        43.98897
319.35        43.94441
319.80        43.99339
320.25        44.02309
320.70        43.85279
321.16        43.45316
321.61        42.89411
322.06        42.30744
322.51        41.89018
322.97         41.6753
323.42        41.61602
323.87        41.60975
324.32        41.48666
324.78        41.19754
325.23        40.81207
325.68         40.3941
326.13         40.0546
326.59        39.81939
327.04        39.66917
327.49         39.5747
327.94        39.50019
328.39        39.42775
328.85        39.35856
329.30        39.31495
329.75        39.26801
330.20        39.21843
330.66        39.15542
331.11        39.11485
331.56          39.103
332.01        39.12195
332.46        39.15424
332.92        39.19369
333.37        39.29001
333.82        39.42291
334.27         39.5961
334.72        39.73531
335.17        39.71964
335.63        39.52734
336.08        39.19862
336.53        38.87163
336.98        38.78244
337.43        38.97683
337.88        39.39078
338.34        39.82617
338.79        40.00979
339.24        39.84652
339.69        39.42449
340.14        38.93301
340.59        38.70412
341.05        38.81943
341.50        39.16205
341.95        39.56816
342.40        39.80528
342.85        39.81178
343.30        39.67097
343.75        39.43097
344.20        39.17632
344.66        38.95595
345.11        38.71842
345.56        38.51145
346.01        38.40496
346.46         38.4028
346.91         38.5089
347.36        38.61391
347.81        38.53533
348.26         38.2551
348.72        37.85138
349.17        37.46196
349.62        37.39048
350.07        37.69223
350.52        38.25166
350.97        38.87745
351.42         39.2819
351.87         39.3861
352.32        39.27441
352.77        39.03239
353.22         38.8004
353.67        38.62952
354.13        38.48112
354.58        38.33263
355.03        38.19201
355.48        38.05542
355.93        37.94276
356.38        37.82738
356.83        37.65403
357.28         37.4134
357.73        37.11559
358.18        36.80865
358.63        36.57096
359.08        36.42035
359.53        36.34018
359.98        36.26929
360.43        36.11155
360.88        35.84779
361.33        35.50229
361.78         35.1576
362.23        34.94783
362.68        34.89544
363.13        34.95217
363.58        35.00811
364.03        34.89285
364.48         34.5726
364.93        34.10848
365.38        33.60397
365.83        33.22422
366.28        33.01708
366.73        32.93074
367.18        32.90701
367.63        32.85147
368.08        32.72908
368.53         32.5701
368.98        32.38763
369.43        32.19535
369.88        32.00161
370.33        31.80023
370.78        31.59124
371.23        31.38307
371.68        31.18225
372.13        30.98895
372.58         30.8305
373.03        30.74755
373.48        30.74294
373.93        30.80375
374.38        30.87115
374.83        30.85242
375.28        30.73098
375.72        30.52497
376.17        30.31516
376.62        30.19758
377.07        30.19377
377.52        30.25665
377.97        30.34433
378.42        30.39092
378.87        30.36966
379.32        30.30784
379.77        30.18717
380.22        29.97629
380.67        29.68292
381.11        29.31943
381.56        28.95661
382.01        28.72167
382.46        28.64541
382.91        28.69689
383.36        28.79242
383.81        28.79082
384.26        28.65833
384.71        28.44005
385.15         28.1962
385.60        28.03905
386.05        27.97821
386.50        27.96885
386.95        27.97143
387.40        27.92548
387.85        27.82043
388.29        27.68178
388.74        27.54489
389.19        27.38659
389.64        27.20825
390.09        26.99704
390.54        26.81021
390.98        26.74657
391.43        26.82618
391.88        27.00748
392.33        27.17491
392.78        27.15451
393.23        26.93617
393.67        26.58122
394.12        26.24912
394.57        26.07656
395.02        26.09584
395.47        26.24891
395.91        26.49053
396.36        26.70043
396.81        26.83247
397.26        26.89667
397.71        26.88782
398.15        26.77681
398.60         26.6104
399.05        26.40754
399.50        26.18345
399.95        25.88388
400.39        25.63427
400.84         25.3589
401.29        25.14654
401.74        25.10221
402.18        25.25441
402.63        25.53973
403.08        25.87218
403.53        26.10724
403.97        26.20126
404.42        26.18878
404.87        26.09052
405.32        25.95233
405.76        25.79867
406.21        25.62677
406.66        25.47768
407.11        25.41958
407.55        25.46511
408.00        25.59529
408.45        25.74143
408.90        25.75417
409.34        25.60032
409.79        25.33954
410.24        25.07878
410.68        24.96595
411.13        25.03599
411.58         25.2373
412.03        25.50766
412.47        25.73821
412.92        25.86398
413.37        25.92095
413.81         25.9208
414.26        25.90641
414.71        25.88126
415.15        25.82362
415.60         25.7339
416.05        25.63717
416.49        25.54096
416.94        25.46646
417.39        25.37847
417.83        25.21086
418.28        24.97427
418.73         24.6928
419.17         24.4718
419.62        24.46371
420.07        24.68187
420.51        25.07002
420.96        25.48347
421.41        25.67641
421.85        25.57756
422.30         25.2944
422.74        24.94082
423.19        24.73107
423.64        24.69351
424.08        24.77965
424.53        24.90664
424.98        24.98062
425.42        24.97824
425.87         24.9163
426.31        24.83306
426.76        24.84722
427.21        24.94116
427.65        24.91792
428.10        24.84247
428.54        24.99429
428.99        25.37998
429.44        25.83535
429.88        26.17511
430.33        26.26071
430.77         26.0274
431.22        25.41693
431.66         24.6814
432.11        24.44165
432.56        24.73443
433.00        25.11976
433.45        25.39769
433.89        25.82557
434.34        26.16862
434.78        25.76369
435.23        24.83132
435.67         24.7921
436.12        25.50365
436.57        25.82076
437.01        25.62614
437.46        25.51315
437.90        25.53512
438.35        25.52316
438.79        25.46085
439.24         25.3933
439.68        25.33943
440.13        25.19201
440.57        25.04626
441.02        25.37132
441.46        25.97678
441.91        25.97648
442.35        25.43624
442.80        25.11753
443.24          25.039
443.69        25.09878
444.13        25.20528
444.58        24.97525
445.02        24.51404
445.47        24.50037
445.91         24.8492
446.36        24.90593
446.80        24.63317
447.24        24.39381
447.69        24.26304
448.13        24.19862
448.58         24.2254
449.02        24.34178
449.47        24.49075
449.91        24.57931
450.36         24.5857
450.80        24.52888
451.25        24.45518
451.69        24.42437
452.13         24.4551
452.58        24.51224
453.02         24.5744
453.47        24.61507
453.91        24.62657
454.36          24.631
454.80        24.61294
455.24        24.53833
455.69        24.42366
456.13        24.27098
456.58        24.16781
457.02        24.20753
457.46        24.40875
457.91        24.72478
458.35        25.05313
458.79        25.23247
459.24        25.23655
459.68        25.09718
460.13        24.91098
460.57        24.78077
461.01        24.76253
461.46        24.81381
461.90        24.89214
462.34        24.98441
462.79        24.97936
463.23         24.9544
463.68        24.93995
464.12        25.03691
464.56        25.25183
465.01          25.568
465.45        25.81417
465.89        25.83899
466.34        25.64399
466.78        25.14019
467.22        24.57628
467.67        24.59688
468.11        25.14237
468.55         25.4519
468.99        25.40389
469.44        25.31667
469.88        25.26295
470.32         25.3498
470.77        25.53241
471.21        25.54983
471.65        25.38754
472.10        25.27239
472.54        25.24382
472.98        25.27084
473.42         25.3627
473.87        25.54714
474.31        25.75436
474.75        25.85599
475.20        25.84446
475.64        25.77174
476.08         25.7044
476.52        25.71413
476.97        25.82422
477.41        26.02603
477.85        26.23903
478.29        26.37356
478.74        26.41025
479.18        26.25137
479.62         25.9907
480.06        26.20683
480.50        26.38516
480.95        26.58643
481.39        26.58152
481.83        26.56671
482.27        26.53361
482.72        26.25691
483.16         25.8913
483.60        26.02184
484.04        26.67303
484.48        27.07599
484.93         27.4213
485.37        28.03044
485.81        28.48459
486.25        28.40619
486.69        38.22258
487.14        30.71861
487.58        19.63659
488.02        24.03857
488.46        27.03136
488.90        27.06106
489.34        27.66058
489.79        27.44324
490.23         28.4663
490.67        29.00958
491.11        28.81614
491.55        28.79031
491.99        28.81283
492.43        28.67056
492.88        28.44108
493.32        28.47802
493.76         28.5821
494.20        28.80678
494.64        29.06256
495.08        29.34786
495.52         29.6631
495.96        30.03381
496.41         30.3723
496.85        30.64176
497.29        30.80432
497.73         30.4585
498.17        29.97513
498.61          30.206
499.05        31.15144
499.49        31.27872
499.93        31.34466
500.37        31.44331
500.82        31.49113
501.26        31.77551
501.70         32.1359
502.14        32.31952
502.58        32.28791
503.02         32.2854
503.46        32.32196
503.90        32.23412
504.34        32.07835
504.78        32.02689
505.22         32.1045
505.66        32.27159
506.10        32.46161
506.54        32.55894
506.98        32.53756
507.42        32.43926
507.86        32.34638
508.30        32.38407
508.74        32.57562
509.18        32.87126
509.62        33.19364
510.06        33.41854
510.50        33.50861
510.94        33.50578
511.38        33.44956
511.82        33.40121
512.26        33.38622
512.70        33.38425
513.14        33.40227
513.58        33.45407
514.02        33.53035
514.46        33.62635
514.90        33.71729
515.34        33.72972
515.78        33.62842
516.22        33.56319
516.66        33.56767
517.10        33.31935
517.54        32.82536
517.98        33.44574
518.42        33.21592
518.86        33.44886
519.30        33.54779
519.74        33.69448
520.18        33.84465
520.62        33.90125
521.06        33.87323
521.50        33.77203
521.93        33.64417
522.37        33.57385
522.81        33.58121
523.25        33.63774
523.69        33.71906
524.13         33.7876
524.57        33.82701
525.01          33.849
525.45        33.84119
525.89        33.78387
526.32        33.67506
526.76        33.52102
527.20        33.35179
527.64        33.22612
528.08        33.16423
528.52        33.12426
528.96        33.06761
529.40        33.02272
529.83        32.99911
530.27         32.6594
530.71        32.67515
531.15        32.56583
531.59         32.5355
532.03        32.54634
532.46        32.61256
532.90        32.74867
533.34        32.93092
533.78        33.14692
534.22        33.32558
534.66        33.36576
535.09        33.24676
535.53         33.0122
535.97          32.733
536.41        32.53252
536.85        32.45151
537.28        32.46739
537.72        32.53444
538.16        32.57838
538.60        32.57914
539.04        32.53354
539.47        32.49004
539.91        32.60512
540.35        32.85209
540.79        33.06478
541.22        33.19191
541.66        33.28982
542.10        33.34453
542.54        33.29836
542.97        33.22244
543.41        33.28203
543.85        33.49854
544.29        33.83676
544.72        34.19051
545.16        34.40818
545.60        34.45448
546.04        34.37075
546.47        34.28846
546.91        34.42765
547.35        34.81425
547.79        35.38173
548.22          35.946
548.66        36.19764
549.10        36.09685
549.53        35.79825
549.97        35.49187
550.41        35.38455
550.84        35.54438
551.28        35.92046
551.72        36.40708
552.15        36.80645
552.59         37.0514
553.03        37.20272
553.46        37.28941
553.90        37.39027
554.34        37.53148
554.77        37.63951
555.21        37.71536
555.65          37.884
556.08        38.16271
556.52         38.0554
556.96        38.41862
557.39        38.47857
557.83        38.50652
558.27        38.48652
558.70        38.48005
559.14         38.5675
559.57        38.74704
560.01         39.0078
560.45        39.26635
560.88        39.39064
561.32        39.38363
561.75        39.26804
562.19        39.14356
562.63        39.10951
563.06        39.18587
563.50        39.34602
563.93        39.54214
564.37        39.72343
564.80        39.85514
565.24        39.96805
565.68        40.05962
566.11        40.13041
566.55        40.21384
566.98        40.29713
567.42        40.41267
567.85        40.60609
568.29        40.90526
568.72        41.17699
569.16        41.46767
569.60        41.93068
570.03        42.36838
570.47        42.42754
570.90        42.30798
571.34        41.56902
571.77        42.26832
572.21        42.35117
572.64        42.49026
573.08        41.85529
573.51        40.66843
573.95        42.36916
574.38        44.85895
574.82        43.99599
