SpectraSmart Spectrum 2.9.0.0
--------- Device Information -----------
Spectrum Name :  反射率_0
Saving Time :  2024/04/25 22:49:50
Spectro-Module Model Name : SE2030-DUVN
Spectro-Module Serial Number : OS361AC55029948
Wavelength Start : 200
Wavelength End : 1025
Wavelength Unit : Wavelength(nm)
Spectrum Unit : Reflectance(%)
-----------Spectrum Setting ------------
Integration Time : 20ms
Average : 10
Boxcar : 0
Background removal :  enabled
linearity correction :  enabled
SC :  disabled
Intensity correction :  disabled
DWT denoise :  enabled
savitzky-golay :  disabled
FFT :  disabled
Running average :  disabled
Kalman :  disabled
High pass :  disabled
---------------BEGIN--------------------
Wavelength(nm)             Reflectance(%)
200.29               0
200.75        60.34579
201.21        55.59264
201.67        51.01836
202.13        48.89823
202.58        49.31974
203.04        51.87859
203.50        55.65598
203.96        58.77971
204.42        60.37803
204.88        60.87149
205.34        60.75838
205.80        60.55458
206.26        60.44658
206.72         60.4258
207.18        59.65329
207.64        55.77618
208.10        50.27805
208.55        47.07876
209.01        46.81348
209.47        48.98187
209.93        52.90092
210.39         58.9509
210.85        64.74136
211.31        64.62006
211.77         57.2503
212.23        44.86066
212.69         32.9248
213.14        29.95477
213.60        37.28176
214.06        52.44241
214.52        69.82143
214.98        80.62312
215.44        82.43788
215.90        78.06184
216.36        70.75694
216.81        65.04638
217.27        62.55357
217.73         61.8358
218.19        61.18472
218.65        58.29972
219.11        52.12978
219.57        42.03668
220.02        29.45608
220.48        22.62584
220.94        25.93976
221.40        37.22364
221.86        47.76929
222.32        48.63801
222.77        41.11531
223.23        30.18258
223.69        21.22586
224.15        19.75118
224.61         25.0633
225.06         34.2794
225.52         43.5052
225.98        47.76415
226.44        46.14108
226.90        40.82898
227.36        34.36045
227.81        30.11193
228.27         29.2411
228.73        30.46235
229.19        32.88844
229.65         35.2144
230.10        36.92572
230.56        38.40421
231.02        39.77832
231.48        41.15609
231.93        42.54222
232.39        43.76578
232.85        44.75565
233.31        45.50447
233.77        45.95819
234.22        46.12242
234.68        45.86188
235.14        44.89368
235.60        43.29699
236.05        41.36108
236.51        39.44302
236.97        37.85994
237.43        36.69814
237.88        35.95831
238.34        35.82331
238.80        36.72847
239.26        38.71097
239.71        41.55756
240.17        44.57069
240.63         47.0133
241.08        48.62626
241.54        49.47982
242.00        49.41774
242.46        48.09186
242.91        44.89465
243.37        36.85699
243.83        17.53816
244.28       -12.88629
244.74        12.31329
245.20         73.2794
245.66        92.84716
246.11        96.68217
246.57        94.83167
247.03        83.20551
247.48        31.74918
247.94        1.384082
248.40         42.9605
248.85        62.15993
249.31        70.78993
249.77        75.23212
250.22        78.34381
250.68        81.76234
251.14        85.54426
251.59        86.82228
252.05        83.40603
252.51        76.90791
252.96         69.8213
253.42        64.62986
253.88         60.8722
254.33        57.89964
254.79        56.85105
255.25         58.6109
255.70        62.37532
256.16        67.15443
256.62        70.59045
257.07        70.36553
257.53        67.27541
257.99        62.31642
258.44        57.51236
258.90        55.94348
259.35        56.73235
259.81        58.50868
260.27        59.34707
260.72        57.44821
261.18        53.51689
261.63        48.42786
262.09        43.75423
262.55        40.67275
263.00        39.16055
263.46        38.71162
263.91         38.4565
264.37        37.69855
264.83        36.29607
265.28        34.41782
265.74        32.68612
266.19        31.78826
266.65         31.8568
267.11        32.45653
267.56        32.96047
268.02        32.63074
268.47        31.37545
268.93        29.46984
269.38        27.33784
269.84        25.94245
270.30        25.55426
270.75        25.90626
271.21        26.52022
271.66        26.67747
272.12        26.18332
272.57        25.27557
273.03        24.30059
273.48        23.69474
273.94        23.58074
274.39        23.75006
274.85        23.96344
275.31         23.8847
275.76        23.43482
276.22        22.76802
276.67        22.05161
277.13        21.59804
277.58        21.42295
278.04        21.44077
278.49         21.4613
278.95        21.26889
279.40        20.80751
279.86        20.21365
280.31        19.58923
280.77        19.18322
281.22        19.00279
281.68        18.97536
282.13        19.00542
282.59        18.98427
283.04        18.88003
283.50        18.76818
283.95        18.62478
284.41        18.42382
284.86        18.17223
285.32        17.87583
285.77        17.65493
286.22        17.74908
286.68        18.14804
287.13         18.7444
287.59        19.28142
288.04        19.37377
288.50        18.98556
288.95        18.24663
289.41        17.42503
289.86        16.82714
290.32        16.58429
290.77        16.58296
291.22        16.75469
291.68        16.95762
292.13        17.14759
292.59        17.37143
293.04        17.64333
293.50        17.97774
293.95        18.36304
294.40        18.75294
294.86        19.11491
295.31        19.42317
295.77        19.67527
296.22        19.88623
296.68        20.06589
297.13        20.20004
297.58        20.31413
298.04        20.43311
298.49        20.60275
298.95        20.92461
299.40         21.3996
299.85         21.9854
300.31        22.60298
300.76        23.14074
301.21        23.54555
301.67        23.86656
302.12        24.08206
302.58        24.20744
303.03        24.24884
303.48        24.21609
303.94        24.21839
304.39        24.39385
304.84        24.76332
305.30        25.27315
305.75        25.76568
306.20        26.00237
306.66        25.95694
307.11        25.70233
307.57        25.39462
308.02        25.20139
308.47        25.19445
308.93        25.31281
309.38        25.50785
309.83        25.73184
310.29        25.94157
310.74        26.14137
311.19        26.29342
311.65        26.33725
312.10        26.26278
312.55         26.0852
313.00        25.82769
313.46         25.5444
313.91        25.25906
314.36        24.98706
314.82        24.77402
315.27        24.67254
315.72        24.69092
316.18        24.80675
316.63        24.97015
317.08        25.07506
317.53        25.08318
317.99        25.00617
318.44         24.8783
318.89        24.76162
319.35        24.66696
319.80        24.57942
320.25        24.45718
320.70        24.23922
321.16        23.92406
321.61        23.54282
322.06        23.16017
322.51        22.86665
322.97         22.6716
323.42        22.55363
323.87        22.45215
324.32        22.26754
324.78        21.97708
325.23        21.62077
325.68        21.24512
326.13         20.9266
326.59        20.68856
327.04        20.52526
327.49        20.42419
327.94        20.36606
328.39        20.33929
328.85        20.33839
329.30        20.37745
329.75        20.44884
330.20        20.54123
330.66        20.62844
331.11         20.6965
331.56        20.68527
332.01        20.58083
332.46        20.38848
332.92        20.15002
333.37         19.9628
333.82        19.85754
334.27        19.83116
334.72        19.82991
335.17        19.75627
335.63        19.58488
336.08        19.34188
336.53        19.11664
336.98        19.05357
337.43        19.17697
337.88        19.44757
338.34        19.70537
338.79         19.7336
339.24        19.46408
339.69        18.95944
340.14        18.42772
340.59        18.22965
341.05        18.43466
341.50        18.92346
341.95        19.45829
342.40        19.69048
342.85        19.54512
343.30        19.14426
343.75        18.63006
344.20        18.25387
344.66        18.10227
345.11        18.06077
345.56        18.10205
346.01        18.18326
346.46        18.26469
346.91        18.38144
347.36        18.41781
347.81        18.17916
348.26        17.66587
348.72        16.97513
349.17        16.29745
349.62        16.03347
350.07        16.27054
350.52         16.8701
350.97        17.62477
351.42        18.21324
351.87        18.52962
352.32        18.65687
352.77        18.62893
353.22        18.50708
353.67        18.32977
354.13        18.07779
354.58        17.79602
355.03        17.59906
355.48        17.51514
355.93        17.54084
356.38        17.60837
356.83        17.59282
357.28        17.46286
357.73         17.2459
358.18         17.0192
358.63        16.90503
359.08          16.927
359.53        17.04924
359.98        17.16652
360.43        17.11857
360.88        16.87932
361.33        16.50009
361.78        16.12005
362.23        15.96326
362.68        16.06932
363.13         16.3529
363.58        16.65826
364.03        16.74374
364.48        16.55424
364.93        16.17839
365.38        15.72307
365.83        15.35839
366.28        15.14572
366.73        15.03163
367.18        15.00134
367.63        15.03299
368.08        15.09784
368.53        15.19823
368.98        15.28646
369.43        15.27981
369.88        15.16688
370.33        14.97753
370.78          14.744
371.23        14.53047
371.68        14.36721
372.13         14.2327
372.58        14.17442
373.03        14.26498
373.48        14.49795
373.93        14.84568
374.38        15.17532
374.83        15.28382
375.28        15.13347
375.72         14.7676
376.17         14.3514
376.62        14.11806
377.07        14.13168
377.52         14.3229
377.97        14.57172
378.42        14.68259
378.87         14.6064
379.32        14.41436
379.77        14.19622
380.22        14.07617
380.67        14.08202
381.11        14.16869
381.56        14.27227
382.01        14.30164
382.46        14.22974
382.91        14.08603
383.36        13.92214
383.81        13.81631
384.26        13.78952
384.71        13.81999
385.15        13.85061
385.60        13.80664
386.05        13.66982
386.50        13.46029
386.95        13.25148
387.40        13.16669
387.85        13.23049
388.29        13.39774
388.74        13.56831
389.19         13.6027
389.64        13.48432
390.09         13.2503
390.54        13.00927
390.98        12.94231
391.43         13.0919
391.88        13.38137
392.33        13.66951
392.78        13.75125
393.23        13.59998
393.67        13.29149
394.12        12.96838
394.57        12.77734
395.02        12.75292
395.47        12.84353
395.91        12.99022
396.36        13.07217
396.81          13.051
397.26        12.95159
397.71        12.82259
398.15        12.71923
398.60        12.67573
399.05        12.67905
399.50        12.66881
399.95        12.52559
400.39        12.29545
400.84        11.96692
401.29        11.66966
401.74         11.6131
402.18        11.85061
402.63        12.29527
403.08        12.77623
403.53        13.02226
403.97        12.96693
404.42        12.68983
404.87        12.32104
405.32        12.08952
405.76        12.06321
406.21        12.16731
406.66        12.32152
407.11        12.41769
407.55        12.42808
408.00        12.38913
408.45        12.31827
408.90         12.2358
409.34        12.15736
409.79        12.07219
410.24        12.00017
410.68        11.97172
411.13        11.99376
411.58        12.06891
412.03        12.16391
412.47        12.21813
412.92          12.206
413.37        12.13605
413.81        12.06459
414.26        12.09488
414.71          12.233
415.15        12.45096
415.60        12.63829
416.05        12.63823
416.49        12.42101
416.94        12.05011
417.39        11.64701
417.83        11.41878
418.28        11.42876
418.73        11.60245
419.17        11.84622
419.62        12.00923
420.07        12.05109
420.51         12.0181
420.96          11.931
421.41        11.82103
421.85         11.7061
422.30        11.58882
422.74        11.48341
423.19        11.44402
423.64        11.46457
424.08        11.54016
424.53        11.63007
424.98        11.68363
425.42        11.68915
425.87        11.65655
426.31        11.59265
426.76         11.5479
427.21        11.51402
427.65        11.39889
428.10        11.28452
428.54        11.36847
428.99        11.66168
429.44        12.08121
429.88        12.45434
430.33        12.54903
430.77        12.33321
431.22        11.88633
431.66        11.41039
432.11        11.25457
432.56         11.4566
433.00        11.85301
433.45        12.26526
433.89        12.53001
434.34        12.53293
434.78        12.22246
435.23         11.8139
435.67        11.71279
436.12        11.88971
436.57        11.92244
437.01        11.77687
437.46        11.69414
437.90        11.69687
438.35        11.71473
438.79        11.73317
439.24        11.76288
439.68         11.8028
440.13        11.79873
440.57        11.75995
441.02        11.86148
441.46        12.00986
441.91        11.79223
442.35        11.31954
442.80        11.08829
443.24        11.08562
443.69         11.1348
444.13        11.15991
444.58        11.04004
445.02          10.809
445.47        10.72504
445.91         10.7784
446.36        10.76175
446.80        10.66857
447.24        10.62433
447.69        10.63471
448.13        10.63475
448.58        10.62599
449.02        10.62756
449.47        10.62694
449.91        10.60123
450.36        10.55274
450.80         10.4822
451.25        10.42792
451.69         10.4411
452.13         10.5294
452.58        10.66208
453.02         10.7968
453.47        10.86066
453.91        10.84113
454.36        10.76558
454.80        10.65554
455.24         10.5502
455.69        10.47561
456.13        10.41596
456.58        10.40104
457.02        10.45753
457.46        10.58759
457.91        10.77551
458.35        10.96966
458.79        11.07654
459.24        11.08401
459.68        11.00433
460.13        10.90536
460.57        10.86158
461.01        10.90569
461.46        11.00692
461.90        11.12362
462.34        11.17616
462.79        11.14668
463.23        11.05633
463.68        10.96534
464.12        10.97011
464.56         11.0929
465.01        11.30096
465.45         11.4992
465.89        11.58989
466.34        11.56541
466.78        11.39867
467.22        11.19442
467.67        11.23539
468.11        11.49406
468.55        11.61987
468.99        11.58444
469.44        11.57872
469.88        11.64265
470.32        11.81244
470.77        12.02167
471.21        12.07545
471.65        11.94969
472.10        11.78158
472.54        11.63724
472.98         11.5891
473.42        11.66341
473.87        11.84016
474.31        12.05118
474.75        12.18179
475.20        12.20765
475.64        12.15516
476.08        12.08272
476.52        12.08041
476.97        12.16942
477.41        12.32448
477.85        12.48629
478.29        12.58454
478.74        12.60372
479.18        12.50565
479.62        12.35867
480.06        12.47749
480.50        12.61954
480.95        12.78945
481.39        12.85299
481.83        12.87321
482.27        12.84536
482.72        12.68038
483.16        12.45496
483.60        12.48923
484.04        12.80613
484.48        12.94619
484.93        13.08571
485.37         13.5706
485.81        14.18649
486.25        14.26293
486.69        18.24977
487.14        14.34786
487.58        9.730448
488.02        12.01963
488.46        13.78204
488.90        13.83689
489.34        13.83478
489.79        13.75838
490.23        14.55695
490.67        15.05556
491.11        15.02438
491.55        14.89854
491.99        14.67255
492.43        14.48514
492.88        14.41143
493.32        14.44274
493.76        14.49015
494.20        14.69883
494.64        15.02226
495.08        15.41186
495.52        15.81792
495.96        16.18871
496.41        16.45868
496.85        16.61709
497.29        16.67986
497.73        16.51553
498.17         16.3319
498.61        16.52762
499.05        17.09754
499.49        17.22808
499.93        17.32755
500.37        17.42954
500.82        17.48789
501.26        17.67837
501.70        17.91347
502.14        18.04542
502.58        18.05863
503.02        18.10175
503.46        18.18055
503.90        18.19926
504.34        18.17614
504.78        18.18607
505.22        18.24063
505.66        18.32835
506.10        18.42365
506.54        18.48144
506.98         18.4946
507.42        18.47843
507.86        18.48322
508.30        18.58645
508.74        18.79602
509.18        19.07872
509.62        19.36607
510.06        19.54573
510.50        19.59118
510.94        19.54526
511.38        19.45527
511.82        19.39681
512.26        19.39731
512.70        19.42811
513.14        19.49809
513.58        19.62161
514.02        19.77845
514.46        19.95775
514.90        20.10066
515.34        20.07637
515.78        19.84072
516.22        19.59349
516.66        19.42318
517.10        19.01654
517.54        18.40429
517.98        19.21717
518.42        19.03873
518.86         19.4107
519.30        19.59024
519.74        19.81001
520.18        20.01654
520.62        20.09462
521.06        20.05561
521.50        19.90421
521.93        19.70558
522.37        19.58172
522.81        19.56263
523.25        19.61775
523.69        19.70127
524.13        19.73857
524.57         19.7092
525.01        19.63927
525.45        19.55329
525.89        19.48857
526.32        19.45496
526.76        19.43837
527.20         19.4232
527.64        19.39532
528.08        19.35194
528.52        19.27885
528.96        19.18039
529.40        19.11507
529.83        19.09824
530.27        18.92187
530.71        18.94292
531.15        18.83273
531.59        18.70405
532.03        18.55614
532.46        18.44306
532.90        18.45264
533.34        18.58552
533.78        18.80412
534.22        19.02206
534.66        19.11311
535.09        19.04552
535.53        18.86614
535.97        18.63163
536.41        18.43748
536.85        18.32055
537.28        18.26211
537.72        18.24748
538.16        18.25195
538.60        18.26706
539.04        18.28816
539.47        18.33046
539.91        18.45976
540.35        18.65414
540.79        18.82212
541.22        18.93535
541.66        19.02785
542.10        19.09306
542.54        19.09401
542.97        19.07267
543.41        19.12938
543.85        19.27754
544.29        19.49975
544.72          19.732
545.16        19.88005
545.60        19.92551
546.04         19.8963
546.47        19.87852
546.91        20.01731
547.35        20.32735
547.79        20.76026
548.22        21.19855
548.66        21.44087
549.10        21.45982
549.53        21.35333
549.97        21.23316
550.41        21.21568
550.84        21.34453
551.28        21.59353
551.72        21.92255
552.15        22.25346
552.59         22.5447
553.03        22.81178
553.46        23.03604
553.90          23.209
554.34        23.33966
554.77        23.40466
555.21        23.42337
555.65         23.5009
556.08         23.6625
556.52        23.59468
556.96        23.84506
557.39        23.96119
557.83         24.1083
558.27        24.26384
558.70        24.42733
559.14         24.5811
559.57         24.7086
560.01        24.82481
560.45        24.90633
560.88        24.91738
561.32        24.88085
561.75        24.79915
562.19         24.7345
562.63        24.74735
563.06        24.84489
563.50        25.00919
563.93        25.20313
564.37        25.37848
564.80        25.50974
565.24         25.6218
565.68        25.70472
566.11        25.75331
566.55        25.79343
566.98        25.79896
567.42        25.82346
567.85        25.99141
568.29        26.30041
568.72        26.54696
569.16        26.75097
569.60        27.06112
570.03        27.34234
570.47        27.37851
570.90        27.31621
571.34        26.69579
571.77        27.24153
572.21        27.30107
572.64        27.26494
573.08         27.0293
573.51        26.34353
573.95        27.50933
574.38        29.04457
574.82        28.59743
