SpectraSmart Spectrum 2.9.0.0
--------- Device Information -----------
Spectrum Name :  反射率_0
Saving Time :  2024/04/26 00:40:03
Spectro-Module Model Name : SE2030-DUVN
Spectro-Module Serial Number : OS361AC55029948
Wavelength Start : 200
Wavelength End : 1025
Wavelength Unit : Wavelength(nm)
Spectrum Unit : Reflectance(%)
-----------Spectrum Setting ------------
Integration Time : 20ms
Average : 10
Boxcar : 0
Background removal :  enabled
linearity correction :  enabled
SC :  disabled
Intensity correction :  disabled
DWT denoise :  enabled
savitzky-golay :  disabled
FFT :  disabled
Running average :  disabled
Kalman :  disabled
High pass :  disabled
---------------BEGIN--------------------
Wavelength(nm)             Reflectance(%)
200.29               0
200.75        86.09692
201.21        79.46458
201.67        72.57373
202.13        68.84875
202.58        68.52235
203.04         71.0922
203.50         74.7374
203.96        76.18629
204.42        74.88028
204.88        72.19528
205.34        69.77892
205.80         69.3591
206.26        71.63878
206.72        77.90531
207.18         91.3146
207.64        105.9457
208.10        103.1014
208.55        90.05972
209.01        80.57288
209.47        76.46418
209.93        75.43161
210.39        76.10152
210.85        77.00182
211.31        75.57148
211.77        71.32491
212.23        65.33955
212.69        60.32078
213.14        60.42747
213.60        65.93983
214.06         75.6786
214.52        85.89532
214.98        90.89355
215.44        89.46223
215.90        83.52042
216.36        76.29507
216.81        72.29005
217.27        72.62643
217.73        75.61884
218.19        78.76559
218.65        78.88888
219.11        74.93881
219.57        66.46581
220.02        55.00399
220.48        48.75748
220.94        52.02736
221.40        62.41428
221.86        71.53471
222.32        70.84054
222.77        61.77924
223.23        49.65083
223.69        39.73785
224.15        37.39024
224.61        41.92689
225.06        50.50871
225.52        59.41304
225.98        63.87719
226.44          62.995
226.90        58.79657
227.36        53.64341
227.81        50.70099
228.27        50.99025
228.73        53.11315
229.19        56.04388
229.65        58.32706
230.10        59.45506
230.56        60.05981
231.02        60.32156
231.48        60.38354
231.93        60.30947
232.39        60.02433
232.85        59.64632
233.31        59.47873
233.77        59.55573
234.22        59.84299
234.68        60.06933
235.14        59.68021
235.60        58.59639
236.05        57.08428
236.51        55.57217
236.97        54.56174
237.43         54.1897
237.88        54.46021
238.34        55.24249
238.80        56.33342
239.26        57.48672
239.71        58.77667
240.17        59.99592
240.63        61.39083
241.08        63.06315
241.54        64.78143
242.00         66.3872
242.46         67.8284
242.91        69.57584
243.37        72.25404
243.83        80.54005
244.28        114.7497
244.74        167.5755
245.20        155.5458
245.66        136.2991
246.11        130.9429
246.57        134.7094
247.03        150.7185
247.48        193.0851
247.94        151.0581
248.40        100.5859
248.85        87.37172
249.31        84.20773
249.77        84.20005
250.22        85.84576
250.68        89.34209
251.14        94.13503
251.59        95.57431
252.05        90.35741
252.51        81.27908
252.96        72.61996
253.42        68.27641
253.88        67.45976
254.33        68.52425
254.79        71.15686
255.25        74.32268
255.70        77.08228
256.16        79.62384
256.62        80.52901
257.07        78.29752
257.53        73.83767
257.99        67.83363
258.44        62.12059
258.90        59.65146
259.35        59.55692
259.81        60.58478
260.27        60.85879
260.72        58.60306
261.18        54.46255
261.63        49.22086
262.09        44.37809
262.55        41.03913
263.00        39.19854
263.46        38.40975
263.91        37.82645
264.37        36.75434
264.83        35.05864
265.28        32.91257
265.74        30.98293
266.19         30.0406
266.65         30.2123
267.11        31.01148
267.56        31.75625
268.02        31.65143
268.47        30.60278
268.93         28.9037
269.38        26.97174
269.84         25.7509
270.30        25.49658
270.75        25.92719
271.21        26.58751
271.66        26.80402
272.12         26.3881
272.57        25.56885
273.03         24.6473
273.48         23.9871
273.94        23.71533
274.39        23.66853
274.85         23.6816
275.31        23.52507
275.76         23.1349
276.22        22.61334
276.67        22.08082
277.13        21.78142
277.58        21.70205
278.04        21.77784
278.49        21.79949
278.95        21.52409
279.40        20.90885
279.86        20.11034
280.31        19.29193
280.77        18.79655
281.22        18.64757
281.68        18.73708
282.13        18.91843
282.59        19.00983
283.04        18.95303
283.50        18.83325
283.95        18.63878
284.41        18.36384
284.86        18.02284
285.32        17.62093
285.77        17.26023
286.22        17.15487
286.68        17.30385
287.13        17.62252
287.59        17.91537
288.04        17.88451
288.50        17.50307
288.95        16.87026
289.41        16.18118
289.86        15.63577
290.32        15.34038
290.77        15.21205
291.22        15.23369
291.68         15.3449
292.13        15.51695
292.59        15.76136
293.04        16.04906
293.50        16.32958
293.95        16.57563
294.40        16.76709
294.86        16.89916
295.31        16.98548
295.77        17.03825
296.22        17.06473
296.68        17.07225
297.13        17.04281
297.58        17.00483
298.04        16.99319
298.49        17.05849
298.95        17.30171
299.40        17.72354
299.85        18.27645
300.31        18.87927
300.76        19.42136
301.21        19.84163
301.67        20.17615
302.12        20.39536
302.58        20.49837
303.03        20.49093
303.48        20.38839
303.94        20.29545
304.39        20.34801
304.84        20.57214
305.30        20.91829
305.75        21.26014
306.20        21.40341
306.66         21.3257
307.11        21.08797
307.57        20.80511
308.02        20.58872
308.47        20.49787
308.93        20.49225
309.38        20.55485
309.83        20.68497
310.29        20.85329
310.74        21.05073
311.19        21.22659
311.65        21.30211
312.10        21.26045
312.55        21.12145
313.00        20.90578
313.46        20.66069
313.91        20.40762
314.36        20.15953
314.82        19.96309
315.27        19.88009
315.72        19.91823
316.18        20.05158
316.63        20.22883
317.08        20.34175
317.53         20.3524
317.99        20.27834
318.44         20.1496
318.89        20.01885
319.35        19.90154
319.80         19.7875
320.25        19.65724
320.70        19.48659
321.16        19.27558
321.61        19.03362
322.06        18.80006
322.51        18.62676
322.97          18.514
323.42        18.45711
323.87        18.38594
324.32        18.18636
324.78         17.8423
325.23        17.39248
325.68        16.94656
326.13        16.68302
326.59        16.64155
327.04        16.78761
327.49        17.00822
327.94        17.11053
328.39        17.03995
328.85        16.84072
329.30        16.62832
329.75        16.58151
330.20        16.74556
330.66        17.03666
331.11        17.36456
331.56        17.54964
332.01        17.53603
332.46        17.36485
332.92        17.10157
333.37        16.87583
333.82        16.73894
334.27        16.67329
334.72        16.62647
335.17         16.5091
335.63        16.30363
336.08        16.04684
336.53        15.83683
336.98        15.82331
337.43        16.02677
337.88        16.39546
338.34         16.7619
338.79         16.8965
339.24        16.72207
339.69        16.30352
340.14        15.82038
340.59        15.58947
341.05        15.68084
341.50        15.99689
341.95        16.36868
342.40        16.54442
342.85        16.46945
343.30        16.24655
343.75        15.95526
344.20        15.73227
344.66        15.62826
345.11        15.55547
345.56        15.55118
346.01        15.67491
346.46        15.90272
346.91        16.22832
347.36        16.46242
347.81        16.30011
348.26        15.71968
348.72        14.86022
349.17        13.98113
349.62        13.59408
350.07        13.82092
350.52        14.49128
350.97        15.35292
351.42        16.01522
351.87        16.35135
352.32        16.46482
352.77        16.41278
353.22        16.29135
353.67        16.14535
354.13        15.93792
354.58         15.6899
355.03        15.48135
355.48          15.336
355.93        15.26893
356.38        15.23862
356.83         15.1589
357.28        15.01124
357.73        14.81233
358.18        14.63053
358.63        14.57281
359.08        14.65409
359.53        14.84077
359.98        15.02056
360.43        15.02235
360.88        14.81765
361.33        14.45761
361.78        14.08668
362.23        13.94064
362.68         14.0615
363.13        14.35921
363.58        14.67659
364.03         14.7692
364.48        14.58132
364.93         14.2063
365.38        13.74696
365.83        13.36494
366.28        13.12442
366.73        12.97834
367.18        12.92845
367.63        12.97939
368.08        13.10583
368.53        13.29706
368.98        13.49002
369.43        13.57901
369.88        13.54393
370.33        13.42051
370.78        13.23407
371.23        13.03925
371.68        12.86605
372.13        12.69114
372.58        12.58423
373.03        12.65798
373.48        12.91304
373.93        13.31176
374.38        13.68895
374.83        13.78794
375.28        13.56557
375.72         13.0918
376.17         12.5661
376.62        12.27625
377.07        12.30334
377.52        12.55527
377.97        12.90598
378.42        13.15013
378.87        13.21862
379.32        13.17429
379.77         13.0685
380.22         12.9712
380.67        12.90592
381.11        12.84733
381.56        12.77149
382.01        12.65744
382.46        12.50307
382.91        12.32126
383.36        12.15488
383.81        12.06298
384.26        12.05559
384.71        12.11945
385.15        12.18039
385.60        12.13364
386.05        11.95931
386.50        11.68334
386.95        11.40644
387.40        11.30326
387.85        11.40606
388.29        11.64659
388.74        11.89467
389.19        11.97931
389.64        11.87721
390.09        11.63925
390.54        11.37352
390.98        11.26045
391.43        11.35011
391.88        11.56875
392.33        11.79874
392.78        11.86992
393.23        11.75639
393.67        11.51954
394.12        11.27133
394.57        11.12109
395.02        11.09454
395.47        11.15093
395.91        11.24358
396.36        11.27684
396.81        11.22546
397.26        11.11331
397.71        10.98485
398.15        10.89076
398.60        10.85953
399.05        10.87406
399.50        10.88573
399.95        10.79704
400.39        10.64485
400.84        10.41955
401.29        10.20913
401.74        10.15251
402.18        10.29016
402.63        10.56092
403.08        10.86145
403.53        11.02486
403.97        11.00772
404.42        10.85937
404.87        10.65518
405.32        10.52828
405.76        10.51701
406.21        10.57678
406.66        10.65937
407.11        10.70118
407.55        10.68762
408.00         10.6395
408.45        10.56987
408.90        10.49475
409.34         10.4267
409.79        10.36058
410.24        10.31085
410.68         10.2981
411.13        10.32613
411.58        10.39561
412.03        10.47939
412.47        10.52909
412.92        10.52294
413.37        10.46737
413.81        10.40334
414.26        10.40979
414.71        10.49067
415.15        10.62562
415.60        10.73298
416.05        10.70113
416.49        10.50957
416.94        10.21079
417.39        9.889033
417.83        9.689061
418.28        9.659112
418.73        9.742874
419.17        9.890056
419.62        10.01216
420.07        10.08196
420.51        10.12687
420.96        10.12646
421.41        10.04344
421.85        9.881449
422.30        9.667029
422.74        9.461581
423.19        9.378555
423.64        9.423895
424.08        9.574491
424.53        9.751614
424.98        9.833945
425.42        9.787836
425.87        9.644938
426.31        9.459275
426.76        9.348615
427.21        9.323705
427.65        9.286042
428.10        9.261371
428.54        9.342175
428.99        9.521472
429.44        9.758945
429.88        9.951359
430.33        9.960739
430.77        9.774204
431.22        9.436255
431.66         9.08992
432.11        8.990581
432.56        9.162188
433.00        9.484573
433.45        9.816637
433.89        10.03305
434.34        10.04193
434.78        9.791746
435.23          9.4623
435.67        9.389223
436.12        9.549353
436.57        9.602817
437.01        9.496678
437.46        9.383202
437.90        9.277884
438.35        9.145266
438.79        9.017506
439.24        8.968779
439.68        9.010412
440.13        9.076464
440.57        9.143051
441.02        9.295625
441.46        9.443558
441.91        9.276744
442.35        8.881508
442.80        8.652156
443.24        8.581105
443.69        8.529202
444.13        8.457447
444.58        8.313986
445.02        8.131419
445.47        8.094575
445.91        8.172904
446.36        8.169346
446.80        8.068495
447.24        7.979597
447.69        7.922541
448.13        7.871187
448.58        7.835435
449.02        7.820326
449.47        7.814498
449.91        7.798265
450.36        7.770525
450.80        7.732773
451.25        7.707121
451.69        7.719248
452.13        7.773243
452.58        7.846444
453.02        7.918259
453.47        7.947131
453.91         7.92938
454.36        7.884353
454.80        7.817616
455.24        7.742831
455.69        7.675673
456.13        7.605686
456.58        7.574745
457.02        7.631345
457.46        7.779963
457.91        8.000289
458.35        8.220412
458.79        8.313745
459.24        8.265912
459.68        8.104616
460.13        7.933017
460.57        7.882764
461.01        7.992506
461.46        8.207958
461.90        8.448248
462.34        8.571256
462.79        8.543478
463.23        8.403811
463.68        8.233216
464.12        8.163897
464.56        8.235748
465.01        8.403471
465.45        8.577518
465.89        8.656596
466.34        8.628663
466.78        8.487062
467.22        8.318378
467.67        8.344127
468.11        8.546595
468.55        8.657945
468.99        8.652815
469.44        8.668839
469.88        8.733212
470.32        8.874523
470.77        9.036301
471.21        9.063751
471.65         8.93771
472.10         8.76622
472.54        8.609931
472.98        8.545981
473.42        8.599405
473.87        8.748564
474.31        8.930698
474.75        9.037271
475.20        9.045567
475.64        8.982533
476.08        8.903688
476.52        8.895273
476.97        8.976413
477.41        9.121511
477.85        9.274608
478.29         9.36517
478.74        9.375401
479.18        9.280697
479.62        9.141609
480.06        9.204444
480.50        9.295009
480.95        9.418417
481.39        9.462715
481.83        9.450838
482.27        9.375239
482.72        9.183546
483.16        8.965261
483.60        8.973722
484.04        9.218536
484.48        9.457035
484.93         9.76792
485.37        10.07746
485.81        10.26868
486.25        10.63615
486.69        13.72192
487.14        10.84861
487.58        7.258576
488.02        8.892316
488.46        10.21834
488.90        10.19335
489.34        10.05918
489.79        9.997843
490.23        10.68358
490.67        11.07893
491.11        10.99712
491.55        10.84059
491.99        10.61217
492.43        10.40301
492.88        10.27942
493.32        10.22782
493.76         10.2083
494.20        10.36501
494.64        10.66743
495.08        11.06501
495.52        11.47826
495.96        11.80175
496.41        11.97159
496.85        12.00005
497.29        11.93381
497.73        11.73936
498.17         11.5847
498.61        11.73744
499.05        12.17877
499.49        12.30092
499.93        12.38402
500.37        12.46196
500.82        12.51361
501.26        12.68424
501.70         12.9117
502.14        13.07738
502.58        13.14886
503.02        13.20496
503.46        13.24301
503.90        13.20321
504.34        13.11569
504.78        13.06053
505.22        13.05609
505.66        13.09096
506.10         13.1425
506.54        13.16957
506.98        13.16544
507.42        13.14536
507.86        13.15164
508.30        13.24847
508.74        13.43935
509.18        13.69154
509.62        13.94306
510.06        14.09373
510.50        14.12035
510.94        14.06382
511.38        13.96217
511.82        13.87605
512.26        13.83171
512.70        13.80686
513.14        13.82739
513.58        13.93509
514.02        14.11396
514.46        14.34177
514.90        14.54064
515.34        14.54762
515.78        14.30844
516.22        14.04419
516.66        13.85268
517.10        13.40475
517.54        12.73692
517.98        13.59004
518.42        13.38704
518.86        13.78981
519.30        14.00377
519.74         14.2735
520.18        14.52832
520.62        14.62178
521.06        14.56258
521.50        14.36673
521.93        14.11462
522.37        13.95522
522.81        13.92744
523.25        13.99086
523.69        14.10223
524.13        14.19099
524.57        14.23118
525.01        14.24571
525.45        14.23401
525.89        14.19287
526.32        14.12477
526.76        14.02726
527.20        13.91587
527.64        13.82555
528.08        13.76685
528.52        13.72054
528.96        13.67202
529.40        13.63185
529.83        13.60586
530.27        13.45905
530.71        13.45954
531.15        13.39401
531.59        13.34582
532.03         13.3006
532.46        13.28973
532.90        13.36839
533.34        13.52697
533.78        13.73993
534.22        13.92919
534.66        13.98088
535.09        13.87328
535.53         13.6502
535.97        13.38455
536.41        13.19589
536.85        13.12252
537.28        13.13713
537.72        13.20233
538.16        13.25298
538.60        13.27011
539.04        13.26556
539.47        13.26727
539.91        13.34784
540.35        13.49829
540.79        13.64078
541.22        13.74928
541.66        13.84062
542.10        13.90615
542.54        13.92183
542.97        13.91333
543.41        13.94598
543.85        14.03023
544.29         14.1588
544.72        14.29379
545.16        14.38024
545.60        14.40885
546.04        14.39441
546.47        14.39947
546.91        14.53019
547.35        14.79258
547.79        15.14968
548.22        15.50186
548.66        15.67813
549.10         15.6565
549.53        15.51495
549.97        15.35652
550.41        15.29659
550.84        15.37451
551.28        15.56552
551.72         15.8255
552.15        16.07336
552.59        16.27146
553.03        16.43993
553.46         16.5787
553.90        16.69688
554.34        16.80505
554.77         16.8782
555.21        16.91969
555.65        16.98735
556.08        17.09414
556.52        17.02084
556.96        17.17183
557.39        17.23522
557.83        17.33365
558.27        17.44637
558.70        17.56705
559.14        17.67073
559.57        17.74405
560.01        17.80343
560.45        17.83766
560.88         17.8291
561.32        17.79717
561.75        17.73783
562.19        17.69365
562.63        17.70421
563.06         17.7729
563.50        17.88902
563.93        18.02159
564.37        18.12777
564.80        18.19039
565.24        18.23136
565.68        18.25702
566.11        18.27848
566.55        18.31744
566.98        18.36421
567.42        18.44526
567.85        18.59461
568.29        18.82073
568.72        19.05671
569.16        19.29974
569.60        19.58125
570.03        19.80429
570.47        19.84117
570.90        19.80271
571.34        19.40481
571.77        19.81306
572.21        19.85659
572.64        19.92444
573.08        19.70978
573.51        19.29421
573.95        20.17551
574.38        21.33256
574.82        20.95617
