SpectraSmart Spectrum 2.9.0.0
--------- Device Information -----------
Spectrum Name :  反射率_0
Saving Time :  2024/04/26 00:34:56
Spectro-Module Model Name : SE2030-DUVN
Spectro-Module Serial Number : OS361AC55029948
Wavelength Start : 200
Wavelength End : 1025
Wavelength Unit : Wavelength(nm)
Spectrum Unit : Reflectance(%)
-----------Spectrum Setting ------------
Integration Time : 20ms
Average : 10
Boxcar : 0
Background removal :  enabled
linearity correction :  enabled
SC :  disabled
Intensity correction :  disabled
DWT denoise :  enabled
savitzky-golay :  disabled
FFT :  disabled
Running average :  disabled
Kalman :  disabled
High pass :  disabled
---------------BEGIN--------------------
Wavelength(nm)             Reflectance(%)
200.29               0
200.75        79.26491
201.21        71.96062
201.67        63.23823
202.13        57.50396
202.58        55.30754
203.04        55.82396
203.50        57.72626
203.96        58.68286
204.42        58.10275
204.88        56.91521
205.34        55.83412
205.80        55.50851
206.26        56.20361
206.72        58.25198
207.18        62.45118
207.64        66.47585
208.10        64.37444
208.55        59.16737
209.01        55.64415
209.47        54.52906
209.93        54.76965
210.39        56.02409
210.85        56.74857
211.31        53.95972
211.77        47.38229
212.23        38.48829
212.69        30.64373
213.14        29.01901
213.60        34.27524
214.06        45.10025
214.52        57.98057
214.98        67.34796
215.44        71.42136
215.90        71.57278
216.36        69.58472
216.81          67.938
217.27        67.62394
217.73        67.80894
218.19        67.46749
218.65        65.18431
219.11        60.26317
219.57        52.05111
220.02        41.39827
220.48        34.62243
220.94        35.28754
221.40        42.14892
221.86        48.99974
222.32        49.13836
222.77        43.30946
223.23        35.27615
223.69        28.70547
224.15        27.35871
224.61        30.76783
225.06        36.95637
225.52        43.27923
225.98        46.58185
226.44        46.21911
226.90        43.56726
227.36        40.17091
227.81        38.04317
228.27        37.98156
228.73        39.12994
229.19        40.88737
229.65        42.39915
230.10        43.35625
230.56        44.03577
231.02        44.64624
231.48        45.39629
231.93        46.28174
232.39        47.18526
232.85        47.90178
233.31        48.18962
233.77        47.97028
234.22        47.28979
234.68        46.30715
235.14        45.31403
235.60        44.50922
236.05        43.96331
236.51        43.54571
236.97        42.92567
237.43        42.04518
237.88        41.01477
238.34        40.25665
238.80          40.951
239.26        43.53598
239.71        47.65482
240.17        52.17551
240.63        55.59727
241.08        57.40308
241.54        57.84358
242.00          57.284
242.46        56.15429
242.91        54.49224
243.37        50.79372
243.83        43.37477
244.28        40.44837
244.74        75.48988
245.20        103.8169
245.66        107.5436
246.11        109.7851
246.57        115.3872
247.03        129.6429
247.48        160.1833
247.94        114.5647
248.40        74.97243
248.85        65.93362
249.31        64.56963
249.77        66.28651
250.22        70.22736
250.68         77.3871
251.14        87.37169
251.59        92.61732
252.05        86.79218
252.51        73.88406
252.96        61.17351
253.42        55.24538
253.88        55.43819
254.33        59.09599
254.79        65.26698
255.25        71.98314
255.70        77.66724
256.16        82.62273
256.62        85.26175
257.07        83.90887
257.53        79.66373
257.99        73.35838
258.44         67.0728
258.90        64.11221
259.35        63.64703
259.81        64.38872
260.27        64.41302
260.72        61.87279
261.18        57.45438
261.63        51.99845
262.09        47.00915
262.55        43.57506
263.00         41.6837
263.46        40.86583
263.91        40.32085
264.37         39.4401
264.83        38.05487
265.28        36.28956
265.74        34.66458
266.19        33.71164
266.65        33.56818
267.11        33.87309
267.56        34.11546
268.02        33.68967
268.47        32.50611
268.93        30.79799
269.38         28.9008
269.84        27.61795
270.30        27.17767
270.75        27.36484
271.21        27.80159
271.66        27.92226
272.12        27.55665
272.57        26.87325
273.03        26.13377
273.48        25.64727
273.94        25.51073
274.39         25.5741
274.85        25.63336
275.31        25.39704
275.76        24.81244
276.22        24.01842
276.67        23.22377
277.13        22.80837
277.58        22.77468
278.04        23.00181
278.49        23.20936
278.95        23.05858
279.40         22.4758
279.86        21.64926
280.31         20.7472
280.77        20.12314
281.22        19.81866
281.68        19.73693
282.13        19.76016
282.59        19.75069
283.04        19.65919
283.50        19.56136
283.95        19.43774
284.41        19.26732
284.86        19.05051
285.32        18.78994
285.77        18.56475
286.22        18.55782
286.68         18.7635
287.13        19.10272
287.59        19.39956
288.04        19.38835
288.50        19.04854
288.95        18.46305
289.41        17.82391
289.86        17.32043
290.32        17.06106
290.77        16.97994
291.22        17.04345
291.68        17.16349
292.13        17.31389
292.59        17.51092
293.04         17.7906
293.50        18.20629
293.95        18.73718
294.40        19.32445
294.86        19.85292
295.31        20.16409
295.77          20.242
296.22        20.15364
296.68        20.01455
297.13        19.98568
297.58        20.13833
298.04        20.43761
298.49         20.8658
298.95        21.42323
299.40        22.07133
299.85        22.79913
300.31        23.50984
300.76        24.06314
301.21        24.41268
301.67        24.61276
302.12        24.70489
302.58        24.80561
303.03         24.9347
303.48        25.07213
303.94        25.25956
304.39        25.52697
304.84        25.87167
305.30        26.27472
305.75        26.63086
306.20        26.78433
306.66        26.72993
307.11        26.51209
307.57        26.25124
308.02        26.06184
308.47        26.00589
308.93        26.04587
309.38        26.16095
309.83        26.34382
310.29        26.56257
310.74        26.80694
311.19        27.02043
311.65        27.11582
312.10        27.07395
312.55        26.91562
313.00          26.673
313.46        26.41541
313.91        26.16622
314.36        25.92917
314.82        25.73502
315.27        25.61555
315.72        25.57604
316.18        25.60466
316.63        25.66335
317.08         25.6643
317.53        25.58149
317.99        25.42851
318.44        25.24525
318.89        25.10028
319.35         25.0034
319.80        24.93535
320.25        24.85133
320.70        24.68282
321.16        24.42143
321.61        24.09853
322.06        23.76145
322.51        23.47598
322.97         23.2519
323.42        23.07711
323.87        22.92517
324.32        22.75604
324.78        22.55899
325.23        22.35112
325.68         22.1431
326.13        21.95326
326.59        21.78253
327.04        21.63866
327.49        21.51268
327.94        21.39392
328.39        21.28163
328.85        21.17152
329.30        21.09809
329.75        21.08878
330.20        21.14538
330.66         21.2375
331.11        21.34373
331.56        21.38635
332.01        21.34053
332.46        21.21171
332.92         21.0268
333.37        20.85939
333.82        20.73391
334.27         20.6548
334.72        20.58245
335.17        20.44748
335.63         20.2392
336.08         19.9796
336.53        19.77079
336.98        19.77522
337.43        20.01271
337.88        20.43346
338.34        20.84204
338.79        20.96322
339.24        20.71213
339.69        20.16726
340.14        19.55793
340.59        19.28689
341.05        19.44599
341.50        19.90938
341.95        20.44665
342.40        20.71938
342.85        20.64847
343.30        20.34881
343.75        19.94397
344.20        19.64959
344.66          19.536
345.11          19.495
345.56        19.49591
346.01        19.49347
346.46        19.45946
346.91        19.44069
347.36        19.35131
347.81        19.04221
348.26         18.5241
348.72         17.8786
349.17          17.283
349.62        17.11211
350.07        17.43527
350.52        18.11525
350.97        18.92026
351.42        19.49431
351.87        19.73128
352.32        19.72689
352.77        19.55433
353.22        19.34006
353.67        19.13942
354.13        18.91521
354.58        18.68754
355.03        18.52879
355.48        18.45238
355.93        18.46794
356.38        18.51129
356.83        18.46212
357.28        18.29511
357.73        18.03712
358.18        17.77307
358.63        17.63999
359.08        17.66375
359.53        17.80186
359.98        17.94843
360.43         17.9401
360.88        17.74645
361.33         17.4204
361.78        17.07973
362.23        16.91582
362.68        16.96383
363.13        17.14475
363.58        17.34303
364.03        17.38091
364.48        17.21456
364.93        16.91597
365.38        16.53927
365.83        16.16779
366.28        15.84601
366.73        15.54988
367.18        15.32724
367.63        15.25856
368.08        15.34095
368.53        15.54335
368.98        15.76375
369.43        15.83571
369.88        15.72499
370.33        15.48703
370.78        15.18561
371.23        14.93679
371.68         14.7861
372.13        14.69061
372.58        14.67693
373.03        14.78721
373.48        15.00289
373.93        15.30689
374.38        15.57745
374.83        15.62356
375.28        15.41652
375.72        15.00576
376.17        14.54953
376.62        14.27052
377.07         14.2341
377.52        14.36918
377.97        14.59261
378.42        14.76658
378.87        14.83633
379.32         14.8406
379.77        14.78891
380.22        14.69035
380.67        14.55718
381.11        14.38731
381.56        14.19074
382.01        14.00113
382.46        13.83366
382.91        13.68428
383.36        13.57515
383.81        13.53243
384.26        13.55374
384.71         13.6338
385.15        13.70564
385.60        13.67729
386.05        13.52976
386.50        13.28115
386.95        13.02119
387.40        12.90914
387.85        12.97681
388.29        13.16573
388.74        13.36178
389.19        13.40631
389.64        13.27926
390.09         13.0286
390.54        12.76078
390.98         12.6534
391.43        12.75414
391.88        12.98804
392.33        13.23724
392.78        13.33031
393.23         13.2408
393.67        13.03077
394.12        12.80794
394.57        12.67248
395.02        12.65134
395.47        12.70466
395.91        12.80262
396.36        12.87746
396.81        12.90343
397.26        12.88583
397.71        12.83815
398.15        12.76432
398.60          12.691
399.05         12.6276
399.50        12.54259
399.95        12.35466
400.39        12.11756
400.84        11.80806
401.29        11.54206
401.74        11.50576
402.18        11.74293
402.63        12.17299
403.08        12.63325
403.53        12.86392
403.97        12.80207
404.42         12.5247
404.87        12.15292
405.32        11.90252
405.76        11.84155
406.21        11.90187
406.66        12.02159
407.11        12.11762
407.55        12.16631
408.00        12.19842
408.45        12.21017
408.90        12.17977
409.34        12.10874
409.79        11.99692
410.24        11.88914
410.68        11.85392
411.13        11.90467
411.58        12.02991
412.03        12.17636
412.47        12.24771
412.92        12.20913
413.37        12.08697
413.81        11.95044
414.26         11.9206
414.71        12.01166
415.15         12.1883
415.60        12.35263
416.05        12.36802
416.49         12.2043
416.94        11.92023
417.39        11.60257
417.83        11.39931
418.28        11.36146
418.73         11.4317
419.17         11.5616
419.62        11.66802
420.07        11.72535
420.51        11.76166
420.96        11.76076
421.41        11.69033
421.85        11.55347
422.30        11.37643
422.74        11.20968
423.19        11.15622
423.64        11.21917
424.08        11.37609
424.53        11.55895
424.98        11.66863
425.42        11.67486
425.87        11.59954
426.31         11.4724
426.76        11.37866
427.21        11.32082
427.65        11.20065
428.10        11.08089
428.54        11.12704
428.99         11.3462
429.44        11.66931
429.88        11.95747
430.33        12.02551
430.77        11.84548
431.22        11.47686
431.66           11.08
432.11        10.94427
432.56        11.09662
433.00        11.39234
433.45        11.68684
433.89        11.88109
434.34        11.88682
434.78        11.63415
435.23        11.30708
435.67        11.26893
436.12        11.48484
436.57        11.55565
437.01        11.43639
437.46         11.3417
437.90        11.29458
438.35        11.23524
438.79        11.17168
439.24        11.15026
439.68        11.17666
440.13        11.18511
440.57         11.1783
441.02        11.30973
441.46        11.48452
441.91        11.31729
442.35         10.8869
442.80        10.63534
443.24        10.55023
443.69        10.46836
444.13        10.37382
444.58        10.25012
445.02        10.13921
445.47        10.24691
445.91        10.49092
446.36        10.54554
446.80        10.37487
447.24        10.14668
447.69        9.932689
448.13        9.775793
448.58        9.709792
449.02        9.721456
449.47        9.768765
449.91        9.780904
450.36        9.742414
450.80        9.671702
451.25        9.612992
451.69        9.623786
452.13         9.71329
452.58        9.842192
453.02        9.967182
453.47        10.01714
453.91        9.980988
454.36        9.889836
454.80        9.764585
455.24        9.642649
455.69        9.551199
456.13        9.474937
456.58        9.452537
457.02        9.524658
457.46        9.692698
457.91        9.935674
458.35        10.18251
458.79        10.30882
459.24        10.29707
459.68        10.16967
460.13        10.01682
460.57        9.949266
461.01        10.00588
461.46        10.14276
461.90        10.29907
462.34         10.3641
462.79        10.31319
463.23        10.17991
463.68        10.03533
464.12        9.994411
464.56        10.08811
465.01        10.27464
465.45        10.46482
465.89        10.56588
466.34        10.56624
466.78        10.44305
467.22        10.27798
467.67        10.30743
468.11        10.50187
468.55        10.54617
468.99        10.44033
469.44        10.39797
469.88         10.4641
470.32         10.6601
470.77        10.90521
471.21        10.98802
471.65        10.87508
472.10        10.70198
472.54        10.54113
472.98        10.47945
473.42        10.54728
473.87        10.71915
474.31        10.92512
474.75        11.04859
475.20        11.06482
475.64        11.00232
476.08        10.92369
476.52        10.92457
476.97        11.02614
477.41        11.20095
477.85        11.38099
478.29        11.48024
478.74        11.47913
479.18        11.34828
479.62        11.16732
480.06        11.24654
480.50        11.37235
480.95        11.54361
481.39        11.61861
481.83        11.61923
482.27        11.53574
482.72        11.30808
483.16        11.03469
483.60         11.0193
484.04        11.28133
484.48        11.47727
484.93        11.74823
485.37        12.17136
485.81         12.6059
486.25        12.97055
486.69        16.95832
487.14        13.28202
487.58        8.942529
488.02        10.89132
488.46        12.42543
488.90        12.37021
489.34        12.24004
489.79        12.18692
490.23        13.01211
490.67        13.47318
491.11        13.35983
491.55        13.21057
491.99        13.02566
492.43         12.8452
492.88        12.73843
493.32         12.7383
493.76        12.77137
494.20        12.95405
494.64        13.24383
495.08         13.6012
495.52        13.96736
495.96        14.27172
496.41        14.45318
496.85        14.51186
497.29        14.48049
497.73        14.27672
498.17        14.09109
498.61         14.2599
499.05         14.7711
499.49          14.908
499.93        15.01547
500.37        15.12361
500.82         15.1945
501.26        15.38591
501.70        15.62075
502.14        15.76639
502.58        15.79635
503.02        15.82287
503.46        15.84943
503.90        15.79913
504.34        15.70907
504.78        15.67693
505.22         15.7199
505.66        15.81957
506.10        15.93437
506.54        15.99067
506.98        15.97414
507.42        15.91173
507.86        15.86251
508.30        15.91734
508.74        16.08946
509.18        16.33897
509.62        16.60432
510.06        16.78559
510.50        16.85462
510.94        16.84958
511.38        16.79602
511.82        16.73426
512.26        16.68589
512.70        16.63488
513.14        16.61374
513.58        16.67709
514.02        16.81771
514.46        17.01355
514.90        17.19589
515.34        17.21579
515.78         17.0207
516.22        16.82144
516.66        16.70068
517.10        16.32026
517.54        15.70694
517.98        16.54204
518.42        16.34072
518.86        16.71741
519.30        16.90832
519.74        17.15003
520.18        17.36832
520.62        17.41228
521.06          17.292
521.50        17.02858
521.93         16.7215
522.37        16.54784
522.81        16.55064
523.25        16.67997
523.69         16.8633
524.13        16.98505
524.57        17.00941
525.01        16.97116
525.45        16.89659
525.89        16.82728
526.32        16.77658
526.76        16.72725
527.20        16.66968
527.64        16.60093
528.08        16.52195
528.52        16.42249
528.96        16.30766
529.40         16.2254
529.83        16.19026
530.27         16.0302
530.71        16.04436
531.15         15.9484
531.59        15.83665
532.03        15.70556
532.46        15.61337
532.90         15.6572
533.34        15.83589
533.78        16.10747
534.22        16.36703
534.66        16.46057
535.09        16.35614
535.53        16.11248
535.97        15.81382
536.41        15.59887
536.85        15.51314
537.28        15.52075
537.72        15.58814
538.16        15.65828
538.60        15.70985
539.04         15.7506
539.47        15.79159
539.91        15.88535
540.35        16.01798
540.79        16.11289
541.22        16.16552
541.66        16.23674
542.10        16.32705
542.54        16.39465
542.97        16.45726
543.41        16.57128
543.85         16.7381
544.29        16.95077
544.72          17.158
545.16        17.28566
545.60        17.32196
546.04        17.28753
546.47        17.26213
546.91        17.38149
547.35        17.65948
547.79        18.05257
548.22        18.45102
548.66         18.6654
549.10        18.66871
549.53        18.54886
549.97        18.41175
550.41        18.37006
550.84        18.46543
551.28        18.67529
551.72        18.95611
552.15        19.22695
552.59        19.44987
553.03        19.64223
553.46        19.80617
553.90        19.95902
554.34        20.11027
554.77        20.22917
555.21        20.30469
555.65        20.38222
556.08        20.47471
556.52         20.3291
556.96        20.44766
557.39        20.48584
557.83        20.59763
558.27        20.75048
558.70        20.92847
559.14        21.08959
559.57        21.21112
560.01        21.31445
560.45        21.38475
560.88        21.39901
561.32        21.37922
561.75        21.32023
562.19        21.27283
562.63        21.28914
563.06        21.37523
563.50        21.51003
563.93        21.66076
564.37        21.80279
564.80        21.90609
565.24        21.95156
565.68        21.95323
566.11        21.97171
566.55        22.03505
566.98        22.10675
567.42        22.21285
567.85        22.39754
568.29        22.67149
568.72        22.95279
569.16        23.24092
569.60        23.59164
570.03        23.89061
570.47        23.94578
570.90        23.87857
571.34        23.48996
571.77        23.93954
572.21        24.01135
572.64        24.09097
573.08        23.89268
573.51        23.20438
573.95         24.3578
574.38        26.01564
574.82        25.43206
