SpectraSmart Spectrum 2.9.0.0
--------- Device Information -----------
Spectrum Name :  反射率_0
Saving Time :  2024/04/26 00:43:02
Spectro-Module Model Name : SE2030-DUVN
Spectro-Module Serial Number : OS361AC55029948
Wavelength Start : 200
Wavelength End : 1025
Wavelength Unit : Wavelength(nm)
Spectrum Unit : Reflectance(%)
-----------Spectrum Setting ------------
Integration Time : 20ms
Average : 10
Boxcar : 0
Background removal :  enabled
linearity correction :  enabled
SC :  disabled
Intensity correction :  disabled
DWT denoise :  enabled
savitzky-golay :  disabled
FFT :  disabled
Running average :  disabled
Kalman :  disabled
High pass :  disabled
---------------BEGIN--------------------
Wavelength(nm)             Reflectance(%)
200.29               0
200.75        92.37511
201.21        81.95156
201.67        70.90231
202.13         65.3913
202.58        65.94305
203.04        71.12377
203.50        78.06905
203.96         81.5793
204.42        80.50796
204.88        77.05648
205.34        73.54261
205.80        72.22128
206.26         73.8307
206.72        79.29588
207.18        91.40098
207.64        104.5645
208.10        101.8012
208.55        90.02766
209.01        81.88807
209.47        79.18828
209.93        79.79855
210.39        82.38313
210.85        85.20231
211.31         84.7705
211.77         80.1994
212.23        73.03928
212.69        66.24699
213.14        64.34067
213.60        67.84263
214.06        75.50164
214.52        84.34551
214.98        89.76511
215.44         90.5099
215.90        88.03326
216.36         84.1679
216.81        81.38777
217.27        80.66082
217.73         81.0647
218.19        81.45743
218.65        80.37169
219.11        77.15923
219.57        71.29545
220.02        63.58006
220.48        59.19803
220.94        60.73795
221.40        66.99172
221.86          72.327
222.32        70.87143
222.77        63.69508
223.23        54.65735
223.69         47.5729
224.15        46.40334
224.61        50.59914
225.06        58.05821
225.52        65.91346
225.98        70.55897
226.44         71.2338
226.90        69.37802
227.36        66.70249
227.81        65.50759
228.27         66.5879
228.73        68.82426
229.19        71.32731
229.65        72.86333
230.10        73.12032
230.56        72.81834
231.02        72.30304
231.48        71.91215
231.93        71.70646
232.39        71.59834
232.85        71.57497
233.31        71.74741
233.77         72.0801
234.22        72.54063
234.68        72.94349
235.14        72.91484
235.60        72.37596
236.05         71.5127
236.51        70.45087
236.97        69.27998
237.43        67.99937
237.88        66.53778
238.34        65.08883
238.80         64.6803
239.26        65.78185
239.71        68.46227
240.17         71.4729
240.63        73.04074
241.08         72.7783
241.54        71.11475
242.00         69.2112
242.46        68.70882
242.91        70.71456
243.37        76.76907
243.83        96.20566
244.28        158.3416
244.74        225.7101
245.20        185.1824
245.66        149.4842
246.11        139.1515
246.57        142.8111
247.03         163.157
247.48        220.0302
247.94        170.4237
248.40         104.123
248.85        86.33404
249.31        81.86784
249.77        81.77821
250.22        84.08823
250.68        89.09431
251.14        96.53374
251.59        101.1435
252.05        98.15339
252.51        90.01905
252.96        81.70755
253.42        78.37481
253.88        79.42722
254.33        82.71826
254.79        87.36877
255.25        91.53833
255.70        94.31709
256.16        96.58539
256.62        97.37974
257.07        95.61451
257.53        92.16219
257.99        87.24586
258.44        82.42931
258.90        80.52238
259.35        80.48695
259.81        81.35018
260.27        81.13444
260.72        77.93723
261.18        72.66968
261.63        66.19752
262.09        60.33239
262.55        56.42606
263.00        54.39802
263.46         53.6671
263.91         53.1825
264.37        52.17051
264.83        50.42366
265.28        48.15223
265.74        45.98882
266.19        44.60186
266.65         44.2167
267.11        44.40188
267.56        44.58782
268.02         44.1491
268.47        42.95063
268.93          41.238
269.38        39.33854
269.84        38.03667
270.30        37.55608
270.75        37.68147
271.21        38.01949
271.66        37.97818
272.12        37.40179
272.57        36.47305
273.03        35.51547
273.48        34.91581
273.94        34.78464
274.39        34.92316
274.85        35.08085
275.31        34.88035
275.76        34.24214
276.22        33.34524
276.67        32.39312
277.13        31.78386
277.58        31.52809
278.04        31.52024
278.49        31.51845
278.95        31.26438
279.40        30.67793
279.86        29.93557
280.31        29.13247
280.77        28.53053
281.22        28.14526
281.68        27.91939
282.13        27.78719
282.59        27.71026
283.04        27.64048
283.50        27.62162
283.95        27.56714
284.41        27.37268
284.86        27.01513
285.32        26.53632
285.77        26.05858
286.22         25.8379
286.68         25.8919
287.13         26.1185
287.59        26.32233
288.04        26.19366
288.50        25.71223
288.95        24.97334
289.41        24.19581
289.86        23.59496
290.32        23.28209
290.77        23.16079
291.22        23.18241
291.68         23.2351
292.13        23.28536
292.59        23.37529
293.04         23.5226
293.50        23.75558
293.95        24.06493
294.40        24.40513
294.86        24.75145
295.31        25.07957
295.77        25.39078
296.22        25.71095
296.68         26.0259
297.13        26.28013
297.58        26.49592
298.04         26.7064
298.49        27.02003
298.95        27.64409
299.40        28.58477
299.85        29.75415
300.31        30.96404
300.76         31.9253
301.21        32.54243
301.67        32.92643
302.12        33.13887
302.58        33.34086
303.03        33.56916
303.48        33.79278
303.94        34.08891
304.39         34.5373
304.84        35.14224
305.30        35.87479
305.75        36.56786
306.20        36.97115
306.66        37.06195
307.11        36.90284
307.57        36.67812
308.02        36.58486
308.47        36.70614
308.93        36.97367
309.38        37.31079
309.83        37.63146
310.29        37.88746
310.74        38.09512
311.19        38.24329
311.65        38.30936
312.10        38.29067
312.55        38.19204
313.00        38.02181
313.46        37.81187
313.91        37.57477
314.36        37.32964
314.82        37.12878
315.27        37.02524
315.72        37.03481
316.18        37.13638
316.63        37.27693
317.08        37.34367
317.53        37.30066
317.99        37.16275
318.44        36.98827
318.89        36.87719
319.35        36.84069
319.80        36.85411
320.25        36.82963
320.70         36.6307
321.16        36.23802
321.61          35.705
322.06         35.1426
322.51        34.71429
322.97        34.44719
323.42        34.30796
323.87        34.20501
324.32        33.98652
324.78        33.61489
325.23        33.15196
325.68        32.67722
326.13         32.3217
326.59        32.11681
327.04        32.04242
327.49        32.03782
327.94        32.01026
328.39        31.92732
328.85        31.79733
329.30        31.69049
329.75        31.67691
330.20        31.77223
330.66        31.93165
331.11        32.09699
331.56        32.13009
332.01        31.99707
332.46        31.71883
332.92        31.38548
333.37        31.20774
333.82         31.2338
334.27        31.43058
334.72        31.65406
335.17        31.65532
335.63        31.37299
336.08        30.88777
336.53        30.39032
336.98        30.19187
337.43         30.3574
337.88         30.7905
338.34         31.2562
338.79         31.4217
339.24         31.1754
339.69         30.6235
340.14        29.98789
340.59        29.65402
341.05         29.7219
341.50        30.06609
341.95        30.49259
342.40        30.72215
342.85        30.68275
343.30        30.46934
343.75        30.16728
344.20        29.92379
344.66        29.79171
345.11        29.68723
345.56        29.59878
346.01        29.51111
346.46        29.40936
346.91        29.32771
347.36        29.19849
347.81        28.90222
348.26        28.44847
348.72        27.91035
349.17        27.41919
349.62         27.2694
350.07         27.5144
350.52        28.04138
350.97        28.67522
351.42        29.14865
351.87        29.37525
352.32        29.42306
352.77        29.32253
353.22         29.1313
353.67        28.88735
354.13        28.57918
354.58        28.25212
355.03        28.02069
355.48        27.90834
355.93        27.90359
356.38        27.93174
356.83        27.85843
357.28        27.65101
357.73        27.34538
358.18        27.01296
358.63        26.76788
359.08        26.63848
359.53        26.59141
359.98        26.55753
360.43        26.43147
360.88        26.19156
361.33        25.87079
361.78        25.54853
362.23        25.35211
362.68        25.30211
363.13        25.34527
363.58        25.38851
364.03        25.28871
364.48         25.0154
364.93        24.62647
365.38        24.18573
365.83        23.79393
366.28        23.49071
366.73         23.2448
367.18        23.06755
367.63        22.97728
368.08         22.9618
368.53        23.01542
368.98        23.07114
369.43        23.01835
369.88        22.83799
370.33        22.56259
370.78        22.25715
371.23        22.03875
371.68        21.94334
372.13        21.93159
372.58        21.98113
373.03        22.05064
373.48        22.11264
373.93        22.17925
374.38        22.21077
374.83        22.14391
375.28        21.97389
375.72        21.70697
376.17        21.43235
376.62        21.25884
377.07        21.21612
377.52        21.27043
377.97        21.36654
378.42         21.4122
378.87        21.37708
379.32        21.28806
379.77        21.16806
380.22        21.04838
380.67        20.93877
381.11        20.82975
381.56        20.70918
382.01        20.56885
382.46         20.4115
382.91         20.2464
383.36        20.09688
383.81        19.99483
384.26        19.94659
384.71        19.94383
385.15        19.94621
385.60        19.90923
386.05         19.8119
386.50        19.65547
386.95        19.48242
387.40        19.36987
387.85          19.338
388.29        19.36417
388.74         19.3877
389.19        19.29314
389.64        19.07059
390.09        18.74858
390.54        18.44364
390.98        18.35026
391.43        18.51308
391.88        18.85317
392.33          19.207
392.78        19.33426
393.23        19.20252
393.67        18.89235
394.12        18.57469
394.57        18.42487
395.02        18.48144
395.47        18.67714
395.91        18.93665
396.36        19.09938
396.81        19.11535
397.26        19.02479
397.71        18.87568
398.15         18.7187
398.60        18.60489
399.05        18.52398
399.50        18.45267
399.95        18.30746
400.39        18.16551
400.84        17.98685
401.29        17.85659
401.74        17.88638
402.18        18.10268
402.63        18.43884
403.08        18.79638
403.53        19.01899
403.97        19.06492
404.42        18.97772
404.87        18.81134
405.32        18.66464
405.76        18.57564
406.21        18.52477
406.66        18.50956
407.11        18.53257
407.55        18.59396
408.00        18.69381
408.45        18.80729
408.90        18.86851
409.34         18.8564
409.79        18.78683
410.24         18.7048
410.68        18.67762
411.13        18.72482
411.58        18.82901
412.03        18.95372
412.47        19.03765
412.92        19.04842
413.37        19.00678
413.81         18.9533
414.26        18.96726
414.71        19.05334
415.15        19.18823
415.60        19.30243
416.05        19.30516
416.49        19.17859
416.94        18.96676
417.39        18.72958
417.83        18.56771
418.28        18.52126
418.73         18.5516
419.17        18.63818
419.62         18.7446
420.07        18.85283
420.51        18.97468
420.96        19.07291
421.41        19.08121
421.85        18.98579
422.30        18.82776
422.74         18.6598
423.19        18.60294
423.64        18.66265
424.08        18.81715
424.53        18.99683
424.98        19.11277
425.42        19.14238
425.87        19.10017
426.31         19.0188
426.76        19.00407
427.21        19.04707
427.65        18.99224
428.10        18.91341
428.54        19.04862
428.99        19.40506
429.44        19.87535
429.88        20.26493
430.33        20.33673
430.77        20.05541
431.22         19.5016
431.66        18.91333
432.11         18.7358
432.56         19.0057
433.00        19.47598
433.45        19.92576
433.89        20.25943
434.34        20.33029
434.78        19.93222
435.23        19.37376
435.67        19.34407
436.12        19.77979
436.57        19.95053
437.01        19.79462
437.46        19.72752
437.90         19.7889
438.35        19.86023
438.79         19.8924
439.24         19.8664
439.68        19.78961
440.13        19.59235
440.57        19.38348
441.02         19.5936
441.46        20.09196
441.91         20.1397
442.35        19.76579
442.80        19.60879
443.24        19.64093
443.69        19.63851
444.13        19.56334
444.58         19.3207
445.02        19.01024
445.47        19.04951
445.91        19.35916
446.36        19.45056
446.80        19.28439
447.24        19.13855
447.69        19.06587
448.13        19.01983
448.58        19.01955
449.02        19.06775
449.47        19.13319
449.91        19.16473
450.36        19.15326
450.80        19.11076
451.25        19.06575
451.69         19.0494
452.13        19.07327
452.58        19.11271
453.02        19.16087
453.47        19.20806
453.91        19.25055
454.36        19.29977
454.80        19.32901
455.24        19.29038
455.69        19.19088
456.13        19.03683
456.58        18.91413
457.02        18.92076
457.46        19.07791
457.91        19.34479
458.35        19.62415
458.79        19.75866
459.24         19.7251
459.68        19.55701
460.13        19.36392
460.57        19.26969
461.01        19.32377
461.46        19.48018
461.90        19.66673
462.34        19.76688
462.79        19.74642
463.23        19.63405
463.68        19.51308
464.12        19.52822
464.56        19.70693
465.01        20.00946
465.45        20.27802
465.89        20.36074
466.34        20.25002
466.78         19.8906
467.22        19.47594
467.67        19.51101
468.11        19.94979
468.55        20.18426
468.99        20.13957
469.44         20.1058
469.88        20.14455
470.32        20.33011
470.77        20.58878
471.21        20.64722
471.65        20.48113
472.10         20.2996
472.54        20.17438
472.98         20.1508
473.42         20.2533
473.87        20.47098
474.31         20.7265
474.75        20.89424
475.20        20.94718
475.64        20.91097
476.08        20.84075
476.52        20.81642
476.97        20.86277
477.41        20.96727
477.85         21.0894
478.29        21.16547
478.74        21.25301
479.18        21.20555
479.62        21.09523
480.06        21.35183
480.50        21.53789
480.95        21.72976
481.39        21.74903
481.83        21.70419
482.27        21.57891
482.72        21.47495
483.16        21.04253
483.60        21.14172
484.04        21.63488
484.48        21.98388
484.93        22.38768
485.37        22.78241
485.81        23.12166
486.25        23.37675
486.69        31.21883
487.14        24.79687
487.58        16.08527
488.02         19.8158
488.46        22.41541
488.90        22.55736
489.34        22.79803
489.79        22.66835
490.23        23.80405
490.67        24.44169
491.11        24.31109
491.55        24.17599
491.99        23.99579
492.43        23.79083
492.88        23.65457
493.32        23.73583
493.76        23.86697
494.20        24.15174
494.64        24.50453
495.08        24.92782
495.52         25.3645
495.96        25.69097
496.41        25.85358
496.85        25.98086
497.29        26.08675
497.73        25.81086
498.17        25.46492
498.61        25.75426
499.05        26.66434
499.49        26.87426
499.93        27.01203
500.37         27.1386
500.82        27.18469
501.26        27.42675
501.70        27.73221
502.14        27.86859
502.58        27.81938
503.02        27.82552
503.46        27.89952
503.90        27.89668
504.34        27.83566
504.78        27.81178
505.22        27.83293
505.66        27.89583
506.10        27.98675
506.54        28.02773
506.98        27.99983
507.42        28.12796
507.86        28.07755
508.30        28.19288
508.74         28.3698
509.18        28.59723
509.62        28.82182
510.06        28.96505
510.50        29.01278
510.94           28.99
511.38        28.94465
511.82        28.95198
512.26        29.03295
512.70        29.16108
513.14        29.31315
513.58        29.45111
514.02        29.54887
514.46        29.61046
514.90        29.63247
515.34        29.57847
515.78         29.4261
516.22        29.32625
516.66        29.30458
517.10        29.01553
517.54        28.43971
517.98        29.05718
518.42        28.78656
518.86         29.0555
519.30        29.22771
519.74        29.48006
520.18        29.73646
520.62         29.8494
521.06        29.81547
521.50        29.66037
521.93        29.44729
522.37        29.28978
522.81        29.22463
523.25        29.22204
523.69          29.265
524.13        29.32644
524.57        29.38804
525.01        29.45403
525.45        29.50671
525.89        29.51466
526.32        29.46742
526.76         29.3738
527.20        29.23967
527.64         29.0874
528.08        28.93772
528.52        28.76706
528.96        28.59112
529.40        28.51139
529.83        28.54863
530.27        28.38227
530.71        28.54303
531.15        28.53184
531.59        28.50369
532.03        28.44867
532.46        28.40519
532.90        28.43271
533.34        28.52905
533.78        28.67189
534.22        28.79477
534.66        28.80229
535.09        28.67515
535.53        28.45974
535.97        28.22031
536.41        28.06473
536.85        28.02597
537.28        28.07684
537.72        28.17621
538.16        28.25844
538.60        28.30265
539.04        28.30676
539.47         28.2992
539.91        28.39584
540.35        28.57539
540.79        28.70309
541.22        28.76553
541.66        28.85926
542.10        28.98021
542.54        29.06003
542.97         29.1286
543.41        29.28004
543.85        29.51771
544.29        29.82542
544.72        30.12304
545.16        30.29897
545.60        30.33196
546.04        30.25207
546.47         30.1782
546.91        30.31088
547.35        30.67278
547.79        31.20498
548.22        31.74067
548.66         31.9955
549.10        31.93229
549.53         31.6918
549.97        31.44194
550.41        31.36428
550.84        31.52127
551.28        31.86859
551.72        32.32315
552.15        32.72829
552.59        33.02194
553.03        33.24461
553.46        33.40427
553.90        33.54513
554.34         33.6861
554.77        33.77337
555.21        33.81028
555.65        33.91198
556.08        34.10358
556.52        33.94695
556.96        34.23185
557.39        34.30566
557.83        34.41304
558.27        34.52423
558.70        34.66235
559.14        34.84556
559.57        35.05529
560.01        35.29571
560.45        35.50369
560.88        35.58209
561.32        35.54439
561.75        35.40435
562.19        35.26083
562.63        35.21656
563.06        35.29165
563.50        35.46401
563.93        35.67691
564.37        35.85744
564.80         35.9715
565.24        36.05827
565.68        36.13342
566.11        36.22222
566.55        36.35777
566.98        36.51819
567.42         36.7171
567.85        36.95646
568.29        37.27864
568.72        37.54989
569.16        37.80194
569.60        38.22133
570.03        38.64347
570.47         38.6058
570.90        38.28535
571.34        37.92624
571.77        38.41796
572.21        38.59986
572.64        38.71425
573.08        38.34069
573.51         36.9801
573.95         38.5709
574.38        41.03305
574.82        40.09694
