SpectraSmart Spectrum 2.9.0.0
--------- Device Information -----------
Spectrum Name :  反射率_0
Saving Time :  2024/04/25 22:47:17
Spectro-Module Model Name : SE2030-DUVN
Spectro-Module Serial Number : OS361AC55029948
Wavelength Start : 200
Wavelength End : 1025
Wavelength Unit : Wavelength(nm)
Spectrum Unit : Reflectance(%)
-----------Spectrum Setting ------------
Integration Time : 20ms
Average : 10
Boxcar : 0
Background removal :  enabled
linearity correction :  enabled
SC :  disabled
Intensity correction :  disabled
DWT denoise :  enabled
savitzky-golay :  disabled
FFT :  disabled
Running average :  disabled
Kalman :  disabled
High pass :  disabled
---------------BEGIN--------------------
Wavelength(nm)             Reflectance(%)
200.29               0
200.75         96.4494
201.21        87.40579
201.67        76.58211
202.13         71.0481
202.58         71.7241
203.04        76.93049
203.50        83.45441
203.96         85.7887
204.42        83.07365
204.88        77.92393
205.34        73.37508
205.80        72.44802
206.26        76.33249
206.72        87.34622
207.18        110.7326
207.64        134.7721
208.10        127.1822
208.55        102.9684
209.01        86.22198
209.47        79.47086
209.93        78.43962
210.39        80.60511
210.85        83.49994
211.31        82.54916
211.77        76.69328
212.23        68.00857
212.69        60.51487
213.14        60.26199
213.60         67.9852
214.06        81.69293
214.52        96.77724
214.98        106.2684
215.44        108.2705
215.90         104.972
216.36        99.20872
216.81        94.87184
217.27        93.44833
217.73        93.71762
218.19        94.13821
218.65        92.70673
219.11        88.58314
219.57        81.19653
220.02        72.01541
220.48        67.99709
220.94        72.41758
221.40        83.05831
221.86        91.68955
222.32        90.10723
222.77        80.06506
223.23        67.04507
223.69        56.64613
224.15        54.61462
224.61        60.27105
225.06        70.66441
225.52        81.84264
225.98         88.5928
226.44        89.82145
226.90        87.47132
227.36        84.16899
227.81        83.52344
228.27         86.4885
228.73        91.34468
229.19        96.13435
229.65        98.11968
230.10        96.95673
230.56        94.34831
231.02        91.57697
231.48        90.03271
231.93        89.81416
232.39        90.35782
232.85        91.28284
233.31         92.1981
233.77        92.87313
234.22        93.51277
234.68        93.72863
235.14        92.81956
235.60        90.78933
236.05        87.98615
236.51        85.13767
236.97        83.17834
237.43        82.26751
237.88         82.2447
238.34        82.92519
238.80        84.19142
239.26        85.71584
239.71        87.76717
240.17        89.06108
240.63        88.13075
241.08        84.96439
241.54        80.03806
242.00        75.05283
242.46        72.05553
242.91        71.88123
243.37         75.4517
243.83        90.40727
244.28        141.9675
244.74        202.4909
245.20        172.5462
245.66        143.7332
246.11        136.5892
246.57        142.9536
247.03        168.0667
247.48        239.1378
247.94        192.2828
248.40        113.6116
248.85        90.88608
249.31        84.41064
249.77        83.34617
250.22         84.9968
250.68        89.21734
251.14        95.81405
251.59        100.3126
252.05        98.39538
252.51        92.09243
252.96        85.07456
253.42        81.34655
253.88        80.62714
254.33         81.5575
254.79        84.27142
255.25        88.29572
255.70        92.69312
256.16        97.33746
256.62         100.891
257.07         102.012
257.53        101.3825
257.99        99.19954
258.44        96.39467
258.90        95.14496
259.35        94.60905
259.81        94.44778
260.27        93.39648
260.72         90.2097
261.18        85.75965
261.63        80.49718
262.09        75.80539
262.55        72.45112
263.00        70.33492
263.46        69.19827
263.91        68.31969
264.37        67.40427
264.83        66.18124
265.28        64.66541
265.74        63.11477
266.19        61.56556
266.65        60.30625
267.11         59.2506
267.56        58.25536
268.02        57.19707
268.47        55.94351
268.93        54.58619
269.38        53.23905
269.84        52.30729
270.30        51.88419
270.75        51.85546
271.21        51.98412
271.66        51.90533
272.12        51.51172
272.57        50.87344
273.03        50.16476
273.48         49.5477
273.94        49.11216
274.39        48.74469
274.85        48.36775
275.31        47.82462
275.76        47.07481
276.22        46.22881
276.67        45.36062
277.13        44.71151
277.58        44.24647
278.04        43.95065
278.49        43.63307
278.95        43.14177
279.40         42.3973
279.86        41.54062
280.31        40.64011
280.77        39.95385
281.22         39.4734
281.68        39.16765
282.13        38.92019
282.59        38.64577
283.04        38.28645
283.50        37.91741
283.95        37.51849
284.41        37.10992
284.86        36.67921
285.32        36.22999
285.77        35.79865
286.22        35.52472
286.68        35.40185
287.13         35.3624
287.59        35.26954
288.04        34.88162
288.50        34.21126
288.95         33.3283
289.41        32.43782
289.86        31.71888
290.32          31.281
290.77        31.02968
291.22        30.93956
291.68        30.92943
292.13        30.95745
292.59         31.0464
293.04        31.16467
293.50        31.27313
293.95        31.34723
294.40         31.3655
294.86        31.34483
295.31         31.3229
295.77        31.31539
296.22        31.32132
296.68        31.31073
297.13        31.20452
297.58        31.01892
298.04        30.80923
298.49        30.66755
298.95        30.76989
299.40        31.12441
299.85        31.65544
300.31        32.24259
300.76        32.70851
301.21        32.98057
301.67        33.13554
302.12        33.15022
302.58        33.05474
303.03        32.85709
303.48        32.56684
303.94        32.32312
304.39        32.30492
304.84        32.53949
305.30        32.95993
305.75        33.36544
306.20         33.4557
306.66         33.1969
307.11        32.68335
307.57        32.11166
308.02        31.69422
308.47        31.52119
308.93        31.52098
309.38        31.62926
309.83        31.78006
310.29        31.92374
310.74        32.06435
311.19        32.17668
311.65        32.21635
312.10         32.1708
312.55        32.04946
313.00        31.84013
313.46        31.54395
313.91        31.17622
314.36         30.7675
314.82        30.42072
315.27        30.27135
315.72        30.34492
316.18        30.59518
316.63        30.90881
317.08        31.07291
317.53        31.02378
317.99        30.80519
318.44        30.52142
318.89        30.34562
319.35         30.3142
319.80        30.38155
320.25        30.43829
320.70        30.30987
321.16        29.96537
321.61        29.47371
322.06         28.9657
322.51        28.63335
322.97        28.50967
323.42        28.54309
323.87        28.62038
324.32        28.55314
324.78        28.29031
325.23        27.90277
325.68         27.4768
326.13        27.15535
326.59        26.97894
327.04         26.9196
327.49        26.93682
327.94        26.96908
328.39        26.99091
328.85         27.0125
329.30        27.06153
329.75        27.13953
330.20        27.24406
330.66        27.34317
331.11        27.43821
331.56        27.49336
332.01        27.49744
332.46        27.44753
332.92         27.3569
333.37        27.28431
333.82        27.23895
334.27        27.23207
334.72        27.21886
335.17        27.12069
335.63        26.92765
336.08        26.66693
336.53        26.45323
336.98        26.47471
337.43        26.75695
337.88        27.24067
338.34        27.72363
338.79        27.92295
339.24        27.74568
339.69        27.27445
340.14        26.71826
340.59        26.44705
341.05         26.5515
341.50        26.91516
341.95         27.3524
342.40        27.58982
342.85        27.56413
343.30        27.38152
343.75        27.12002
344.20        26.91314
344.66        26.81205
345.11        26.72811
345.56        26.69339
346.01        26.76092
346.46        26.91298
346.91        27.15319
347.36         27.3153
347.81        27.12857
348.26        26.57677
348.72        25.78379
349.17        24.99214
349.62        24.68118
350.07        24.95791
350.52        25.65861
350.97        26.52481
351.42        27.15865
351.87        27.43774
352.32        27.46969
352.77        27.33661
353.22        27.17443
353.67        27.03859
354.13        26.88556
354.58        26.71029
355.03        26.55366
355.48        26.42523
355.93        26.34286
356.38         26.2866
356.83        26.20549
357.28        26.08607
357.73        25.93568
358.18        25.77947
358.63         25.6586
359.08        25.58219
359.53        25.54166
359.98         25.4958
360.43        25.38289
360.88        25.19309
361.33        24.93999
361.78        24.69247
362.23        24.56312
362.68        24.56501
363.13        24.65338
363.58        24.72768
364.03        24.63033
364.48        24.33409
364.93        23.90451
365.38        23.42916
365.83        23.04775
366.28        22.80835
366.73         22.6662
367.18        22.61288
367.63        22.63271
368.08        22.69798
368.53        22.80883
368.98        22.89899
369.43        22.85992
369.88        22.67968
370.33        22.39651
370.78        22.08274
371.23        21.86905
371.68        21.79678
372.13        21.82007
372.58        21.93091
373.03        22.10814
373.48        22.31719
373.93        22.55787
374.38         22.7372
374.83        22.71338
375.28         22.4714
375.72        22.04248
376.17        21.58041
376.62         21.3027
377.07        21.26664
377.52        21.40493
377.97        21.61301
378.42        21.71558
378.87        21.66152
379.32          21.514
379.77          21.317
380.22        21.12917
380.67        20.97296
381.11        20.82529
381.56         20.6927
382.01        20.60131
382.46        20.55201
382.91        20.54011
383.36        20.54143
383.81        20.50996
384.26        20.43547
384.71        20.33502
385.15        20.21104
385.60         20.0834
386.05        19.95044
386.50        19.79788
386.95        19.65588
387.40        19.57884
387.85        19.57578
388.29        19.62925
388.74        19.68156
389.19        19.62026
389.64        19.43513
390.09        19.15063
390.54         18.8718
390.98        18.77649
391.43        18.90737
391.88        19.19272
392.33        19.48789
392.78        19.57985
393.23        19.44072
393.67        19.14231
394.12        18.83981
394.57         18.6844
395.02        18.71043
395.47        18.85925
395.91        19.06681
396.36        19.19384
396.81        19.19744
397.26        19.10801
397.71        18.96882
398.15         18.8237
398.60        18.71861
399.05        18.64558
399.50        18.57133
399.95        18.39672
400.39        18.19869
400.84        17.94076
401.29        17.72578
401.74        17.70023
402.18        17.90182
402.63        18.25534
403.08        18.64326
403.53        18.87755
403.97        18.90695
404.42        18.78317
404.87        18.57037
405.32        18.38612
405.76        18.27364
406.21        18.20462
406.66        18.16912
407.11        18.15864
407.55        18.16973
408.00        18.20794
408.45         18.2515
408.90        18.24256
409.34        18.16913
409.79        18.04871
410.24        17.93154
410.68        17.89017
411.13        17.94138
411.58        18.06387
412.03        18.21261
412.47        18.31036
412.92        18.31872
413.37        18.26138
413.81        18.17906
414.26        18.15249
414.71        18.18913
415.15        18.26536
415.60        18.32242
416.05        18.28646
416.49        18.14334
416.94        17.93533
417.39        17.70831
417.83        17.53815
418.28        17.46016
418.73        17.44358
419.17        17.48488
419.62        17.57254
420.07         17.6913
420.51        17.84019
420.96        17.96633
421.41        17.97784
421.85        17.85488
422.30        17.65039
422.74        17.42301
423.19        17.29669
423.64        17.28092
424.08        17.35101
424.53        17.45352
424.98        17.52863
425.42        17.56013
425.87        17.55667
426.31        17.52474
426.76        17.52398
427.21        17.53607
427.65         17.4266
428.10        17.28556
428.54        17.36799
428.99        17.69116
429.44        18.14605
429.88        18.53685
430.33        18.61925
430.77        18.35316
431.22        17.81894
431.66        17.25013
432.11         17.0706
432.56        17.31725
433.00        17.77521
433.45        18.21792
433.89        18.48259
434.34        18.44135
434.78        17.99285
435.23        17.45033
435.67        17.41891
436.12        17.84744
436.57        18.10484
437.01        18.08055
437.46         18.0439
437.90        18.01104
438.35        17.90324
438.79        17.75432
439.24        17.66671
439.68        17.66958
440.13        17.66389
440.57         17.6586
441.02        17.90884
441.46        18.26493
441.91        18.09513
442.35        17.53492
442.80        17.30569
443.24        17.39102
443.69        17.51698
444.13        17.58015
444.58        17.41313
445.02        17.07773
445.47         16.9709
445.91        17.07565
446.36        17.05732
446.80        16.90637
447.24        16.83149
447.69        16.83613
448.13        16.81268
448.58         16.7624
449.02        16.71538
449.47        16.67304
449.91         16.6343
450.36        16.60544
450.80        16.57887
451.25        16.57161
451.69        16.59947
452.13        16.66452
452.58        16.74796
453.02        16.83157
453.47        16.88488
453.91        16.90332
454.36        16.90256
454.80        16.87966
455.24        16.82883
455.69        16.76671
456.13        16.68955
456.58        16.65393
457.02        16.71809
457.46        16.89194
457.91        17.14212
458.35        17.39701
458.79        17.53829
459.24         17.5471
459.68        17.44398
460.13        17.30039
460.57        17.18598
461.01        17.14357
461.46         17.1501
461.90        17.18115
462.34        17.18973
462.79        17.15965
463.23        17.09937
463.68        17.05802
464.12        17.11583
464.56        17.28241
465.01        17.53901
465.45        17.75594
465.89         17.8106
466.34        17.70182
466.78        17.37529
467.22        17.01011
467.67        17.06652
468.11        17.50639
468.55        17.79101
468.99        17.83002
469.44        17.84107
469.88        17.87097
470.32        17.99685
470.77        18.16785
471.21        18.16998
471.65        17.99171
472.10        17.80919
472.54        17.68602
472.98        17.66463
473.42        17.76459
473.87        17.97849
474.31        18.22393
474.75        18.36462
475.20        18.37492
475.64        18.28482
476.08        18.16631
476.52        18.13153
476.97        18.20822
477.41        18.36287
477.85        18.53254
478.29        18.65222
478.74        18.70388
479.18        18.61954
479.62        18.45721
480.06        18.61754
480.50         18.7302
480.95        18.83153
481.39         18.7755
481.83        18.73044
482.27        18.69841
482.72        18.51744
483.16        18.26901
483.60        18.34061
484.04        18.73598
484.48        18.88948
484.93        19.05587
485.37        19.47147
485.81        19.95512
486.25         20.0532
486.69         26.3984
487.14        20.62536
487.58        13.64064
488.02        16.89846
488.46        19.20787
488.90        19.15964
489.34        19.21877
489.79        19.03312
490.23        20.05612
490.67        20.63035
491.11         20.5035
491.55        20.38741
491.99        20.24158
492.43        20.06445
492.88        19.93138
493.32        19.95509
493.76        19.99151
494.20        20.15068
494.64        20.36974
495.08        20.61812
495.52        20.88462
495.96        21.18074
496.41        21.44022
496.85         21.6275
497.29        21.72304
497.73        21.48553
498.17        21.16755
498.61          21.307
499.05          21.912
499.49        21.97828
499.93        22.04741
500.37        22.14475
500.82        22.20679
501.26        22.44927
501.70        22.75401
502.14        22.93476
502.58        22.95617
503.02        22.98079
503.46        23.01276
503.90        22.93991
504.34        22.80497
504.78        22.73428
505.22        22.75123
505.66        22.83144
506.10        22.93754
506.54        23.00323
506.98        23.01181
507.42        22.98376
507.86         22.9708
508.30        23.05094
508.74        23.23352
509.18         23.4861
509.62        23.73713
510.06        23.87178
510.50        23.86603
510.94        23.76403
511.38        23.63049
511.82        23.56724
512.26        23.60369
512.70        23.70273
513.14        23.84323
513.58        23.98907
514.02        24.11067
514.46        24.21574
514.90        24.27631
515.34        24.21282
515.78        23.99529
516.22        23.79638
516.66        23.68999
517.10         23.3631
517.54        22.83523
517.98        23.65338
518.42        23.51807
518.86        23.86349
519.30        23.98631
519.74        24.11149
520.18        24.21782
520.62        24.24422
521.06          24.214
521.50        24.12321
521.93        24.00271
522.37        23.91468
522.81        23.87605
523.25        23.87354
523.69        23.90081
524.13        23.94447
524.57        23.99402
525.01        24.05146
525.45        24.09666
525.89        24.09702
526.32        24.04402
526.76        23.94648
527.20        23.82673
527.64        23.73018
528.08        23.67376
528.52        23.62529
528.96        23.56396
529.40        23.52154
529.83        23.50622
530.27        23.27337
530.71        23.29125
531.15        23.19963
531.59        23.14128
532.03         23.0973
532.46        23.08659
532.90        23.13772
533.34        23.23942
533.78        23.37823
534.22        23.50431
534.66        23.54621
535.09        23.48591
535.53        23.35337
535.97        23.18802
536.41           23.06
536.85        22.99399
537.28        22.97659
537.72        22.98879
538.16        22.99939
538.60        23.00045
539.04        22.98619
539.47        22.97803
539.91        23.06515
540.35        23.22668
540.79        23.35349
541.22         23.4286
541.66        23.51973
542.10        23.62119
542.54        23.67854
542.97         23.7193
543.41        23.82802
543.85        24.00933
544.29        24.24743
544.72        24.47785
545.16        24.61054
545.60        24.62787
546.04        24.55518
546.47        24.48488
546.91        24.57334
547.35        24.83876
547.79        25.23657
548.22        25.63919
548.66        25.82652
549.10         25.7711
549.53        25.58186
549.97        25.39146
550.41        25.33895
550.84        25.47231
551.28        25.76059
551.72        26.13394
552.15        26.46281
552.59         26.6967
553.03        26.86761
553.46        26.99347
553.90        27.12485
554.34        27.27931
554.77        27.40859
555.21        27.49571
555.65        27.60085
556.08        27.73691
556.52        27.55749
556.96        27.73014
557.39        27.76554
557.83        27.86998
558.27        28.00808
558.70        28.16983
559.14        28.32178
559.57        28.43922
560.01        28.54325
560.45        28.61733
560.88        28.62759
561.32        28.59648
561.75        28.54106
562.19        28.50757
562.63        28.47898
563.06        28.48495
563.50        28.63128
563.93        28.87108
564.37        29.04605
564.80        29.12608
565.24        29.20022
565.68        29.27119
566.11        29.31828
566.55        29.36832
566.98        29.41659
567.42        29.49362
567.85        29.64064
568.29        29.87924
568.72        30.10981
569.16        30.34586
569.60        30.69432
570.03        30.99866
570.47        30.99569
570.90        30.85288
571.34         30.4016
571.77         30.7162
572.21        31.15903
572.64        31.05795
573.08        30.71021
573.51        29.80231
573.95        31.06667
574.38         32.9354
574.82         32.1501
