SpectraSmart Spectrum 2.9.0.0
--------- Device Information -----------
Spectrum Name :  反射率_0
Saving Time :  2024/04/25 22:48:10
Spectro-Module Model Name : SE2030-DUVN
Spectro-Module Serial Number : OS361AC55029948
Wavelength Start : 200
Wavelength End : 1025
Wavelength Unit : Wavelength(nm)
Spectrum Unit : Reflectance(%)
-----------Spectrum Setting ------------
Integration Time : 20ms
Average : 10
Boxcar : 0
Background removal :  enabled
linearity correction :  enabled
SC :  disabled
Intensity correction :  disabled
DWT denoise :  enabled
savitzky-golay :  disabled
FFT :  disabled
Running average :  disabled
Kalman :  disabled
High pass :  disabled
---------------BEGIN--------------------
Wavelength(nm)             Reflectance(%)
200.29               0
200.75        95.19559
201.21        90.59515
201.67        84.51857
202.13         80.4306
202.58        78.90483
203.04        79.46692
203.50        80.75858
203.96        80.64194
204.42        78.86669
204.88        76.35024
205.34        74.52084
205.80        74.93216
206.26        78.40058
206.72         87.0887
207.18        104.3332
207.64        119.0134
208.10        108.2366
208.55        87.10747
209.01        74.07559
209.47        70.20741
209.93        71.76631
210.39        76.95049
210.85        83.18307
211.31        84.87046
211.77        80.28384
212.23        71.66833
212.69          63.346
213.14        61.94081
213.60        68.47944
214.06        80.91896
214.52        94.87145
214.98        103.6979
215.44        105.5535
215.90        102.5104
216.36        97.38847
216.81        93.96265
217.27        93.57881
217.73        95.04362
218.19          96.446
218.65        95.33284
219.11        90.82232
219.57        82.24919
220.02        71.72963
220.48        68.22817
220.94        75.71568
221.40        90.77433
221.86        102.8835
222.32        101.8179
222.77         89.8038
223.23        73.65764
223.69        60.11247
224.15        56.00272
224.61        60.56434
225.06        70.21949
225.52        80.65292
225.98        86.19722
226.44        85.70387
226.90         81.5164
227.36        76.20565
227.81        73.19685
228.27        73.62649
228.73        75.96835
229.19        79.13541
229.65        81.61673
230.10        82.87077
230.56        83.65765
231.02        84.19993
231.48        84.72726
231.93        85.28676
232.39        85.78989
232.85        86.25327
233.31        86.87733
233.77        87.62825
234.22         88.4651
234.68        89.05781
235.14        88.80272
235.60        87.60962
236.05        85.80625
236.51        83.74236
236.97        81.76629
237.43        79.89542
237.88        77.96425
238.34        76.10146
238.80        75.31911
239.26        76.09931
239.71        78.66997
240.17        81.48028
240.63        82.25436
241.08        80.52995
241.54        76.82601
242.00        72.94485
242.46        71.32922
242.91        73.32361
243.37        81.09272
243.83        105.3982
244.28        172.5825
244.74        224.2377
245.20        166.4677
245.66        127.8535
246.11        117.9559
246.57        123.6339
247.03        151.0343
247.48        238.3939
247.94        211.9987
248.40        122.5285
248.85        92.94096
249.31        83.52615
249.77         81.9883
250.22        84.70425
250.68        91.32236
251.14        101.1544
251.59        106.5385
252.05        100.8859
252.51        88.31654
252.96        76.21078
253.42        71.29988
253.88         72.8511
254.33        78.11442
254.79         85.4418
255.25        91.89389
255.70        96.20715
256.16        99.56657
256.62        101.3366
257.07        100.7747
257.53        98.75575
257.99        95.27002
258.44        91.58189
258.90        90.25424
259.35        90.25556
259.81        90.88828
260.27        90.42627
260.72        87.17831
261.18        82.11022
261.63        75.97929
262.09        70.44598
262.55        66.62502
263.00        64.43968
263.46        63.43891
263.91        62.76912
264.37        61.95908
264.83        60.74041
265.28        59.19205
265.74         57.6401
266.19        56.23382
266.65        55.23452
267.11        54.48511
267.56        53.76768
268.02        52.87139
268.47        51.67183
268.93        50.28572
269.38        48.86926
269.84        47.89963
270.30        47.49259
270.75        47.51843
271.21        47.70289
271.66        47.62608
272.12        47.17392
272.57        46.44743
273.03        45.66817
273.48        45.07209
273.94        44.75447
274.39        44.57158
274.85        44.39585
275.31        44.00502
275.76        43.34465
276.22        42.54843
276.67        41.70884
277.13        41.08524
277.58        40.65716
278.04        40.39336
278.49        40.12625
278.95        39.72828
279.40        39.12071
279.86        38.42863
280.31        37.67949
280.77        37.06084
281.22        36.55743
281.68        36.15889
282.13        35.79988
282.59        35.45964
283.04        35.09825
283.50        34.77065
283.95        34.42704
284.41        34.03415
284.86         33.5762
285.32        33.08065
285.77        32.61925
286.22        32.37848
286.68        32.35595
287.13        32.45687
287.59        32.51909
288.04        32.27202
288.50           31.71
288.95        30.91237
289.41         30.0663
289.86        29.32949
290.32        28.81576
290.77        28.44613
291.22        28.23422
291.68        28.15958
292.13        28.19419
292.59        28.34146
293.04        28.54374
293.50        28.71474
293.95        28.81681
294.40        28.84622
294.86        28.82454
295.31        28.79701
295.77        28.78733
296.22          28.792
296.68        28.79916
297.13        28.76205
297.58        28.69616
298.04        28.63772
298.49        28.65345
298.95        28.87719
299.40        29.30829
299.85        29.89157
300.31        30.50064
300.76        30.95187
301.21        31.18163
301.67        31.26394
302.12        31.23527
302.58        31.21131
303.03        31.20324
303.48        31.18844
303.94        31.20738
304.39        31.28655
304.84        31.43124
305.30        31.63298
305.75        31.79411
306.20        31.77536
306.66        31.57843
307.11        31.23691
307.57        30.88151
308.02        30.63148
308.47        30.54368
308.93        30.57595
309.38        30.66739
309.83        30.75367
310.29        30.79754
310.74        30.80692
311.19        30.78235
311.65        30.72228
312.10         30.6266
312.55        30.49657
313.00        30.31427
313.46        30.06551
313.91        29.75274
314.36        29.40444
314.82        29.10468
315.27        28.96253
315.72        28.99957
316.18        29.17852
316.63        29.40297
317.08        29.49083
317.53        29.39369
317.99        29.15337
318.44        28.87723
318.89        28.74089
319.35        28.77694
319.80        28.93356
320.25        29.09284
320.70        29.06337
321.16        28.80231
321.61        28.37796
322.06        27.90587
322.51        27.55816
322.97        27.37076
323.42        27.30077
323.87         27.2699
324.32        27.15041
324.78        26.90749
325.23        26.59385
325.68        26.26612
326.13        26.01472
326.59        25.86217
327.04        25.79529
327.49        25.77771
327.94        25.75573
328.39        25.71211
328.85        25.65386
329.30        25.62769
329.75        25.67241
330.20        25.79393
330.66        25.95288
331.11        26.12417
331.56        26.22685
332.01        26.23597
332.46        26.15833
332.92        26.02369
333.37        25.91975
333.82        25.86887
334.27        25.87457
334.72        25.88209
335.17        25.79671
335.63        25.60326
336.08        25.33333
336.53         25.1145
336.98        25.15284
337.43        25.47705
337.88        26.02337
338.34        26.56863
338.79        26.79435
339.24        26.60236
339.69        26.08745
340.14        25.49013
340.59        25.23462
341.05        25.42075
341.50        25.90584
341.95        26.47202
342.40        26.80261
342.85        26.81999
343.30        26.64169
343.75        26.34476
344.20        26.06281
344.66        25.85674
345.11        25.64553
345.56        25.48397
346.01        25.45726
346.46        25.55736
346.91        25.78459
347.36        25.96396
347.81        25.80687
348.26        25.28894
348.72        24.53482
349.17         23.7841
349.62        23.51321
350.07        23.82422
350.52        24.54701
350.97        25.41848
351.42        26.03679
351.87         26.2813
352.32        26.26614
352.77        26.07767
353.22        25.85796
353.67        25.66739
354.13        25.46161
354.58        25.24787
355.03        25.08435
355.48        24.98051
355.93        24.94777
356.38        24.93907
356.83        24.86135
357.28        24.69159
357.73        24.44751
358.18        24.18569
358.63        23.99681
359.08        23.90487
359.53        23.89424
359.98        23.89256
360.43        23.78821
360.88          23.563
361.33        23.24417
361.78         22.9486
362.23        22.86522
362.68        23.01504
363.13        23.32015
363.58        23.60793
364.03        23.61138
364.48        23.27995
364.93        22.71531
365.38        22.06776
365.83        21.57858
366.28        21.32829
366.73        21.24577
367.18        21.28884
367.63        21.38447
368.08        21.48549
368.53        21.60973
368.98        21.70859
369.43        21.69984
369.88        21.57384
370.33        21.35016
370.78        21.08081
371.23        20.86726
371.68        20.74487
372.13        20.68556
372.58        20.69311
373.03        20.76504
373.48        20.88301
373.93        21.04766
374.38        21.19074
374.83        21.20488
375.28        21.07528
375.72        20.82052
376.17        20.55006
376.62        20.40696
377.07        20.42715
377.52        20.55946
377.97        20.73181
378.42        20.82691
378.87        20.80658
379.32        20.70967
379.77        20.56153
380.22        20.39471
380.67         20.2258
381.11        20.04881
381.56        19.87024
382.01        19.71254
382.46        19.58475
382.91        19.48618
383.36        19.42055
383.81        19.38738
384.26        19.37885
384.71        19.38971
385.15        19.38667
385.60        19.33541
386.05        19.22269
386.50        19.05583
386.95        18.86884
387.40        18.72724
387.85        18.65469
388.29        18.63072
388.74        18.63219
389.19        18.59632
389.64         18.5107
390.09        18.38429
390.54        18.25887
390.98          18.202
391.43        18.23433
391.88        18.32515
392.33        18.40438
392.78        18.36935
393.23        18.21533
393.67        17.97704
394.12        17.76075
394.57        17.65427
395.02        17.67526
395.47        17.78442
395.91        17.93911
396.36        18.03723
396.81        18.04778
397.26        17.98856
397.71        17.88066
398.15        17.73838
398.60        17.60415
399.05        17.48403
399.50        17.37113
399.95         17.2057
400.39        17.06292
400.84        16.89489
401.29        16.77715
401.74        16.80855
402.18        17.01011
402.63        17.32319
403.08        17.64556
403.53        17.81326
403.97        17.78732
404.42        17.61507
404.87          17.373
405.32        17.19897
405.76        17.13649
406.21        17.14817
406.66        17.20218
407.11        17.25835
407.55        17.30573
408.00        17.35693
408.45        17.39588
408.90        17.37878
409.34        17.29897
409.79        17.16775
410.24        17.03841
410.68        16.98777
411.13         17.0337
411.58        17.16024
412.03        17.31385
412.47        17.40014
412.92        17.37988
413.37        17.28032
413.81        17.16661
414.26        17.15679
414.71        17.26188
415.15        17.44476
415.60        17.60968
416.05        17.62322
416.49        17.45871
416.94        17.17825
417.39        16.86237
417.83        16.64754
418.28        16.58486
418.73        16.61855
419.17         16.7251
419.62        16.86355
420.07        17.00797
420.51        17.17108
420.96        17.28829
421.41        17.24703
421.85         17.0355
422.30        16.71977
422.74        16.39838
423.19        16.24899
423.64        16.28891
424.08        16.47676
424.53        16.72894
424.98        16.92373
425.42        17.01853
425.87        17.03564
426.31        16.99368
426.76        16.97457
427.21        16.97019
427.65         16.8399
428.10        16.67583
428.54        16.73591
428.99        17.03798
429.44        17.47692
429.88        17.85552
430.33        17.92072
430.77        17.63379
431.22        17.08261
431.66         16.4971
432.11        16.29352
432.56        16.50994
433.00          16.926
433.45        17.33809
433.89        17.63706
434.34        17.68936
434.78         17.3341
435.23         16.8491
435.67        16.83336
436.12        17.23473
436.57        17.42124
437.01        17.31959
437.46         17.2598
437.90        17.27042
438.35        17.25602
438.79         17.2056
439.24        17.15162
439.68        17.10817
440.13        17.00003
440.57        16.88009
441.02        17.05897
441.46        17.40993
441.91        17.31134
442.35         16.8447
442.80        16.63961
443.24        16.67109
443.69        16.69607
444.13        16.65757
444.58        16.46572
445.02        16.19394
445.47        16.19511
445.91        16.41282
446.36        16.45964
446.80        16.30798
447.24        16.17976
447.69         16.1182
448.13        16.08168
448.58        16.08525
449.02        16.13674
449.47        16.19761
449.91        16.20402
450.36          16.147
450.80        16.04013
451.25        15.93927
451.69         15.9196
452.13         15.9975
452.58        16.13566
453.02        16.28205
453.47        16.35461
453.91        16.33734
454.36        16.26216
454.80        16.15809
455.24        16.07241
455.69        16.03274
456.13        16.01459
456.58        16.04073
457.02        16.12133
457.46        16.25793
457.91        16.43901
458.35        16.61695
458.79         16.7088
459.24        16.70809
459.68        16.62378
460.13        16.52378
460.57        16.47435
461.01        16.51064
461.46        16.60642
461.90        16.72395
462.34        16.79552
462.79        16.79936
463.23        16.74681
463.68        16.68957
464.12        16.71673
464.56          16.844
465.01        17.05113
465.45        17.21933
465.89        17.23747
466.34        17.10499
466.78        16.77147
467.22        16.40033
467.67        16.41767
468.11        16.78425
468.55        16.99013
468.99        16.97094
469.44        16.96627
469.88        17.02621
470.32         17.2126
470.77        17.45992
471.21        17.53432
471.65         17.4116
472.10        17.26714
472.54        17.16321
472.98        17.14398
473.42         17.2311
473.87        17.41542
474.31        17.62386
474.75        17.73554
475.20        17.72934
475.64        17.63508
476.08        17.51736
476.52        17.47466
476.97        17.53254
477.41        17.66204
477.85        17.81032
478.29        17.92757
478.74         17.9971
479.18        17.94583
479.62        17.81916
480.06        17.98872
480.50        18.09413
480.95        18.17799
481.39        18.10097
481.83        18.02954
482.27         17.9663
482.72         17.7503
483.16        17.48111
483.60        17.55156
484.04         17.9628
484.48        18.21793
484.93        18.51933
485.37        18.91988
485.81        19.22142
486.25        19.43637
486.69        25.25012
487.14        19.80021
487.58        13.35135
488.02        16.45681
488.46        18.68274
488.90        18.68662
489.34        18.59148
489.79        18.39641
490.23        19.36323
490.67        19.87389
491.11        19.68628
491.55        19.56698
491.99        19.47154
492.43        19.32373
492.88        19.18853
493.32         19.1985
493.76        19.23474
494.20        19.42713
494.64         19.7167
495.08        20.06207
495.52        20.40968
495.96        20.70677
496.41        20.87934
496.85        20.91607
497.29         20.8531
497.73        20.54743
498.17        20.26161
498.61        20.48304
499.05        21.18589
499.49        21.33068
499.93        21.41323
500.37        21.48059
500.82        21.49057
501.26        21.68111
501.70        21.94912
502.14        22.10519
502.58        22.11581
503.02        22.14062
503.46        22.18316
503.90        22.13658
504.34          22.039
504.78        22.00559
505.22         22.0543
505.66        22.15852
506.10        22.27823
506.54        22.34428
506.98        22.34073
507.42        22.29303
507.86        22.25116
508.30        22.29037
508.74        22.42385
509.18        22.62147
509.62        22.83438
510.06        22.98326
510.50        23.04784
510.94        23.05974
511.38        23.04534
511.82        23.04589
512.26        23.07656
512.70        23.11598
513.14        23.17716
513.58        23.28299
514.02        23.41978
514.46        23.57615
514.90        23.69815
515.34         23.6651
515.78        23.43646
516.22        23.20236
516.66        23.05161
517.10        22.69041
517.54        22.14565
517.98        22.96791
518.42         22.8354
518.86        23.19409
519.30        23.33102
519.74        23.47511
520.18        23.59369
520.62        23.60552
521.06        23.53317
521.50        23.38065
521.93        23.19849
522.37        23.08207
522.81        23.05577
523.25        23.09355
523.69        23.17499
524.13        23.26529
524.57        23.34425
525.01        23.41828
525.45        23.46312
525.89        23.43921
526.32        23.34181
526.76        23.18681
527.20         23.0082
527.64        22.87047
528.08        22.79628
528.52         22.7468
528.96        22.70669
529.40        22.71198
529.83        22.76488
530.27        22.62402
530.71        22.71309
531.15        22.63484
531.59         22.5221
532.03        22.37069
532.46        22.24001
532.90        22.22854
533.34        22.34258
533.78        22.54623
534.22        22.75582
534.66        22.84699
535.09        22.78868
535.53        22.63048
535.97        22.42678
536.41        22.26999
536.85        22.19372
537.28        22.17496
537.72        22.19812
538.16        22.23894
538.60        22.28682
539.04        22.33381
539.47        22.38485
539.91        22.50236
540.35        22.66079
540.79        22.75828
541.22        22.79276
541.66        22.85464
542.10        22.94427
542.54          23.002
542.97         23.0421
543.41        23.12667
543.85        23.25755
544.29        23.42986
544.72        23.59494
545.16        23.68503
545.60        23.68907
546.04        23.62564
546.47        23.57741
546.91        23.68547
547.35        23.96208
547.79        24.36467
548.22        24.77034
548.66         24.9666
549.10        24.92682
549.53        24.75592
549.97        24.57744
550.41        24.51923
550.84        24.62776
551.28        24.87487
551.72        25.20647
552.15        25.51965
552.59        25.76841
553.03        25.97568
553.46        26.13774
553.90        26.27199
554.34           26.39
554.77        26.45544
555.21        26.47182
555.65        26.52912
556.08           26.65
556.52        26.49423
556.96        26.68908
557.39        26.74236
557.83         26.8463
558.27        26.97108
558.70          27.121
559.14        27.28588
559.57        27.44432
560.01        27.60595
560.45        27.72957
560.88        27.75177
561.32        27.69108
561.75        27.55818
562.19         27.4282
562.63        27.37746
563.06        27.42153
563.50        27.54274
563.93        27.70815
564.37         27.8771
564.80        28.02149
565.24        28.16191
565.68        28.28273
566.11        28.36345
566.55        28.42363
566.98        28.45662
567.42        28.50343
567.85        28.62379
568.29        28.84338
568.72        29.06281
569.16        29.28959
569.60        29.60793
570.03        29.88008
570.47        29.84875
570.90        29.66878
571.34        29.18189
571.77        29.71538
572.21        29.79224
572.64        29.83373
573.08        29.62998
573.51        28.60943
573.95        29.89996
574.38        31.82369
574.82        30.88101
