SpectraSmart Spectrum 2.9.0.0
--------- Device Information -----------
Spectrum Name :  反射率_0
Saving Time :  2024/04/26 00:46:30
Spectro-Module Model Name : SE2030-DUVN
Spectro-Module Serial Number : OS361AC55029948
Wavelength Start : 200
Wavelength End : 1025
Wavelength Unit : Wavelength(nm)
Spectrum Unit : Reflectance(%)
-----------Spectrum Setting ------------
Integration Time : 20ms
Average : 10
Boxcar : 0
Background removal :  enabled
linearity correction :  enabled
SC :  disabled
Intensity correction :  disabled
DWT denoise :  enabled
savitzky-golay :  disabled
FFT :  disabled
Running average :  disabled
Kalman :  disabled
High pass :  disabled
---------------BEGIN--------------------
Wavelength(nm)             Reflectance(%)
200.29               0
200.75        84.55403
201.21        75.99222
201.67        67.58995
202.13        63.44965
202.58        63.81356
203.04        67.84831
203.50         73.3624
203.96        76.39823
204.42          75.967
204.88        73.49443
205.34        70.96515
205.80        70.44969
206.26        72.78513
206.72        79.55117
207.18        93.22291
207.64        104.3255
208.10        94.49879
208.55        76.54741
209.01        66.13061
209.47        64.32976
209.93        67.81184
210.39        75.22108
210.85        82.79443
211.31        82.30283
211.77        71.69295
212.23         54.4392
212.69        37.63525
213.14        32.04888
213.60        39.56356
214.06        56.97694
214.52        77.70223
214.98        91.35658
215.44        94.95855
215.90        91.81756
216.36        85.17734
216.81        79.52281
217.27        76.64066
217.73        74.95406
218.19        73.41141
218.65        70.65494
219.11        65.86138
219.57        58.64291
220.02        49.56419
220.48        43.41538
220.94        43.04275
221.40         47.7686
221.86        52.51839
222.32        51.79189
222.77        46.18489
223.23        38.75411
223.69         32.9018
224.15        32.18532
224.61        36.05334
225.06        42.68757
225.52        49.13676
225.98         51.7143
226.44        49.87656
226.90        45.31062
227.36        40.25726
227.81        37.74922
228.27        38.65562
228.73        41.57803
229.19        45.34365
229.65        48.22309
230.10        49.62465
230.56        50.21842
231.02         50.1698
231.48        49.58398
231.93        48.61319
232.39        47.24266
232.85        45.82994
233.31        45.04289
233.77         44.9905
234.22        45.50958
234.68        46.22854
235.14        46.30652
235.60        45.53219
236.05        44.28979
236.51        42.91106
236.97        41.76151
237.43        40.98274
237.88        40.48149
238.34        40.55626
238.80        41.99305
239.26        44.97064
239.71        49.34997
240.17        54.01595
240.63        57.46417
241.08        59.29626
241.54        59.72014
242.00        59.48855
242.46         59.8921
242.91        61.89069
243.37         66.5503
243.83        81.63699
244.28         135.562
244.74         206.195
245.20        179.8914
245.66        149.0595
246.11        138.5818
246.57         139.027
247.03        149.3688
247.48        175.0665
247.94        130.8748
248.40        95.28764
248.85        88.01612
249.31        87.57319
249.77        89.37697
250.22        92.85793
250.68        98.81651
251.14        106.5709
251.59        109.2634
252.05        101.6269
252.51        87.76688
252.96        74.46797
253.42        67.47363
253.88        65.87661
254.33        67.48148
254.79        71.54207
255.25        76.32531
255.70        80.45943
256.16        84.13657
256.62        85.82401
257.07        83.93893
257.53        79.45599
257.99        73.08648
258.44         66.7449
258.90        63.54522
259.35        62.71192
259.81         63.0935
260.27        62.83193
260.72        60.13757
261.18        55.67576
261.63        50.22992
262.09        45.32447
262.55         42.0913
263.00        40.46459
263.46        39.91192
263.91         39.5443
264.37         38.6499
264.83        37.07668
265.28        35.00846
265.74        33.04343
266.19        31.84918
266.65        31.60144
267.11        31.89975
267.56        32.19014
268.02        31.80886
268.47        30.65496
268.93        28.96927
269.38        27.09769
269.84        25.85965
270.30        25.47362
270.75        25.70298
271.21        26.13461
271.66        26.15478
272.12        25.59703
272.57        24.67245
273.03         23.6786
273.48        22.98061
273.94        22.69403
274.39        22.64588
274.85        22.66539
275.31        22.51136
275.76        22.11833
276.22        21.60331
276.67        21.05525
277.13        20.67265
277.58        20.45083
278.04        20.33569
278.49        20.21319
278.95        19.97115
279.40        19.56746
279.86        19.09992
280.31        18.59263
280.77        18.17652
281.22        17.85023
281.68        17.59517
282.13        17.40503
282.59        17.29144
283.04        17.24087
283.50        17.27453
283.95        17.30915
284.41        17.22595
284.86        17.00742
285.32        16.69584
285.77        16.42491
286.22        16.45119
286.68        16.77991
287.13        17.29712
287.59        17.78138
288.04        17.90682
288.50        17.63543
288.95        17.07347
289.41        16.42942
289.86        15.92019
290.32        15.66208
290.77        15.57859
291.22         15.6423
291.68        15.77494
292.13        15.95381
292.59         16.2032
293.04        16.53864
293.50        16.97605
293.95        17.49353
294.40        18.04277
294.86        18.55641
295.31        18.95299
295.77        19.22272
296.22        19.39913
296.68        19.53081
297.13        19.66925
297.58        19.85925
298.04        20.10612
298.49        20.43719
298.95         20.9248
299.40        21.55736
299.85        22.30022
300.31        23.06762
300.76        23.73498
301.21        24.24679
301.67          24.654
302.12        24.94619
302.58        25.16018
303.03        25.30947
303.48        25.40294
303.94        25.54676
304.39        25.87127
304.84        26.39453
305.30        27.06307
305.75         27.7202
306.20        28.12935
306.66        28.25955
307.11        28.17519
307.57        28.02104
308.02        27.94688
308.47        28.02583
308.93        28.20615
309.38        28.44993
309.83         28.7289
310.29        29.00469
310.74        29.27176
311.19        29.49532
311.65        29.61764
312.10        29.62749
312.55        29.54676
313.00        29.37447
313.46        29.12454
313.91        28.81619
314.36        28.47371
314.82        28.19612
315.27        28.11725
315.72         28.2565
316.18        28.56323
316.63        28.91639
317.08        29.09028
317.53        29.02062
317.99        28.76234
318.44         28.4194
318.89        28.16413
319.35         28.0394
319.80        27.99829
320.25        27.96799
320.70        27.83372
321.16        27.56999
321.61        27.22476
322.06        26.86073
322.51        26.56257
322.97        26.34286
323.42        26.18163
323.87        26.02862
324.32        25.80925
324.78         25.5061
325.23        25.14765
325.68        24.78306
326.13        24.49269
326.59        24.29114
327.04        24.17335
327.49        24.08306
327.94        23.92895
328.39        23.69116
328.85        23.38898
329.30        23.11362
329.75        22.98741
330.20        23.03971
330.66        23.21041
331.11        23.42894
331.56        23.53655
332.01        23.48431
332.46        23.30183
332.92        23.04036
333.37        22.82409
333.82        22.69299
334.27        22.62782
334.72        22.58152
335.17        22.47565
335.63        22.28963
336.08        22.05307
336.53        21.84296
336.98        21.77938
337.43        21.88006
337.88        22.10994
338.34        22.32265
338.79        22.32586
339.24        22.05791
339.69        21.57834
340.14        21.07197
340.59        20.86231
341.05        21.01042
341.50        21.40254
341.95        21.84299
342.40        22.04406
342.85         21.9382
343.30        21.63254
343.75        21.20165
344.20        20.78369
344.66        20.44669
345.11        20.11653
345.56        19.86712
346.01        19.80636
346.46        19.92241
346.91        20.20238
347.36        20.43445
347.81        20.27263
348.26        19.68155
348.72        18.80642
349.17        17.91636
349.62        17.54102
350.07        17.80146
350.52        18.51108
350.97        19.40236
351.42        20.06547
351.87        20.37002
352.32        20.43091
352.77        20.31023
353.22        20.11127
353.67        19.88636
354.13        19.59797
354.58        19.28374
355.03        19.05125
355.48        18.92363
355.93         18.9031
356.38        18.91679
356.83         18.8277
357.28        18.60679
357.73        18.29048
358.18        17.96742
358.63        17.77817
359.08        17.75237
359.53         17.8472
359.98        17.96157
360.43        17.94034
360.88        17.75262
361.33        17.44598
361.78        17.13161
362.23        16.99008
362.68        17.05148
363.13        17.23856
363.58        17.43121
364.03        17.44632
364.48        17.24035
364.93        16.88566
365.38        16.45026
365.83        16.03967
366.28        15.70453
366.73        15.41977
367.18        15.21472
367.63        15.13752
368.08        15.18065
368.53        15.32335
368.98        15.49331
369.43         15.5705
369.88        15.52629
370.33        15.39655
370.78        15.20861
371.23        15.01911
371.68        14.85604
372.13         14.6947
372.58        14.58473
373.03        14.60892
373.48        14.76718
373.93        15.03377
374.38        15.28663
374.83        15.33344
375.28         15.1411
375.72        14.75886
376.17        14.33649
376.62        14.08104
377.07        14.05071
377.52         14.1746
377.97        14.36904
378.42        14.49769
378.87        14.51273
379.32        14.46137
379.77        14.36061
380.22        14.22846
380.67        14.08152
381.11        13.91507
381.56        13.74939
382.01         13.6337
382.46         13.5778
382.91         13.5651
383.36        13.58592
383.81        13.61591
384.26        13.64333
384.71         13.6825
385.15        13.69033
385.60        13.61273
386.05        13.44228
386.50        13.18159
386.95        12.93181
387.40        12.86787
387.85        13.01437
388.29        13.30733
388.74        13.58584
389.19        13.62941
389.64        13.41489
390.09         13.0064
390.54        12.57322
390.98        12.40254
391.43        12.56566
391.88        12.95099
392.33        13.36299
392.78        13.51542
393.23         13.3643
393.67        13.01628
394.12        12.64487
394.57        12.43867
395.02        12.44225
395.47        12.58738
395.91        12.80159
396.36        12.94174
396.81        12.95818
397.26        12.88275
397.71        12.76673
398.15         12.6689
398.60        12.62662
399.05          12.626
399.50        12.61032
399.95         12.4661
400.39        12.24168
400.84        11.92748
401.29        11.65281
401.74        11.62428
402.18        11.89317
402.63        12.37058
403.08        12.88724
403.53        13.17609
403.97        13.16934
404.42        12.94262
404.87        12.61419
405.32        12.39459
405.76        12.34881
406.21        12.41025
406.66        12.51453
407.11        12.57475
407.55        12.56983
408.00        12.53458
408.45        12.47972
408.90        12.41116
409.34        12.34026
409.79        12.25918
410.24         12.1993
410.68        12.20951
411.13        12.29672
411.58         12.4533
412.03        12.62428
412.47        12.71057
412.92        12.67691
413.37        12.54965
413.81        12.40269
414.26        12.36627
414.71         12.4577
415.15        12.64058
415.60        12.81775
416.05        12.85227
416.49        12.71333
416.94        12.46066
417.39        12.17636
417.83        11.99945
418.28        11.97901
418.73        12.05954
419.17        12.19921
419.62        12.32705
420.07        12.41881
420.51         12.4968
420.96        12.53771
421.41        12.49693
421.85         12.3725
422.30        12.19596
422.74         12.0186
423.19        11.94544
423.64        11.98212
424.08        12.10761
424.53        12.26154
424.98        12.36016
425.42         12.3783
425.87        12.33347
426.31        12.24812
426.76        12.19697
427.21        12.17756
427.65        12.08875
428.10        11.99343
428.54          12.065
428.99        12.31097
429.44        12.65548
429.88        12.95975
430.33        13.04354
430.77        12.87844
431.22        12.52328
431.66        12.13635
432.11        12.00956
432.56        12.16942
433.00         12.4653
433.45        12.75631
433.89        12.96666
434.34        13.00902
434.78        12.79099
435.23        12.49584
435.67        12.50657
436.12        12.78117
436.57        12.88212
437.01        12.75578
437.46        12.63736
437.90        12.55455
438.35        12.44228
438.79        12.32291
439.24        12.26661
439.68        12.28663
440.13        12.31201
440.57        12.33414
441.02         12.5036
441.46        12.71035
441.91         12.5264
442.35        12.05889
442.80        11.82568
443.24        11.81503
443.69         11.8344
444.13        11.82438
444.58        11.69467
445.02        11.48642
445.47        11.46368
445.91        11.58479
446.36        11.57244
446.80        11.41158
447.24        11.25947
447.69        11.16178
448.13        11.11277
448.58        11.12845
449.02        11.20675
449.47        11.30461
449.91        11.34965
450.36        11.32693
450.80        11.25067
451.25        11.17002
451.69        11.15321
452.13        11.21555
452.58        11.32119
453.02        11.42828
453.47         11.4662
453.91         11.4244
454.36        11.33436
454.80        11.22019
455.24        11.12278
455.69         11.0665
456.13        11.02964
456.58         11.0402
457.02        11.12257
457.46        11.27644
457.91        11.48683
458.35        11.69059
458.79        11.77741
459.24        11.73681
459.68        11.58943
460.13        11.42716
460.57         11.3604
461.01        11.42765
461.46        11.58473
461.90        11.76792
462.34        11.86362
462.79        11.84321
463.23        11.73746
463.68         11.6131
464.12        11.58043
464.56        11.66988
465.01        11.84641
465.45         12.0183
465.89        12.09473
466.34        12.06767
466.78        11.90547
467.22        11.70905
467.67        11.75915
468.11        12.02324
468.55        12.13973
468.99        12.08252
469.44        12.05743
469.88        12.10916
470.32        12.27236
470.77        12.48485
471.21        12.55513
471.65        12.45817
472.10        12.33253
472.54        12.23082
472.98        12.20145
473.42        12.26584
473.87        12.41028
474.31        12.58263
474.75        12.69358
475.20        12.72533
475.64        12.69884
476.08        12.65574
476.52        12.65997
476.97        12.72819
477.41        12.84263
477.85        12.96675
478.29         13.0681
478.74        13.13661
479.18        13.11652
479.62        13.04434
480.06        13.19881
480.50        13.31501
480.95        13.42097
481.39         13.4052
481.83        13.37494
482.27        13.33414
482.72        13.17742
483.16        12.97811
483.60        13.04143
484.04          13.392
484.48        13.58861
484.93        13.77289
485.37        14.22271
485.81        14.83937
486.25        14.73978
486.69        19.41962
487.14        15.39373
487.58        10.28467
488.02        12.55293
488.46        14.29583
488.90        14.30731
489.34        14.29325
489.79        14.24572
490.23        15.11701
490.67        15.60021
491.11        15.49412
491.55        15.43619
491.99        15.39419
492.43        15.28727
492.88        15.17363
493.32        15.17686
493.76        15.21333
494.20         15.3909
494.64         15.6675
495.08        16.00957
495.52        16.37488
495.96        16.72133
496.41        16.98408
496.85        17.14837
497.29        17.22378
497.73        17.06242
498.17        16.87449
498.61        17.07502
499.05        17.65778
499.49        17.78223
499.93        17.87214
500.37        17.96147
500.82        18.01045
501.26        18.21305
501.70         18.4798
502.14        18.65232
502.58        18.70286
503.02        18.76655
503.46        18.84451
503.90        18.84468
504.34        18.79039
504.78        18.76384
505.22        18.77716
505.66        18.83052
506.10        18.91194
506.54        18.95181
506.98        18.93493
507.42        19.06123
507.86        19.04001
508.30        19.18194
508.74        19.39211
509.18        19.65104
509.62        19.90233
510.06        20.06171
510.50        20.11219
510.94        20.08525
511.38        20.01582
511.82        19.95907
512.26        19.93892
512.70        19.93708
513.14        19.97444
513.58        20.08431
514.02        20.25172
514.46        20.45673
514.90        20.63727
515.34        20.65836
515.78        20.47142
516.22        20.27605
516.66        20.14585
517.10        19.74806
517.54        19.11003
517.98        19.85429
518.42        19.60947
518.86        19.94518
519.30         20.1321
519.74         20.3907
520.18        20.64307
520.62         20.7329
521.06        20.66365
521.50        20.45746
521.93        20.20158
522.37         20.0534
522.81        20.05261
523.25        20.15259
523.69        20.29875
524.13        20.40506
524.57         20.4416
525.01        20.43503
525.45         20.3937
525.89        20.32896
526.32        20.24784
526.76         20.1455
527.20        20.02926
527.64        19.92265
528.08        19.83472
528.52        19.74289
528.96        19.64259
529.40        19.57685
529.83        19.55568
530.27        19.37293
530.71        19.39331
531.15        19.27837
531.59        19.14319
532.03        18.98353
532.46        18.86034
532.90        18.87428
533.34        19.02741
533.78        19.27922
534.22        19.52896
534.66        19.62807
535.09        19.54288
535.53        19.32913
535.97        19.06221
536.41        18.86796
536.85        18.78812
537.28        18.79016
537.72        18.84288
538.16        18.89498
538.60        18.92872
539.04        18.94877
539.47        18.97109
539.91        19.06386
540.35        19.21069
540.79        19.32071
541.22        19.38472
541.66        19.46866
542.10        19.57046
542.54        19.64143
542.97        19.70445
543.41        19.82899
543.85          20.018
544.29        20.26251
544.72        20.50037
545.16        20.64102
545.60        20.66906
546.04        20.61325
546.47          20.572
546.91        20.69858
547.35        21.01681
547.79        21.50376
548.22        22.01101
548.66        22.26239
549.10        22.22271
549.53        22.02235
549.97        21.81472
550.41        21.76585
550.84        21.91992
551.28        22.26785
551.72         22.7387
552.15        23.08198
552.59        23.21434
553.03        23.65017
553.46        23.59035
553.90         23.7286
554.34        23.84684
554.77        23.92458
555.21        23.95784
555.65        24.03241
556.08        24.17394
556.52        24.06603
556.96        24.28017
557.39        24.37056
557.83        24.50916
558.27        24.66578
558.70        24.83484
559.14        24.99214
559.57        25.11795
560.01        25.22959
560.45        25.30287
560.88        25.30086
561.32        25.24718
561.75        25.14392
562.19        25.05715
562.63        25.05411
563.06        25.14468
563.50        25.30667
563.93        25.49807
564.37        25.67736
564.80        25.80911
565.24        25.88553
565.68        25.92012
566.11        25.96451
566.55        26.04777
566.98        26.13801
567.42        26.25107
567.85        26.41283
568.29        26.63744
568.72        26.84422
569.16        27.07166
569.60        27.40847
570.03        27.72289
570.47        27.83088
570.90        27.85798
571.34        27.28612
571.77        27.90721
572.21        27.92903
572.64        27.91844
573.08         27.6827
573.51        26.85836
573.95        28.05294
574.38        29.68636
574.82        29.30211
