SpectraSmart Spectrum 2.9.0.0
--------- Device Information -----------
Spectrum Name :  反射率_0
Saving Time :  2024/04/25 23:50:39
Spectro-Module Model Name : SE2030-DUVN
Spectro-Module Serial Number : OS361AC55029948
Wavelength Start : 200
Wavelength End : 1025
Wavelength Unit : Wavelength(nm)
Spectrum Unit : Reflectance(%)
-----------Spectrum Setting ------------
Integration Time : 20ms
Average : 10
Boxcar : 0
Background removal :  enabled
linearity correction :  enabled
SC :  disabled
Intensity correction :  disabled
DWT denoise :  enabled
savitzky-golay :  disabled
FFT :  disabled
Running average :  disabled
Kalman :  disabled
High pass :  disabled
---------------BEGIN--------------------
Wavelength(nm)             Reflectance(%)
200.29               0
200.75        81.40621
201.21        74.97923
201.67        67.38461
202.13          62.587
202.58        61.13319
203.04        62.29022
203.50        65.01054
203.96        67.37182
204.42        68.51611
204.88        68.85811
205.34        68.99383
205.80        69.65768
206.26        71.27084
206.72        74.61279
207.18        79.67281
207.64         78.9296
208.10        66.89185
208.55        55.43768
209.01        50.51516
209.47        50.78408
209.93        54.24907
210.39        60.52347
210.85         67.7518
211.31        71.22491
211.77        69.17586
212.23        63.18863
212.69        56.62233
213.14        54.85411
213.60        58.72954
214.06        66.75081
214.52        75.76828
214.98        81.00423
215.44        81.20224
215.90        77.93209
216.36        73.47425
216.81         70.8327
217.27        70.94807
217.73        72.77306
218.19         74.3963
218.65        73.33701
219.11        68.71415
219.57        59.82611
220.02        48.43125
220.48        43.30478
220.94        48.65884
221.40        61.60535
221.86         72.7194
222.32        72.59663
222.77        62.93736
223.23        49.58218
223.69        38.35032
224.15        35.10588
224.61        39.20033
225.06        47.60585
225.52        56.47006
225.98        60.88023
226.44        59.87766
226.90         55.5366
227.36        50.25533
227.81         47.2364
228.27        47.48682
228.73        49.57749
229.19        52.38956
229.65        54.36145
230.10        55.02546
230.56        55.08807
231.02        54.87833
231.48        54.67836
231.93        54.57118
232.39        54.45467
232.85        54.32196
233.31        54.28755
233.77        54.33706
234.22        54.42044
234.68        54.51523
235.14         54.5018
235.60        54.35362
236.05        54.18478
236.51        53.85753
236.97        53.09252
237.43        51.81582
237.88         49.9724
238.34        48.00086
238.80        47.44219
239.26        49.02111
239.71        52.60769
240.17        56.67224
240.63        58.84626
241.08        58.51529
241.54        56.27536
242.00        53.36595
242.46        51.36154
242.91        50.77842
243.37        51.40657
243.83        56.35069
244.28        80.23984
244.74        120.5594
245.20        116.3297
245.66        103.5962
246.11        99.20708
246.57        100.0977
247.03        105.9119
247.48        119.6756
247.94         98.3059
248.40        79.81499
248.85        75.85691
249.31        75.65336
249.77        76.85583
250.22        79.18768
250.68        83.13717
251.14        88.31046
251.59        90.19474
252.05        85.48287
252.51        76.93204
252.96        68.74242
253.42        64.78491
253.88        64.39754
254.33        65.96946
254.79        69.37553
255.25        73.76961
255.70        78.04303
256.16        82.17304
256.62        84.45654
257.07        83.15013
257.53        79.23102
257.99        73.47192
258.44         67.8782
258.90        65.63026
259.35        65.79881
259.81        67.08379
260.27        67.47427
260.72        65.05686
261.18        60.59697
261.63        54.98909
262.09        49.86333
262.55        46.43257
263.00        44.65372
263.46         43.9873
263.91        43.55603
264.37        42.69594
264.83        41.23384
265.28        39.34186
265.74        37.55047
266.19        36.39709
266.65         36.0659
267.11        36.20678
267.56        36.35686
268.02        35.97985
268.47        34.97276
268.93        33.53854
269.38        31.95213
269.84        30.89579
270.30        30.54933
270.75        30.72755
271.21        31.07144
271.66        31.05093
272.12        30.52138
272.57        29.63998
273.03        28.71452
273.48        28.12202
273.94        27.96725
274.39        28.08017
274.85        28.19962
275.31        27.93591
275.76        27.22644
276.22        26.26068
276.67        25.29525
277.13         24.7857
277.58        24.75013
278.04        25.03458
278.49        25.35298
278.95        25.36983
279.40        24.98993
279.86        24.39415
280.31        23.68947
280.77        23.14429
281.22        22.78659
281.68        22.55363
282.13        22.39242
282.59        22.26698
283.04        22.14735
283.50        22.08711
283.95         22.0195
284.41        21.85378
284.86        21.57524
285.32        21.21371
285.77         20.8907
286.22        20.85486
286.68        21.10649
287.13        21.53102
287.59        21.90618
288.04        21.89459
288.50        21.46751
288.95        20.74092
289.41        19.93692
289.86        19.28437
290.32        18.90833
290.77         18.7236
291.22        18.71723
291.68        18.83036
292.13        19.03491
292.59        19.34822
293.04        19.74292
293.50        20.17004
293.95        20.59577
294.40        20.99108
294.86        21.34179
295.31        21.64877
295.77        21.92055
296.22        22.16566
296.68        22.38372
297.13         22.5466
297.58        22.67827
298.04        22.81015
298.49        23.01296
298.95        23.42505
299.40        24.05192
299.85        24.84163
300.31        25.66975
300.76        26.35183
301.21        26.81843
301.67        27.13692
302.12        27.34123
302.58        27.53789
303.03        27.74294
303.48        27.93788
303.94        28.16441
304.39         28.4537
304.84        28.81221
305.30        29.22872
305.75        29.61543
306.20        29.84432
306.66        29.91171
307.11        29.84264
307.57        29.74212
308.02        29.69741
308.47        29.76029
308.93        29.89828
309.38        30.07437
309.83         30.2608
310.29        30.42847
310.74        30.57492
311.19        30.68049
311.65        30.71331
312.10        30.66732
312.55        30.55436
313.00        30.37635
313.46        30.14929
313.91        29.88368
314.36        29.60033
314.82        29.36234
315.27        29.24764
315.72        29.27195
316.18        29.40578
316.63        29.57952
317.08        29.65486
317.53        29.59055
317.99        29.41307
318.44        29.19171
318.89        29.04198
319.35        28.98483
319.80        28.99028
320.25        28.98027
320.70        28.83167
321.16        28.52427
321.61        28.10679
322.06        27.66975
322.51        27.34548
322.97        27.15434
323.42        27.06241
323.87        26.99573
324.32        26.83368
324.78        26.54508
325.23        26.17946
325.68        25.78846
326.13        25.45692
326.59        25.20936
327.04        25.03727
327.49        24.92261
327.94        24.84025
328.39        24.77684
328.85        24.72826
329.30        24.71703
329.75        24.74093
330.20        24.79482
330.66        24.85644
331.11        24.90963
331.56        24.88785
332.01        24.77436
332.46        24.56806
332.92         24.3249
333.37        24.17703
333.82         24.1553
334.27        24.25175
334.72        24.35617
335.17        24.27611
335.63        23.97224
336.08         23.5048
336.53        23.05735
336.98        22.92673
337.43        23.16886
337.88        23.69409
338.34        24.25239
338.79        24.47901
339.24        24.25686
339.69         23.6921
340.14        23.03231
340.59        22.71248
341.05        22.83756
341.50          23.263
341.95        23.76033
342.40        23.99681
342.85        23.89484
343.30        23.58005
343.75         23.1604
344.20        22.82183
344.66        22.63508
345.11        22.49882
345.56        22.42814
346.01        22.44838
346.46          22.534
346.91        22.70032
347.36        22.79109
347.81        22.54808
348.26         21.9589
348.72        21.14238
349.17        20.33236
349.62        19.99864
350.07        20.24378
350.52        20.90265
350.97        21.72656
351.42        22.33206
351.87        22.59782
352.32        22.62921
352.77        22.48373
353.22        22.25952
353.67        22.00868
354.13         21.7006
354.58        21.37729
355.03        21.15037
355.48        21.04549
355.93        21.06428
356.38        21.13139
356.83        21.10703
357.28         20.9573
357.73        20.71113
358.18         20.4572
358.63        20.33815
359.08         20.3788
359.53        20.53243
359.98        20.67779
360.43        20.63056
360.88        20.35809
361.33        19.91996
361.78        19.46214
362.23        19.22049
362.68        19.24204
363.13        19.44046
363.58        19.66685
364.03        19.68903
364.48        19.45303
364.93        19.04658
365.38         18.5677
365.83        18.17028
366.28        17.91191
366.73        17.74366
367.18        17.65881
367.63        17.64963
368.08        17.69179
368.53        17.78286
368.98        17.86942
369.43        17.86068
369.88        17.74058
370.33        17.53804
370.78        17.28714
371.23        17.05478
371.68         16.8721
372.13        16.71891
372.58        16.63235
373.03        16.67014
373.48        16.82499
373.93        17.07231
374.38        17.30783
374.83        17.36996
375.28        17.22692
375.72        16.91411
376.17        16.55023
376.62        16.29267
377.07        16.19256
377.52        16.20347
377.97        16.27353
378.42        16.31674
378.87        16.30189
379.32        16.25808
379.77        16.19905
380.22        16.13849
380.67        16.08225
381.11        16.02367
381.56        15.95035
382.01        15.85678
382.46        15.74269
382.91        15.60667
383.36        15.47651
383.81        15.39429
384.26        15.36417
384.71        15.37697
385.15        15.37077
385.60        15.26024
386.05        15.02955
386.50          14.705
386.95        14.37638
387.40        14.20144
387.85        14.21848
388.29         14.3708
388.74        14.55797
389.19        14.63602
389.64        14.58098
390.09        14.42919
390.54        14.26358
390.98        14.22035
391.43        14.33528
391.88        14.54858
392.33        14.75432
392.78        14.80098
393.23        14.67199
393.67         14.4218
394.12        14.17432
394.57        14.04905
395.02        14.07218
395.47        14.20002
395.91        14.37279
396.36        14.46378
396.81        14.43703
397.26        14.32138
397.71        14.17093
398.15        14.05025
398.60        13.99876
399.05        13.99882
399.50        14.00027
399.95        13.89416
400.39        13.73175
400.84        13.49511
401.29        13.28536
401.74        13.25646
402.18        13.44847
402.63         13.7877
403.08        14.15237
403.53        14.34843
403.97        14.32643
404.42         14.1454
404.87         13.8875
405.32        13.69825
405.76        13.62768
406.21        13.63566
406.66        13.68958
407.11        13.74842
407.55        13.80052
408.00        13.85891
408.45        13.91733
408.90        13.94814
409.34        13.94174
409.79        13.89816
410.24        13.84183
410.68        13.81205
411.13        13.82098
411.58         13.8643
412.03        13.91675
412.47        13.93521
412.92        13.90214
413.37        13.83338
413.81        13.77274
414.26        13.80135
414.71        13.92152
415.15        14.10676
415.60        14.27845
416.05         14.3305
416.49        14.23869
416.94         14.0512
417.39        13.82479
417.83        13.65854
418.28          13.595
418.73        13.59517
419.17        13.65303
419.62        13.75027
420.07        13.87156
420.51        14.02166
420.96        14.14603
421.41        14.14679
421.85        14.00755
422.30         13.7821
422.74        13.54241
423.19        13.42351
423.64        13.43891
424.08        13.55871
424.53        13.72144
424.98        13.84444
425.42        13.90064
425.87        13.90631
426.31        13.87506
426.76        13.87164
427.21        13.88661
427.65         13.8055
428.10        13.70091
428.54        13.77655
428.99         14.0449
429.44        14.42146
429.88        14.74614
430.33        14.81235
430.77        14.59089
431.22         14.1531
431.66        13.69218
432.11        13.55734
432.56        13.78015
433.00        14.18236
433.45        14.58536
433.89        14.86269
434.34        14.90117
434.78        14.61071
435.23        14.21419
435.67        14.16333
436.12        14.41525
436.57         14.4735
437.01        14.29895
437.46        14.18687
437.90        14.17202
438.35        14.16962
438.79        14.17449
439.24        14.21913
439.68        14.30506
440.13        14.35858
440.57        14.38362
441.02          14.583
441.46        14.83692
441.91        14.63701
442.35        14.10172
442.80        13.82547
443.24        13.79656
443.69         13.7972
444.13        13.76788
444.58        13.61437
445.02        13.38781
445.47        13.38931
445.91        13.56807
446.36        13.59487
446.80        13.44714
447.24        13.30959
447.69        13.22629
448.13          13.178
448.58         13.1801
449.02        13.23099
449.47         13.2964
449.91        13.31829
450.36        13.28644
450.80        13.21662
451.25        13.14228
451.69        13.10467
452.13        13.11806
452.58        13.15585
453.02        13.20907
453.47         13.2594
453.91        13.30167
454.36         13.3473
454.80        13.37526
455.24        13.34913
455.69        13.27555
456.13        13.16067
456.58        13.07097
457.02        13.08547
457.46        13.22034
457.91        13.43981
458.35        13.67511
458.79        13.80899
459.24        13.82222
459.68        13.73779
460.13        13.62582
460.57        13.55788
461.01        13.57158
461.46        13.63758
461.90         13.7252
462.34        13.77585
462.79         13.7729
463.23        13.72951
463.68         13.6924
464.12         13.7362
464.56        13.87309
465.01         14.0797
465.45        14.25528
465.89         14.3049
466.34        14.22596
466.78        13.97646
467.22         13.6855
467.67        13.69849
468.11         13.9815
468.55        14.11368
468.99        14.05562
469.44        14.02744
469.88        14.07611
470.32        14.24701
470.77        14.47751
471.21        14.56023
471.65        14.46891
472.10        14.35514
472.54         14.2699
472.98        14.25133
473.42        14.31996
473.87        14.46732
474.31        14.63891
474.75        14.74271
475.20        14.76166
475.64        14.71577
476.08        14.65387
476.52        14.65046
476.97        14.72378
477.41        14.85364
477.85        14.99105
478.29        15.08697
478.74        15.12882
479.18         15.0569
479.62        14.92484
480.06        15.06932
480.50        15.18937
480.95        15.30887
481.39        15.29325
481.83         15.2524
482.27        15.18958
482.72        14.99535
483.16         14.7512
483.60        14.79373
484.04        15.12974
484.48        15.29769
484.93        15.51347
485.37        16.00632
485.81        16.58654
486.25        17.01063
486.69        22.01399
487.14        17.46539
487.58         11.4888
488.02        14.29318
488.46        16.29134
488.90        16.37266
489.34        16.23862
489.79           16.11
490.23        17.09856
490.67        17.68447
491.11        17.61407
491.55        17.49048
491.99        17.29397
492.43        17.09566
492.88        16.97411
493.32        16.96409
493.76        16.97074
494.20        17.16558
494.64        17.49898
495.08        17.91557
495.52        18.34991
495.96        18.72723
496.41        18.97016
496.85        19.07433
497.29        19.07016
497.73        18.82479
498.17        18.58179
498.61         18.7895
499.05         19.4381
499.49        19.59773
499.93        19.72769
500.37        19.86387
500.82        19.95176
501.26        20.18867
501.70        20.47306
502.14        20.63562
502.58         20.6512
503.02        20.67953
503.46        20.72868
503.90        20.69587
504.34        20.61885
504.78        20.60876
505.22        20.68378
505.66        20.82119
506.10         20.9787
506.54        21.08216
506.98        21.11223
507.42        21.08997
507.86        21.07041
508.30        21.13879
508.74         21.3083
509.18        21.54668
509.62        21.78684
510.06        21.91957
510.50        21.92294
510.94        21.84256
511.38        21.73745
511.82         21.6993
512.26        21.75517
512.70        21.86843
513.14        22.02615
513.58         22.2067
514.02        22.37993
514.46        22.54471
514.90         22.6566
515.34        22.61098
515.78        22.37244
516.22        22.12623
516.66        21.95974
517.10        21.57227
517.54        20.99228
517.98        21.80101
518.42        21.64509
518.86        21.99422
519.30        22.12616
519.74        22.27149
520.18        22.40238
520.62        22.44509
521.06        22.42042
521.50        22.32632
521.93        22.19659
522.37        22.10066
522.81        22.05704
523.25        22.04793
523.69        22.06889
524.13        22.11032
524.57        22.15993
525.01        22.21855
525.45         22.2562
525.89        22.22328
526.32        22.11198
526.76        21.94249
527.20        21.75165
527.64        21.60685
528.08        21.53106
528.52        21.48483
528.96        21.45008
529.40        21.45566
529.83        21.50303
530.27        21.36659
530.71        21.44929
531.15        21.38019
531.59        21.28501
532.03        21.15598
532.46        21.04815
532.90        21.05371
533.34        21.17581
533.78        21.38021
534.22        21.58061
534.66        21.64894
535.09         21.5556
535.53        21.35161
535.97        21.10113
536.41        20.91195
536.85        20.82064
537.28        20.80017
537.72        20.82572
538.16        20.85655
538.60        20.87963
539.04        20.89678
539.47        20.92055
539.91        21.01978
540.35        21.17475
540.79        21.28622
541.22        21.35404
541.66        21.46591
542.10        21.61967
542.54         21.7559
542.97        21.87702
543.41        22.02512
543.85        22.19799
544.29        22.39545
544.72        22.57856
545.16        22.69602
545.60        22.74126
546.04        22.72706
546.47        22.73115
546.91         22.8867
547.35        23.20277
547.79        23.63955
548.22        24.07399
548.66        24.29244
549.10        24.26983
549.53        24.11248
549.97        23.94751
550.41         23.9103
550.84        24.04913
551.28        24.33262
551.72        24.70865
552.15        25.07587
552.59        25.38536
553.03         25.6591
553.46        25.88099
553.90        26.05103
554.34        26.18054
554.77        26.23869
555.21        26.24829
555.65        26.33057
556.08         26.5122
556.52        26.44014
556.96        26.71769
557.39        26.82063
557.83         26.9336
558.27        27.04007
558.70        27.15378
559.14        27.27915
559.57        27.40443
560.01        27.53744
560.45        27.64754
560.88         27.6877
561.32        27.67569
561.75         27.6142
562.19        27.56211
562.63        27.57031
563.06         27.6478
563.50        27.78505
563.93        27.95222
564.37        28.11511
564.80        28.25074
565.24        28.37923
565.68        28.49969
566.11        28.60575
566.55        28.71879
566.98        28.84458
567.42        29.00786
567.85        29.16191
568.29        29.44589
568.72        29.67488
569.16        29.93227
569.60        30.28165
570.03         30.5708
570.47         30.6744
570.90        30.76347
571.34        29.93641
571.77        30.69197
572.21        30.73545
572.64        30.86268
573.08        30.38943
573.51        29.51289
573.95        30.90335
574.38        32.98751
574.82        32.31106
