SpectraSmart Spectrum 2.9.0.0
--------- Device Information -----------
Spectrum Name :  反射率_0
Saving Time :  2024/04/26 00:32:14
Spectro-Module Model Name : SE2030-DUVN
Spectro-Module Serial Number : OS361AC55029948
Wavelength Start : 200
Wavelength End : 1025
Wavelength Unit : Wavelength(nm)
Spectrum Unit : Reflectance(%)
-----------Spectrum Setting ------------
Integration Time : 20ms
Average : 10
Boxcar : 0
Background removal :  enabled
linearity correction :  enabled
SC :  disabled
Intensity correction :  disabled
DWT denoise :  enabled
savitzky-golay :  disabled
FFT :  disabled
Running average :  disabled
Kalman :  disabled
High pass :  disabled
---------------BEGIN--------------------
Wavelength(nm)             Reflectance(%)
200.29               0
200.75        88.59953
201.21        83.97041
201.67        78.43645
202.13        75.49329
202.58        75.58578
203.04        78.13663
203.50        81.33978
203.96         82.1731
204.42        80.24376
204.88        76.90784
205.34        74.07611
205.80        73.72625
206.26        76.64259
206.72        84.61832
207.18         100.836
207.64        114.9111
208.10        105.0755
208.55         85.5862
209.01        73.22206
209.47        68.74676
209.93        68.70827
210.39        71.30218
210.85        74.68262
211.31        75.13884
211.77        71.65296
212.23        65.94439
212.69        60.71094
213.14        60.10535
213.60        64.68285
214.06        73.11638
214.52        83.11559
214.98        91.25986
215.44        96.11327
215.90        98.35547
216.36        98.51967
216.81        97.18125
217.27        95.29327
217.73        92.99636
218.19        90.17837
218.65        86.44629
219.11        81.40582
219.57        74.28066
220.02        66.40883
220.48        64.04961
220.94        69.93673
221.40        81.93417
221.86        92.60933
222.32        94.73602
222.77        89.37561
223.23        80.91742
223.69        73.81631
224.15        72.77513
224.61        77.39929
225.06        85.52708
225.52        94.03471
225.98        98.79253
226.44        99.05375
226.90        96.48539
227.36        93.43707
227.81         93.0885
228.27        96.29314
228.73        101.4868
229.19        106.8465
229.65        109.7563
230.10        109.7376
230.56         108.318
231.02        106.5469
231.48        105.6303
231.93        105.6856
232.39        106.2752
232.85        107.1754
233.31        108.2522
233.77        109.3321
234.22        110.5562
234.68        111.3555
235.14        110.7212
235.60        108.5224
236.05        105.1623
236.51        101.5277
236.97        98.73667
237.43        96.94368
237.88        95.94379
238.34        95.28505
238.80        94.57919
239.26        93.60477
239.71         92.9132
240.17        91.92484
240.63        90.24117
241.08        88.03178
241.54        85.42561
242.00        83.24569
242.46         82.5071
242.91        83.99811
243.37        88.98779
243.83        105.3967
244.28        157.9413
244.74        213.2998
245.20        177.3125
245.66        146.5471
246.11        137.1461
246.57        138.8558
247.03        152.8018
247.48        189.1026
247.94        141.2333
248.40        95.03424
248.85        84.43063
249.31        82.85767
249.77         84.4861
250.22        88.43004
250.68        95.50006
251.14        106.0639
251.59         114.718
252.05        115.0123
252.51        108.7885
252.96        100.5997
253.42        95.85709
253.88        94.54544
254.33        94.88013
254.79        97.32717
255.25        101.8112
255.70        107.1851
256.16        113.1758
256.62        117.8175
257.07        119.0988
257.53        117.9746
257.99        115.0046
258.44        111.5512
258.90        110.3926
259.35        110.4626
259.81        111.0703
260.27        110.6876
260.72         107.849
261.18        103.5195
261.63        98.20327
262.09        93.26059
262.55        89.30045
263.00        86.30157
263.46        84.19492
263.91        82.45439
264.37        81.10422
264.83        79.78668
265.28         78.3765
265.74        76.90388
266.19        75.01074
266.65        73.04598
267.11        71.14189
267.56        69.35715
268.02        67.81783
268.47        66.36868
268.93        64.98838
269.38         63.7507
269.84        62.99659
270.30        62.76592
270.75        62.96457
271.21        63.22974
271.66        62.99685
272.12        62.16233
272.57        60.86167
273.03        59.50642
273.48        58.61166
273.94         58.3337
274.39        58.42309
274.85        58.59877
275.31        58.38017
275.76        57.64706
276.22        56.62952
276.67        55.50037
277.13        54.67403
277.58        54.14338
278.04         53.8337
278.49        53.51229
278.95        53.00906
279.40        52.21908
279.86        51.32258
280.31        50.34876
280.77         49.5154
281.22        48.80838
281.68        48.22088
282.13        47.70421
282.59        47.29538
283.04         46.9371
283.50        46.67899
283.95        46.39049
284.41        45.93799
284.86        45.28143
285.32        44.48801
285.77        43.70941
286.22        43.27082
286.68        43.19593
287.13        43.33598
287.59        43.44893
288.04        43.12262
288.50        42.34046
288.95        41.22951
289.41        40.06387
289.86        39.10597
290.32        38.50161
290.77        38.12094
291.22        37.93686
291.68        37.86629
292.13        37.85632
292.59        37.93797
293.04          38.058
293.50        38.14173
293.95        38.15768
294.40        38.09735
294.86        38.00171
295.31        37.94334
295.77        37.95207
296.22        38.01902
296.68        38.10455
297.13        38.11435
297.58        38.05035
298.04        37.95801
298.49        37.93227
298.95        38.16063
299.40        38.64544
299.85        39.31044
300.31        39.98962
300.76        40.43314
301.21        40.57265
301.67         40.5277
302.12        40.36559
302.58        40.26047
303.03        40.23651
303.48        40.25869
303.94        40.38299
304.39        40.65115
304.84        41.05771
305.30        41.57693
305.75        42.04832
306.20        42.24333
306.66         42.1469
307.11        41.81188
307.57        41.41978
308.02        41.15302
308.47        41.09584
308.93        41.18992
309.38          41.364
309.83         41.5426
310.29        41.68424
310.74        41.80154
311.19        41.88702
311.65        41.92299
312.10         41.9008
312.55        41.81722
313.00        41.66776
313.46        41.46506
313.91        41.21426
314.36         40.9399
314.82        40.69324
315.27        40.52358
315.72        40.45388
316.18         40.4683
316.63        40.53646
317.08        40.58158
317.53        40.57494
317.99        40.51871
318.44        40.44992
318.89        40.43484
319.35        40.47006
319.80        40.53764
320.25        40.54816
320.70        40.36378
321.16        39.97099
321.61        39.42887
322.06        38.85785
322.51        38.43809
322.97        38.20231
323.42        38.11296
323.87        38.08972
324.32        37.99573
324.78        37.78669
325.23        37.51652
325.68        37.21776
326.13        36.95051
326.59        36.72812
327.04         36.5456
327.49        36.39686
327.94        36.28523
328.39          36.209
328.85        36.16161
329.30        36.16161
329.75        36.17744
330.20        36.20321
330.66        36.22695
331.11        36.27255
331.56        36.32989
332.01        36.39245
332.46        36.43862
332.92        36.46317
333.37        36.51516
333.82        36.58123
334.27        36.67447
334.72        36.72083
335.17         36.5977
335.63        36.29408
336.08          35.858
336.53        35.46674
336.98        35.41166
337.43        35.74308
337.88        36.37564
338.34        37.04993
338.79        37.39046
339.24        37.27066
339.69        36.79718
340.14        36.20636
340.59        35.91787
341.05        36.04282
341.50        36.44503
341.95        36.92273
342.40        37.18586
342.85        37.16529
343.30        36.96896
343.75        36.69225
344.20        36.49439
344.66        36.43242
345.11        36.41403
345.56        36.42609
346.01        36.45309
346.46        36.47508
346.91        36.52146
347.36        36.50692
347.81        36.28736
348.26        35.86541
348.72         35.3156
349.17        34.78862
349.62        34.61045
350.07        34.84384
350.52        35.37317
350.97        36.00148
351.42         36.4252
351.87        36.55726
352.32        36.48432
352.77        36.27779
353.22        36.05774
353.67        35.87356
354.13        35.69102
354.58        35.51353
355.03        35.39099
355.48        35.32808
355.93        35.33208
356.38        35.34692
356.83        35.27107
357.28        35.08023
357.73        34.79157
358.18         34.4767
358.63        34.25219
359.08        34.14374
359.53         34.1252
359.98        34.10277
360.43        33.92919
360.88        33.58244
361.33        33.11102
361.78        32.64914
362.23         32.4128
362.68        32.43882
363.13        32.64345
363.58        32.87107
364.03        32.88002
364.48        32.61356
364.93        32.15727
365.38        31.61604
365.83        31.15857
366.28        30.84541
366.73        30.62316
367.18        30.47885
367.63        30.39417
368.08        30.34479
368.53         30.3377
368.98        30.32468
369.43         30.2191
369.88        30.00905
370.33         29.7242
370.78        29.40512
371.23        29.13081
371.68        28.93101
372.13        28.77466
372.58        28.69173
373.03        28.72689
373.48        28.86765
373.93        29.09933
374.38         29.2985
374.83         29.2744
375.28        28.99734
375.72        28.50985
376.17        27.98953
376.62        27.69295
377.07        27.68516
377.52        27.88563
377.97         28.1512
378.42         28.2488
378.87        28.11858
379.32        27.84345
379.77        27.52009
380.22        27.28324
380.67        27.16575
381.11        27.11937
381.56        27.09414
382.01        27.02215
382.46        26.88579
382.91        26.71795
383.36        26.54815
383.81        26.41714
384.26        26.33662
384.71        26.28628
385.15        26.24293
385.60        26.19763
386.05        26.12907
386.50        26.03517
386.95        25.91622
387.40        25.77557
387.85        25.63105
388.29        25.49274
388.74        25.37473
389.19        25.23663
389.64        25.07532
390.09        24.88402
390.54        24.73947
390.98        24.76608
391.43        24.98057
391.88        25.32645
392.33        25.63993
392.78        25.68099
393.23        25.43356
393.67         24.9819
394.12        24.54223
394.57        24.33647
395.02        24.40801
395.47        24.67197
395.91        25.02579
396.36        25.24733
396.81        25.26679
397.26        25.14157
397.71        24.92538
398.15        24.67461
398.60        24.45908
399.05        24.26922
399.50        24.10537
399.95        23.90166
400.39        23.76236
400.84        23.62126
401.29        23.54475
401.74         23.5958
402.18        23.78745
402.63        24.06346
403.08        24.35243
403.53        24.54013
403.97         24.5952
404.42        24.54549
404.87         24.4234
405.32        24.29208
405.76        24.17732
406.21        24.07392
406.66        23.99629
407.11        23.97129
407.55         24.0051
408.00        24.08804
408.45        24.18071
408.90        24.19191
409.34        24.09916
409.79        23.93429
410.24         23.7672
410.68        23.69498
411.13        23.74284
411.58        23.88206
412.03        24.05959
412.47        24.18564
412.92        24.21215
413.37        24.16743
413.81        24.09783
414.26        24.09567
414.71        24.16838
415.15        24.28713
415.60        24.38113
416.05        24.35822
416.49        24.20269
416.94        23.96322
417.39         23.7015
417.83        23.51847
418.28        23.45581
418.73        23.47369
419.17        23.55827
419.62        23.68784
420.07         23.8408
420.51        24.02114
420.96        24.16913
421.41        24.18343
421.85        24.04142
422.30        23.80178
422.74        23.53515
423.19         23.3948
423.64        23.39108
424.08        23.49813
424.53        23.63977
424.98        23.72372
425.42        23.73066
425.87        23.67585
426.31        23.59731
426.76        23.61715
427.21         23.7194
427.65        23.70925
428.10        23.66396
428.54        23.86302
428.99        24.30911
429.44        24.86749
429.88        25.30834
430.33        25.36244
430.77        24.99433
431.22        24.30286
431.66        23.56837
432.11        23.33711
432.56        23.65639
433.00        24.16491
433.45        24.62052
433.89        25.11621
434.34        25.41174
434.78        24.88703
435.23        23.97917
435.67         23.8797
436.12        24.51618
436.57        24.80864
437.01         24.6364
437.46        24.53592
437.90         24.5494
438.35        24.52268
438.79        24.45693
439.24        24.42125
439.68        24.43831
440.13        24.39552
440.57        24.34434
441.02         24.6969
441.46        25.26224
441.91          25.145
442.35        24.48445
442.80        24.22206
443.24        24.33315
443.69        24.45106
444.13        24.47791
444.58        24.24915
445.02        23.86575
445.47        23.85702
445.91        24.15664
446.36        24.21726
446.80        24.00842
447.24        23.85427
447.69        23.80304
448.13        23.77481
448.58        23.78475
449.02        23.84572
449.47        23.92749
449.91        23.97818
450.36        23.98728
450.80        23.96259
451.25        23.92765
451.69        23.90563
452.13        23.90886
452.58        23.91816
453.02        23.93344
453.47        23.95909
453.91        23.99438
454.36        24.04794
454.80        24.09223
455.24        24.07366
455.69        23.99868
456.13        23.87475
456.58        23.78499
457.02        23.81726
457.46        23.99281
457.91        24.26774
458.35        24.55431
458.79        24.71493
459.24        24.72774
459.68        24.61754
460.13        24.46827
460.57        24.35845
461.01        24.33497
461.46        24.36864
461.90        24.42595
462.34         24.4539
462.79        24.43033
463.23        24.36837
463.68        24.31547
464.12        24.35758
464.56         24.5071
465.01        24.75397
465.45        24.96015
465.89        25.01842
466.34        24.92957
466.78        24.58909
467.22         24.1944
467.67        24.31063
468.11        24.86237
468.55        25.11402
468.99        24.98426
469.44        24.85385
469.88        24.81187
470.32        24.94243
470.77        25.17912
471.21        25.22751
471.65        25.06251
472.10        24.92544
472.54        24.86422
472.98        24.86273
473.42        24.93606
473.87        25.09636
474.31        25.28175
474.75        25.39442
475.20        25.41775
475.64        25.36435
476.08        25.29027
476.52        25.28091
476.97        25.35869
477.41         25.5025
477.85        25.65145
478.29        25.75721
478.74        25.80879
479.18        25.69768
479.62        25.49869
480.06        25.75592
480.50        25.95374
480.95        26.15223
481.39        26.13307
481.83        26.10161
482.27        26.05325
482.72        25.76728
483.16        25.38634
483.60        25.45876
484.04         26.0113
484.48        26.29944
484.93        26.54721
485.37        27.04204
485.81        27.83382
486.25        27.58356
486.69        36.84175
487.14        29.81419
487.58        19.13902
488.02        23.08713
488.46        26.50008
488.90        26.41449
489.34        26.62081
489.79        26.37879
490.23        27.72072
490.67        28.41442
491.11        28.15602
491.55        28.00834
491.99        27.90193
492.43        27.70505
492.88        27.51007
493.32         27.5792
493.76        27.70501
494.20        27.94556
494.64        28.20226
495.08        28.51366
495.52        28.84942
495.96        29.09038
496.41        29.20226
496.85        29.38255
497.29        29.60339
497.73        29.32397
498.17        28.87873
498.61        29.12407
499.05        30.06396
499.49        30.23553
499.93        30.36257
500.37        30.49985
500.82         30.5589
501.26        30.83392
501.70        31.17141
502.14        31.32162
502.58        31.25927
503.02        31.24243
503.46        31.28644
503.90        31.22844
504.34         31.1177
504.78        31.11142
505.22        31.22745
505.66        31.42639
506.10        31.63833
506.54        31.74249
506.98        31.71159
507.42         31.5895
507.86        31.45677
508.30        31.43725
508.74        31.55729
509.18         31.7694
509.62        32.01523
510.06        32.19938
510.50        32.29199
510.94        32.33207
511.38        32.33121
511.82        32.30464
512.26        32.26838
512.70        32.21163
513.14        32.17919
513.58        32.24942
514.02        32.42112
514.46        32.66154
514.90        32.89329
515.34        32.96158
515.78        32.81499
516.22        32.63809
516.66        32.50433
517.10        32.14996
517.54        31.60685
517.98        32.24039
518.42        32.05173
518.86        32.37921
519.30        32.60358
519.74          32.904
520.18        33.19675
520.62        33.32123
521.06        33.27164
521.50        33.07406
521.93        32.81059
522.37        32.62794
522.81        32.57172
523.25        32.60696
523.69        32.69459
524.13        32.77066
524.57        32.81232
525.01        32.83812
525.45         32.8583
525.89        32.88638
526.32        32.91838
526.76        32.94067
527.20        32.93126
527.64        32.87178
528.08        32.76925
528.52        32.60913
528.96        32.40829
529.40        32.28136
529.83         32.2604
530.27        31.98933
530.71        32.09216
531.15        32.04516
531.59        32.03213
532.03        32.03377
532.46        32.07474
532.90        32.18587
533.34        32.34995
533.78        32.54541
534.22        32.70272
534.66        32.72526
535.09        32.59352
535.53        32.35485
535.97        32.07355
536.41        31.86042
536.85        31.75466
537.28        31.73536
537.72        31.77389
538.16        31.82316
538.60        31.86631
539.04        31.89185
539.47        31.91887
539.91        32.05827
540.35        32.27736
540.79        32.42641
541.22         32.4873
541.66        32.56674
542.10        32.65985
542.54        32.68849
542.97        32.69221
543.41        32.78689
543.85        32.98055
544.29        33.25589
544.72        33.52063
545.16        33.64365
545.60        33.60175
546.04        33.43359
546.47        33.27991
546.91        33.37535
547.35        33.74764
547.79        34.32629
548.22        34.91861
548.66         35.1983
549.10        35.11961
549.53        34.84121
549.97         34.5486
550.41        34.44527
550.84        34.60017
551.28        34.95872
551.72        35.43278
552.15        35.85644
552.59        36.16246
553.03         36.3962
553.46         36.5535
553.90        36.66304
554.34        36.74454
554.77        36.74774
555.21          36.701
555.65        36.77019
556.08        36.99149
556.52        36.87548
556.96        37.25297
557.39        37.37424
557.83        37.49352
558.27        37.58765
558.70        37.69807
559.14        37.87241
559.57        38.09716
560.01         38.3679
560.45        38.59963
560.88        38.66249
561.32        38.56813
561.75        38.34366
562.19        38.11725
562.63        38.03037
563.06        38.10962
563.50        38.31848
563.93        38.57632
564.37        38.77522
564.80        38.86845
565.24        38.90596
565.68          38.915
566.11        38.93919
566.55        39.02211
566.98        39.13912
567.42        39.29811
567.85        39.50641
568.29        39.78623
568.72        40.01804
569.16        40.25532
569.60        40.72178
570.03        41.22604
570.47        41.30943
570.90        41.13064
571.34        40.71891
571.77        41.01732
572.21         41.3826
572.64        41.26477
573.08        40.61079
573.51        39.27186
573.95        41.04617
574.38        43.79181
574.82        42.95943
