SpectraSmart Spectrum 2.9.0.0
--------- Device Information -----------
Spectrum Name :  反射率_0
Saving Time :  2024/04/26 00:51:51
Spectro-Module Model Name : SE2030-DUVN
Spectro-Module Serial Number : OS361AC55029948
Wavelength Start : 200
Wavelength End : 1025
Wavelength Unit : Wavelength(nm)
Spectrum Unit : Reflectance(%)
-----------Spectrum Setting ------------
Integration Time : 20ms
Average : 10
Boxcar : 0
Background removal :  enabled
linearity correction :  enabled
SC :  disabled
Intensity correction :  disabled
DWT denoise :  enabled
savitzky-golay :  disabled
FFT :  disabled
Running average :  disabled
Kalman :  disabled
High pass :  disabled
---------------BEGIN--------------------
Wavelength(nm)             Reflectance(%)
200.29               0
200.75        82.69309
201.21        77.99368
201.67        72.00587
202.13        66.72163
202.58        62.53419
203.04        59.35129
203.50         57.5229
203.96        57.70005
204.42        59.52737
204.88        62.28055
205.34        65.03354
205.80        67.09501
206.26         68.7065
206.72        70.61732
207.18        72.85077
207.64        72.81448
208.10        68.26371
208.55        62.89363
209.01        60.49208
209.47        61.25493
209.93         64.0891
210.39        69.00164
210.85        73.69711
211.31        72.93829
211.77        65.48048
212.23        53.36496
212.69        41.51722
213.14        37.53032
213.60        42.62417
214.06        54.90479
214.52        69.29575
214.98        77.77695
215.44        78.29894
215.90        73.31385
216.36        66.50131
216.81        62.99858
217.27        63.97023
217.73        67.37203
218.19        70.38012
218.65        69.37315
219.11        63.09972
219.57        51.04342
220.02        34.88364
220.48        24.65587
220.94         26.4306
221.40        37.74644
221.86        49.46213
222.32        51.89202
222.77        45.80019
223.23        36.21765
223.69        28.08232
224.15        26.37276
224.61        30.55432
225.06        38.08358
225.52        45.47714
225.98        48.39233
226.44        46.11676
226.90        40.65592
227.36        34.49043
227.81        30.90947
228.27        30.94062
228.73        33.22881
229.19        36.60934
229.65        39.37623
230.10        40.92949
230.56        41.80057
231.02        42.31446
231.48        42.78878
231.93        43.30166
232.39        43.71113
232.85        43.89792
233.31        43.77832
233.77         43.3273
234.22        42.57751
234.68        41.73151
235.14         41.0915
235.60        40.82518
236.05        40.98366
236.51        41.29044
236.97         41.2648
237.43        40.81821
237.88        40.00366
238.34        39.37825
238.80        40.43427
239.26        43.71756
239.71        48.90982
240.17        54.28985
240.63         57.3215
241.08         57.3848
241.54        55.08711
242.00        51.96539
242.46        50.10028
242.91        50.32599
243.37        53.14907
243.83         64.2946
244.28        103.6684
244.74        152.9845
245.20        133.4516
245.66        111.1395
246.11        102.7909
246.57        100.9775
247.03         101.994
247.48        101.0811
247.94        76.19658
248.40        70.54074
248.85         72.2221
249.31        74.32143
249.77        76.36398
250.22         78.8757
250.68        82.43604
251.14        87.20766
251.59         90.5022
252.05         89.4709
252.51        85.36798
252.96        79.74672
253.42        74.61127
253.88        69.81913
254.33        64.91829
254.79        62.04216
255.25        63.47755
255.70        68.34644
256.16         74.8972
256.62        79.92004
257.07        80.29235
257.53        76.90746
257.99         71.1289
258.44        65.34885
258.90        63.11388
259.35        63.53685
259.81        65.11765
260.27        65.73762
260.72        63.41092
261.18        58.92708
261.63         53.2621
262.09        48.13037
262.55        44.83697
263.00        43.31411
263.46        42.94653
263.91        42.77929
264.37        42.07081
264.83        40.65137
265.28        38.71881
265.74        36.85386
266.19        35.67056
266.65         35.3613
267.11        35.55415
267.56        35.72883
268.02        35.27343
268.47        34.08848
268.93        32.40754
269.38        30.58257
269.84        29.43759
270.30        29.18615
270.75        29.58636
271.21        30.19659
271.66        30.36073
272.12        29.90134
272.57        29.02504
273.03        28.05483
273.48        27.39356
273.94        27.16696
274.39        27.18981
274.85        27.25775
275.31        27.07305
275.76        26.56613
276.22        25.88222
276.67        25.17093
277.13        24.72578
277.58        24.55091
278.04        24.57076
278.49         24.5912
278.95        24.40137
279.40        23.94134
279.86        23.34761
280.31        22.72083
280.77        22.31749
281.22        22.14179
281.68        22.12357
282.13        22.15842
282.59        22.13426
283.04        22.01381
283.50        21.87512
283.95        21.69917
284.41          21.473
284.86        21.20377
285.32        20.89894
285.77        20.66249
286.22        20.71354
286.68        21.04263
287.13        21.54868
287.59        22.00545
288.04        22.06701
288.50        21.70473
288.95        21.03196
289.41        20.28545
289.86        19.71837
290.32        19.45751
290.77        19.40838
291.22        19.53493
291.68        19.74321
292.13        19.99813
292.59         20.3279
293.04        20.72658
293.50        21.18027
293.95        21.66147
294.40        22.12708
294.86        22.54276
295.31        22.87922
295.77        23.13658
296.22        23.33244
296.68         23.4791
297.13        23.56788
297.58        23.63245
298.04        23.70469
298.49         23.8478
298.95        24.18845
299.40        24.73033
299.85        25.42373
300.31        26.16755
300.76        26.81241
301.21        27.29143
301.67        27.66009
302.12        27.90668
302.58         28.0717
303.03         28.1636
303.48         28.1882
303.94        28.24251
304.39        28.44238
304.84        28.81004
305.30        29.30398
305.75        29.78619
306.20        30.05112
306.66        30.07588
307.11        29.91179
307.57        29.69778
308.02        29.56986
308.47        29.59312
308.93        29.71951
309.38        29.89375
309.83         30.0616
310.29        30.18786
310.74         30.2807
311.19        30.33774
311.65        30.35146
312.10        30.31926
312.55        30.24286
313.00         30.1039
313.46        29.88577
313.91        29.59347
314.36        29.26309
314.82        28.97748
315.27        28.84399
315.72        28.88717
316.18        29.06742
316.63        29.31106
317.08        29.47305
317.53        29.50283
317.99        29.42303
318.44        29.28981
318.89         29.1989
319.35        29.16744
319.80        29.17176
320.25        29.13865
320.70        28.95654
321.16        28.61324
321.61        28.15548
322.06        27.69044
322.51         27.3742
322.97        27.22916
323.42        27.21737
323.87        27.23294
324.32        27.09878
324.78        26.76982
325.23        26.30946
325.68         25.8094
326.13        25.42216
326.59        25.18907
327.04        25.08236
327.49        25.04676
327.94        24.99293
328.39        24.89148
328.85         24.7626
329.30        24.65905
329.75        24.63061
330.20         24.6881
330.66        24.78546
331.11         24.8973
331.56        24.94457
332.01        24.89978
332.46        24.76878
332.92        24.57431
333.37        24.38964
333.82          24.234
334.27        24.11133
334.72        23.97974
335.17        23.76634
335.63        23.46541
336.08        23.11129
336.53        22.81308
336.98        22.74281
337.43        22.92446
337.88         23.3023
338.34         23.6937
338.79        23.84658
339.24        23.67227
339.69        23.23872
340.14        22.72832
340.59        22.46485
341.05        22.52657
341.50        22.81776
341.95        23.16604
342.40        23.31638
342.85        23.21226
343.30        22.94832
343.75        22.62467
344.20        22.41346
344.66        22.36571
345.11        22.38085
345.56        22.43339
346.01        22.48705
346.46        22.51216
346.91        22.54431
347.36        22.48313
347.81        22.16129
348.26        21.58928
348.72         20.8605
349.17        20.17061
349.62        19.92367
350.07        20.19849
350.52        20.84753
350.97        21.63828
351.42        22.21096
351.87          22.454
352.32        22.46769
352.77        22.30123
353.22        22.04195
353.67        21.74412
354.13        21.38461
354.58        21.02975
355.03        20.82758
355.48        20.80407
355.93        20.94032
356.38        21.12416
356.83        21.15828
357.28        20.99484
357.73        20.68494
358.18        20.33411
358.63        20.11298
359.08        20.06343
359.53        20.13393
359.98        20.22658
360.43        20.19218
360.88        19.99946
361.33        19.69773
361.78        19.39114
362.23        19.24457
362.68        19.28701
363.13        19.45044
363.58         19.6205
364.03        19.62283
364.48        19.41898
364.93        19.07742
365.38        18.67582
365.83        18.33644
366.28        18.10558
366.73        17.94485
367.18        17.85578
367.63        17.84171
368.08        17.88378
368.53         17.9779
368.98        18.06597
369.43         18.0508
369.88         17.9177
370.33        17.69994
370.78         17.4463
371.23        17.24697
371.68         17.1349
372.13        17.07819
372.58        17.09134
373.03        17.19398
373.48        17.36704
373.93        17.59868
374.38         17.7951
374.83        17.81163
375.28        17.62701
375.72        17.27442
376.17        16.88707
376.62        16.64549
377.07        16.60241
377.52        16.70319
377.97        16.87249
378.42        16.98425
378.87        16.99626
379.32        16.94866
379.77        16.86674
380.22        16.78427
380.67        16.71244
381.11        16.63471
381.56         16.5451
382.01        16.44778
382.46        16.34547
382.91        16.24511
383.36        16.15083
383.81        16.06369
384.26        15.98633
384.71        15.92137
385.15         15.8608
385.60        15.80254
386.05        15.73687
386.50        15.65544
386.95        15.57057
387.40        15.50532
387.85         15.4678
388.29        15.45766
388.74        15.44269
389.19        15.35873
389.64        15.20045
390.09        14.97621
390.54        14.76989
390.98        14.72138
391.43        14.85974
391.88        15.12741
392.33        15.38484
392.78        15.42688
393.23        15.23288
393.67        14.87573
394.12        14.51802
394.57        14.33314
395.02        14.35611
395.47        14.52467
395.91        14.75496
396.36        14.87662
396.81        14.83809
397.26        14.68248
397.71        14.47629
398.15        14.30212
398.60        14.20668
399.05        14.16636
399.50        14.13053
399.95        13.98912
400.39        13.79312
400.84        13.52746
401.29        13.29196
401.74        13.23786
402.18        13.40596
402.63        13.72224
403.08        14.07248
403.53        14.27408
403.97        14.27789
404.42        14.13906
404.87        13.92179
405.32        13.74262
405.76        13.64468
406.21        13.59477
406.66        13.58347
407.11        13.60296
407.55        13.64712
408.00        13.72163
408.45        13.79554
408.90         13.7965
409.34        13.70858
409.79         13.5534
410.24         13.3921
410.68        13.31252
411.13        13.33408
411.58        13.43445
412.03         13.5638
412.47        13.63494
412.92        13.61215
413.37        13.52294
413.81        13.41879
414.26        13.39229
414.71        13.45448
415.15         13.5791
415.60        13.69434
416.05        13.70646
416.49        13.59416
416.94        13.40073
417.39        13.18671
417.83          13.055
418.28        13.04113
418.73        13.10013
419.17        13.19774
419.62        13.27422
420.07        13.31114
420.51        13.32933
420.96        13.31028
421.41        13.22012
421.85        13.06132
422.30        12.86489
422.74        12.68055
423.19         12.6102
423.64        12.65587
424.08        12.79691
424.53        12.96431
424.98        13.06019
425.42         13.0575
425.87        12.97776
426.31        12.85592
426.76        12.78883
427.21        12.77709
427.65        12.70658
428.10        12.63555
428.54        12.73273
428.99        13.00103
429.44        13.36767
429.88        13.67844
430.33         13.7328
430.77        13.50379
431.22        13.05724
431.66        12.58623
432.11         12.4339
432.56        12.63304
433.00        13.01908
433.45        13.40874
433.89        13.64867
434.34        13.62859
434.78        13.28266
435.23        12.85281
435.67         12.7946
436.12        13.07512
436.57         13.2285
437.01        13.17826
437.46        13.12919
437.90        13.09396
438.35        13.01312
438.79        12.91166
439.24        12.86508
439.68        12.89024
440.13        12.91163
440.57        12.92005
441.02        13.07633
441.46        13.26776
441.91        13.04821
442.35        12.54386
442.80        12.30941
443.24        12.33252
443.69        12.40784
444.13        12.45055
444.58        12.32609
445.02        12.07204
445.47        11.98034
445.91        12.03095
446.36        11.97654
446.80        11.81202
447.24        11.68344
447.69        11.62262
448.13        11.59949
448.58        11.62128
449.02        11.69548
449.47        11.77306
449.91        11.77151
450.36        11.67955
450.80        11.51624
451.25        11.35526
451.69         11.3035
452.13        11.38319
452.58        11.54674
453.02        11.72661
453.47        11.81199
453.91        11.78078
454.36        11.67378
454.80        11.52996
455.24        11.41613
455.69        11.36405
456.13        11.34302
456.58        11.36889
457.02        11.44831
457.46        11.57946
457.91        11.75682
458.35        11.93045
458.79        12.00955
459.24        11.98696
459.68        11.87344
460.13        11.75141
460.57        11.71702
461.01        11.80351
461.46        11.97112
461.90        12.15333
462.34        12.23291
462.79        12.18179
463.23        12.03017
463.68        11.85755
464.12         11.7976
464.56        11.88653
465.01        12.08471
465.45        12.28123
465.89        12.35775
466.34        12.30238
466.78        12.09075
467.22        11.84465
467.67        11.87772
468.11          12.164
468.55        12.32944
468.99         12.3245
469.44         12.3224
469.88        12.36076
470.32        12.48564
470.77        12.65338
471.21        12.70274
471.65        12.61596
472.10        12.52002
472.54        12.45229
472.98        12.43616
473.42        12.48791
473.87        12.60718
474.31        12.74728
474.75        12.82653
475.20        12.83211
475.64        12.78004
476.08        12.72502
476.52        12.75182
476.97         12.8768
477.41        13.07559
477.85        13.28074
478.29        13.40869
478.74         13.4399
479.18        13.33439
479.62         13.1657
480.06        13.27106
480.50        13.39524
480.95        13.54681
481.39        13.58995
481.83        13.59548
482.27         13.5589
482.72         13.3928
483.16        13.17286
483.60        13.20313
484.04        13.50445
484.48        13.64911
484.93        13.82175
485.37        14.27391
485.81        14.91375
486.25        15.09443
486.69          20.019
487.14        15.82928
487.58        10.53053
488.02        12.80278
488.46        14.62765
488.90        14.63047
489.34        14.55115
489.79        14.46845
490.23        15.34868
490.67        15.83583
491.11        15.71226
491.55        15.58675
491.99        15.45315
492.43        15.32633
492.88        15.27632
493.32        15.37644
493.76        15.51226
494.20        15.76219
494.64        16.06875
495.08        16.40491
495.52        16.74289
495.96        17.06536
496.41        17.31603
496.85         17.4748
497.29        17.54736
497.73         17.3763
498.17        17.17509
498.61        17.37017
499.05        17.96273
499.49        18.10934
499.93        18.23993
500.37        18.38072
500.82        18.47568
501.26        18.70111
501.70        18.96246
502.14        19.10858
502.58         19.1202
503.02         19.1507
503.46        19.20796
503.90        19.19052
504.34        19.13506
504.78        19.14787
505.22          19.243
505.66        19.40204
506.10        19.56916
506.54        19.63922
506.98        19.59261
507.42        19.49607
507.86        19.37974
508.30        19.41769
508.74        19.61599
509.18         19.9252
509.62        20.26109
510.06          20.486
510.50        20.56183
510.94        20.53856
511.38        20.45822
511.82        20.38703
512.26        20.35377
512.70        20.33218
513.14        20.34592
513.58        20.43652
514.02        20.59117
514.46        20.79184
514.90        20.97067
515.34        20.98089
515.78        20.77289
516.22        20.55019
516.66         20.3967
517.10        19.99791
517.54        19.38406
517.98        20.16399
518.42        19.96346
518.86        20.32924
519.30        20.52913
519.74        20.78626
520.18        21.02504
520.62        21.09392
521.06        20.99877
521.50        20.76052
521.93        20.46988
522.37        20.29001
522.81        20.26371
523.25        20.34686
523.69        20.48212
524.13        20.57723
524.57        20.60149
525.01        20.58252
525.45        20.53548
525.89        20.48315
526.32          20.432
526.76        20.36993
527.20        20.29083
527.64        20.19801
528.08        20.09649
528.52        19.97157
528.96        19.82736
529.40        19.72141
529.83        19.66962
530.27         19.4609
530.71        19.46654
531.15        19.35284
531.59         19.2352
532.03        19.10985
532.46        19.02361
532.90        19.05291
533.34        19.19446
533.78        19.41205
534.22        19.62592
534.66        19.72056
535.09        19.66694
535.53        19.51006
535.97        19.29806
536.41        19.11392
536.85        18.99141
537.28        18.91319
537.72        18.87825
538.16         18.8838
538.60         18.9243
539.04        18.98864
539.47        19.06803
539.91        19.19363
540.35        19.33964
540.79        19.42708
541.22        19.46176
541.66        19.53297
542.10        19.64484
542.54        19.73953
542.97        19.83141
543.41        19.97795
543.85        20.17935
544.29         20.4327
544.72         20.6794
545.16        20.83543
545.60        20.88685
546.04        20.85241
546.47        20.83203
546.91        20.99492
547.35        21.35666
547.79         21.8649
548.22        22.36825
548.66        22.60946
549.10        22.55564
549.53        22.32777
549.97        22.08555
550.41        22.01733
550.84        22.18347
551.28         22.5362
551.72        22.99637
552.15        23.41799
552.59        23.73787
553.03        23.99103
553.46        24.18309
553.90        24.34391
554.34        24.49182
554.77        24.58741
555.21        24.63617
555.65         24.7272
556.08         24.8813
556.52        24.77902
556.96         25.0055
557.39        25.09754
557.83        25.23344
558.27        25.38725
558.70        25.55552
559.14        25.71586
559.57        25.84959
560.01        25.97283
560.45        26.06487
560.88        26.09429
561.32         26.0826
561.75        26.02667
562.19        25.98189
562.63        25.99704
563.06        26.07907
563.50        26.21895
563.93        26.38412
564.37        26.53396
564.80        26.64706
565.24        26.74723
565.68        26.83733
566.11        26.92391
566.55        27.03287
566.98        27.15394
567.42         27.3111
567.85        27.53617
568.29        27.84424
568.72        28.13497
569.16        28.41874
569.60        28.82643
570.03        29.22808
570.47        29.29444
570.90        29.14309
571.34        28.88703
571.77        29.19237
572.21        29.33407
572.64        29.38215
573.08        29.00384
573.51        28.23602
573.95        29.57722
574.38        31.60683
574.82        30.48133
