SpectraSmart Spectrum 2.9.0.0
--------- Device Information -----------
Spectrum Name :  反射率_0
Saving Time :  2024/04/25 23:51:54
Spectro-Module Model Name : SE2030-DUVN
Spectro-Module Serial Number : OS361AC55029948
Wavelength Start : 200
Wavelength End : 1025
Wavelength Unit : Wavelength(nm)
Spectrum Unit : Reflectance(%)
-----------Spectrum Setting ------------
Integration Time : 20ms
Average : 10
Boxcar : 0
Background removal :  enabled
linearity correction :  enabled
SC :  disabled
Intensity correction :  disabled
DWT denoise :  enabled
savitzky-golay :  disabled
FFT :  disabled
Running average :  disabled
Kalman :  disabled
High pass :  disabled
---------------BEGIN--------------------
Wavelength(nm)             Reflectance(%)
200.29               0
200.75        95.91486
201.21        89.19949
201.67        80.08318
202.13        73.28199
202.58        69.67959
203.04        68.26231
203.50        68.38799
203.96        69.13677
204.42         69.9405
204.88        70.96497
205.34        72.13798
205.80        73.51712
206.26        75.42822
206.72        78.55502
207.18        83.13111
207.64        83.88911
208.10        75.50105
208.55        66.26044
209.01        61.29661
209.47        59.49343
209.93        59.30231
210.39        60.59061
210.85        62.24942
211.31        62.00758
211.77        59.44204
212.23         55.2846
212.69        52.26093
213.14        54.81127
213.60        63.21538
214.06        76.01155
214.52        89.09734
214.98        96.33611
215.44         96.3137
215.90        91.08592
216.36        83.78494
216.81        78.78763
217.27        77.43486
217.73        78.25304
218.19        79.19224
218.65        77.47242
219.11        72.00295
219.57        62.27244
220.02        49.46299
220.48        41.25985
220.94        42.23289
221.40        50.60305
221.86        59.07796
222.32        59.89729
222.77        53.81948
223.23          45.154
223.69        38.06245
224.15        36.80958
224.61        40.88581
225.06        48.06493
225.52        55.35897
225.98        59.05792
226.44        58.47655
226.90        55.26134
227.36        51.29622
227.81        49.09336
228.27        49.49373
228.73        51.29748
229.19        53.76734
229.65        55.83298
230.10        57.07985
230.56        58.03676
231.02        58.59021
231.48        58.54319
231.93        57.99615
232.39         57.0052
232.85         56.1336
233.31        56.37269
233.77        57.85609
234.22        60.33271
234.68        62.90736
235.14        63.77147
235.60        62.40468
236.05        59.41779
236.51        55.90867
236.97         53.3148
237.43        52.00745
237.88        51.76898
238.34        52.22536
238.80        52.61316
239.26        52.46956
239.71        52.09022
240.17        51.80981
240.63        52.65993
241.08        54.86773
241.54         57.9215
242.00        60.78793
242.46        62.11789
242.91        61.49393
243.37        57.45355
243.83        46.88939
244.28         35.3383
244.74        65.02648
245.20        100.3439
245.66        108.4545
246.11        111.9044
246.57        117.1918
247.03        130.1375
247.48        157.2928
247.94        114.0804
248.40         78.3998
248.85        70.27223
249.31        69.33224
249.77        71.62891
250.22        76.44951
250.68        84.94008
251.14        96.53709
251.59        102.2057
252.05          94.399
252.51        78.06497
252.96        62.01549
253.42        53.79808
253.88        52.65792
254.33        55.76044
254.79         62.0388
255.25        69.30017
255.70        75.79696
256.16         81.7346
256.62        85.42154
257.07        85.12074
257.53        81.90532
257.99        76.55739
258.44        71.09743
258.90         68.7893
259.35        68.77182
259.81        69.82572
260.27         70.0684
260.72        67.68954
261.18        63.44097
261.63        58.15213
262.09        53.32455
262.55        50.00277
263.00        48.14811
263.46        47.30148
263.91        46.71848
264.37        45.90794
264.83        44.67138
265.28        43.10873
265.74        41.58419
266.19        40.36734
266.65        39.66391
267.11        39.27843
267.56        38.93854
268.02         38.3206
268.47        37.32971
268.93        36.09484
269.38        34.80384
269.84        33.98088
270.30        33.74307
270.75        33.94703
271.21        34.27869
271.66         34.2735
272.12        33.81034
272.57        33.02078
273.03         32.1817
273.48        31.62879
273.94        31.46342
274.39        31.52412
274.85        31.60748
275.31        31.39956
275.76        30.83566
276.22        30.07368
276.67        29.27414
277.13        28.76311
277.58        28.54625
278.04        28.53928
278.49        28.55206
278.95        28.39131
279.40        27.98359
279.86        27.46418
280.31        26.88342
280.77        26.43129
281.22        26.10831
281.68        25.88369
282.13        25.71186
282.59        25.57636
283.04        25.44677
283.50        25.36147
283.95        25.25901
284.41        25.06876
284.86        24.77307
285.32        24.40372
285.77        24.05026
286.22         23.9143
286.68        23.99982
287.13        24.21753
287.59        24.40181
288.04          24.292
288.50        23.87645
288.95        23.24074
289.41        22.56651
289.86        22.01785
290.32        21.69991
290.77        21.53591
291.22        21.52793
291.68        21.64133
292.13        21.85011
292.59        22.16108
293.04        22.52661
293.50        22.87135
293.95        23.16205
294.40        23.38907
294.86        23.57118
295.31        23.75462
295.77        23.95969
296.22        24.18119
296.68        24.40097
297.13         24.5601
297.58        24.67091
298.04        24.77431
298.49        24.93949
298.95        25.30392
299.40        25.87424
299.85        26.59567
300.31        27.35601
300.76         27.9924
301.21         28.4389
301.67        28.75765
302.12        28.96278
302.58        29.13367
303.03        29.27921
303.48        29.38881
303.94         29.5208
304.39        29.73189
304.84        30.03246
305.30        30.40012
305.75        30.73129
306.20        30.87474
306.66        30.82655
307.11        30.62929
307.57        30.39991
308.02         30.2384
308.47        30.20469
308.93        30.26234
309.38        30.38891
309.83        30.58042
310.29        30.80445
310.74        31.04441
311.19        31.24704
311.65        31.32886
312.10        31.27299
312.55        31.10898
313.00           30.86
313.46        30.57984
313.91        30.29486
314.36        30.01528
314.82        29.80992
315.27        29.76458
315.72        29.89169
316.18        30.16039
316.63        30.47471
317.08        30.65047
317.53        30.63353
317.99        30.45731
318.44        30.22022
318.89        30.08805
319.35        30.09414
319.80        30.19668
320.25        30.28594
320.70        30.18456
321.16         29.8605
321.61        29.38231
322.06        28.88234
322.51        28.55509
322.97        28.43729
323.42        28.48191
323.87        28.57621
324.32        28.53183
324.78        28.29721
325.23         27.9378
325.68        27.55032
326.13        27.29553
326.59        27.21166
327.04        27.26301
327.49        27.37166
327.94        27.41497
328.39        27.35616
328.85        27.22499
329.30        27.09963
329.75        27.07001
330.20        27.16234
330.66        27.32215
331.11        27.51482
331.56        27.64367
332.01        27.67537
332.46        27.62167
332.92         27.5057
333.37        27.40498
333.82        27.33576
334.27        27.29922
334.72        27.24442
335.17        27.08723
335.63         26.8201
336.08         26.4807
336.53        26.19796
336.98        26.17686
337.43        26.44869
337.88        26.95137
338.34        27.47437
338.79        27.72034
339.24        27.58954
339.69        27.16404
340.14        26.65665
340.59        26.44333
341.05        26.61358
341.50        27.04718
341.95        27.54218
342.40        27.80611
342.85         27.7726
343.30        27.54723
343.75        27.23796
344.20        27.02894
344.66        26.97992
345.11        26.99092
345.56        27.03656
346.01        27.08086
346.46        27.09811
346.91        27.12686
347.36        27.08152
347.81        26.81664
348.26        26.34111
348.72        25.73535
349.17        25.16905
349.62         25.0003
350.07        25.29949
350.52        25.94211
350.97        26.71002
351.42        27.26723
351.87        27.51423
352.32        27.53836
352.77        27.41833
353.22        27.28874
353.67        27.19783
354.13        27.10083
354.58        26.98321
355.03        26.86678
355.48         26.7547
355.93        26.67018
356.38        26.58458
356.83        26.43688
357.28        26.21831
357.73        25.94107
358.18        25.66722
358.63        25.49477
359.08        25.44258
359.53         25.4877
359.98        25.54061
360.43        25.46152
360.88        25.22496
361.33        24.86861
361.78        24.51124
362.23        24.34659
362.68         24.4071
363.13        24.62019
363.58        24.84051
364.03        24.84228
364.48        24.57901
364.93        24.13542
365.38        23.62949
365.83        23.24921
366.28        23.05509
366.73        22.98565
367.18        23.00222
367.63        23.04321
368.08        23.06945
368.53         23.0954
368.98        23.08892
369.43         22.9917
369.88        22.80274
370.33        22.54773
370.78        22.26125
371.23        22.01142
371.68        21.82772
372.13         21.6865
372.58        21.63224
373.03        21.73086
373.48        21.96958
373.93        22.31944
374.38        22.63672
374.83         22.7016
375.28        22.47951
375.72        22.02775
376.17          21.529
376.62        21.24713
377.07        21.25487
377.52        21.46668
377.97         21.7662
378.42        21.96286
378.87        21.99227
379.32        21.91413
379.77        21.76945
380.22        21.61252
380.67        21.46513
381.11        21.30888
381.56        21.13745
382.01        20.95803
382.46        20.77721
382.91        20.60222
383.36        20.45546
383.81        20.36361
384.26          20.327
384.71        20.33683
385.15        20.34028
385.60        20.27275
386.05        20.11574
386.50        19.88558
386.95        19.64237
387.40        19.49627
387.85        19.47485
388.29        19.53214
388.74        19.61289
389.19        19.61285
389.64        19.51311
390.09        19.33758
390.54        19.14231
390.98        19.02023
391.43        19.00531
391.88        19.06184
392.33        19.12241
392.78        19.08786
393.23        18.95018
393.67        18.74078
394.12        18.55944
394.57        18.48139
395.02        18.52291
395.47        18.65048
395.91        18.81919
396.36        18.92316
396.81        18.93225
397.26        18.86093
397.71        18.74806
398.15        18.63518
398.60        18.56288
399.05        18.52336
399.50        18.47674
399.95        18.31343
400.39         18.1087
400.84        17.82962
401.29        17.58252
401.74         17.5218
402.18        17.69148
402.63        18.01839
403.08        18.38907
403.53        18.62005
403.97        18.66034
404.42        18.55947
404.87        18.38041
405.32        18.23669
405.76        18.16662
406.21        18.14012
406.66        18.13763
407.11        18.13903
407.55        18.13977
408.00        18.14659
408.45        18.15218
408.90        18.12693
409.34        18.06694
409.79        17.98324
410.24        17.90487
410.68        17.87297
411.13        17.89956
411.58        17.97297
412.03        18.07027
412.47        18.15399
412.92         18.1947
413.37        18.19921
413.81        18.18451
414.26        18.19556
414.71        18.23157
415.15        18.28461
415.60         18.3046
416.05        18.23073
416.49        18.05783
416.94        17.82402
417.39         17.5905
417.83        17.45954
418.28        17.46417
418.73        17.55813
419.17        17.70737
419.62         17.8553
420.07        17.97867
420.51        18.09552
420.96        18.16278
421.41        18.10868
421.85         17.9283
422.30        17.66916
422.74        17.41653
423.19        17.33208
423.64        17.42604
424.08        17.66688
424.53        17.94984
424.98        18.11628
425.42        18.12357
425.87        18.00779
426.31        17.84135
426.76        17.79181
427.21         17.8672
427.65        17.89545
428.10        17.91953
428.54        18.12045
428.99        18.48902
429.44        18.94134
429.88        19.29146
430.33        19.31066
430.77        18.97374
431.22        18.36082
431.66        17.72722
432.11        17.53158
432.56        17.81541
433.00        18.35477
433.45        18.90735
433.89        19.27695
434.34        19.31321
434.78        18.90946
435.23        18.38225
435.67        18.36131
436.12        18.79514
436.57        19.01712
437.01        18.93825
437.46        18.88738
437.90        18.89191
438.35        18.86086
438.79        18.79166
439.24          18.731
439.68        18.69968
440.13        18.61283
440.57        18.52668
441.02        18.78165
441.46         19.2367
441.91        19.19928
442.35        18.75274
442.80        18.59444
443.24        18.69737
443.69        18.78604
444.13        18.78708
444.58        18.58219
445.02        18.25446
445.47        18.21288
445.91        18.40362
446.36        18.40729
446.80        18.20389
447.24        18.04037
447.69        17.97334
448.13         17.9704
448.58        18.04415
449.02        18.19268
449.47        18.35194
449.91        18.41629
450.36        18.36561
450.80        18.22741
451.25        18.06796
451.69        17.97969
452.13         17.9921
452.58        18.06697
453.02        18.17154
453.47        18.25426
453.91        18.30054
454.36        18.33187
454.80        18.34693
455.24        18.33832
455.69        18.31689
456.13        18.27046
456.58         18.2418
457.02        18.27005
457.46         18.3682
457.91        18.51724
458.35        18.66715
458.79        18.73331
459.24        18.70972
459.68        18.60845
460.13        18.49894
460.57        18.44469
461.01        18.47997
461.46        18.57689
461.90        18.69524
462.34        18.76608
462.79         18.7664
463.23        18.70943
463.68        18.64616
464.12        18.66653
464.56        18.78887
465.01        18.99716
465.45        19.17386
465.89        19.21774
466.34        19.12753
466.78        18.83224
467.22        18.49695
467.67        18.57442
468.11        19.01227
468.55        19.24275
468.99         19.1906
469.44        19.12646
469.88        19.11453
470.32        19.22678
470.77        19.41897
471.21        19.47801
471.65         19.3855
472.10        19.32055
472.54        19.31694
472.98        19.36135
473.42        19.46272
473.87        19.63198
474.31        19.80986
474.75        19.89991
475.20        19.88915
475.64         19.7936
476.08        19.68372
476.52        19.66817
476.97        19.77094
477.41        19.96384
477.85         20.1668
478.29        20.28741
478.74        20.30534
479.18        20.15399
479.62        19.92408
480.06        20.08995
480.50        20.26047
480.95        20.46361
481.39        20.51016
481.83        20.53547
482.27        20.52871
482.72        20.32529
483.16        20.03963
483.60        20.10992
484.04        20.53559
484.48        20.77272
484.93        21.05998
485.37        21.44456
485.81        21.81405
486.25        22.21308
486.69        29.19813
487.14        23.26856
487.58        15.20178
488.02        18.73018
488.46        21.13061
488.90        21.19702
489.34        21.62954
489.79        21.53177
490.23        22.52361
490.67        23.09616
491.11        23.00075
491.55        22.87616
491.99        22.68135
492.43        22.47076
492.88        22.33394
493.32        22.40702
493.76         22.5284
494.20        22.77839
494.64        23.07269
495.08        23.44628
495.52        23.85574
495.96        24.12835
496.41        24.24804
496.85        24.49059
497.29        24.80271
497.73        24.59313
498.17        24.13938
498.61        24.23205
499.05        24.90907
499.49        24.99842
499.93        25.12216
500.37        25.31444
500.82        25.47121
501.26        25.79091
501.70         26.1294
502.14        26.28638
502.58        26.24719
503.02        26.24157
503.46        26.28649
503.90        26.23902
504.34        26.13595
504.78        26.10432
505.22        26.16205
505.66        26.28566
506.10         26.4318
506.54        26.51625
506.98        26.52055
507.42        26.48362
507.86        26.46758
508.30        26.51644
508.74        26.72673
509.18        26.99294
509.62        27.27812
510.06        27.48123
510.50         27.5747
510.94        27.59458
511.38        27.56779
511.82        27.53895
512.26        27.52855
512.70        27.51851
513.14        27.53276
513.58        27.61219
514.02        27.74829
514.46        27.92451
514.90        28.08198
515.34        28.09256
515.78        27.91149
516.22        27.72081
516.66        27.59682
517.10        27.25241
517.54        26.71343
517.98        27.44388
518.42        27.27549
518.86        27.59802
519.30        27.74689
519.74        27.93198
520.18        28.10671
520.62        28.16884
521.06        28.12991
521.50        27.99527
521.93        27.82533
522.37        27.73083
522.81        27.73837
523.25        27.81865
523.69        27.92608
524.13        27.98774
524.57        27.98299
525.01        27.93465
525.45        27.86606
525.89        27.81445
526.32        27.78732
526.76        27.76959
527.20        27.74385
527.64        27.69438
528.08        27.62255
528.52        27.51323
528.96        27.36973
529.40        27.27132
529.83        27.24062
530.27        26.98148
530.71         27.0241
531.15         26.9331
531.59        26.86937
532.03        26.81864
532.46        26.81218
532.90         26.8942
533.34        27.05262
533.78        27.26279
534.22        27.45481
534.66        27.53009
535.09        27.46401
535.53        27.29676
535.97        27.08003
536.41        26.90486
536.85        26.80471
537.28        26.76313
537.72        26.75927
538.16        26.75936
538.60        26.75428
539.04        26.73689
539.47        26.73057
539.91        26.83626
540.35        27.02789
540.79        27.17866
541.22        27.26454
541.66         27.3598
542.10        27.45642
542.54        27.49096
542.97        27.50471
543.41        27.60919
543.85        27.81409
544.29        28.10194
544.72        28.38391
545.16        28.53252
545.60        28.52565
546.04        28.40027
546.47        28.29175
546.91         28.4251
547.35        28.82605
547.79        29.42406
548.22        30.03187
548.66        30.33415
549.10        30.28453
549.53        30.03049
549.97        29.75303
550.41        29.65817
550.84        29.81501
551.28        30.17112
551.72        30.63746
552.15        31.04905
552.59        31.34011
553.03        31.55481
553.46        31.70543
553.90        31.83766
554.34        31.97268
554.77        32.06121
555.21        32.10147
555.65        32.19329
556.08        32.35827
556.52        32.18745
556.96        32.44838
557.39        32.52791
557.83         32.6645
558.27        32.87892
558.70         33.1465
559.14        33.32064
559.57        33.40029
560.01        33.56973
560.45        33.78852
560.88        33.85633
561.32        33.79053
561.75        33.69917
562.19        33.64981
562.63        33.60185
563.06         33.5973
563.50         33.7784
563.93         34.0746
564.37        34.26641
564.80        34.31575
565.24        34.34125
565.68        34.37271
566.11        34.42335
566.55        34.53068
566.98        34.67801
567.42        34.86644
567.85        35.09054
568.29        35.36687
568.72        35.59298
569.16        35.81382
569.60        36.22769
570.03        36.67342
570.47        36.72791
570.90        36.54604
571.34        36.18891
571.77          36.608
572.21        36.82742
572.64        36.92716
573.08         36.3054
573.51        35.10125
573.95        36.58261
574.38         38.9654
574.82        37.95655
