SpectraSmart Spectrum 2.9.0.0
--------- Device Information -----------
Spectrum Name :  反射率_0
Saving Time :  2024/04/26 00:48:45
Spectro-Module Model Name : SE2030-DUVN
Spectro-Module Serial Number : OS361AC55029948
Wavelength Start : 200
Wavelength End : 1025
Wavelength Unit : Wavelength(nm)
Spectrum Unit : Reflectance(%)
-----------Spectrum Setting ------------
Integration Time : 20ms
Average : 10
Boxcar : 0
Background removal :  enabled
linearity correction :  enabled
SC :  disabled
Intensity correction :  disabled
DWT denoise :  enabled
savitzky-golay :  disabled
FFT :  disabled
Running average :  disabled
Kalman :  disabled
High pass :  disabled
---------------BEGIN--------------------
Wavelength(nm)             Reflectance(%)
200.29               0
200.75        91.37435
201.21        85.73175
201.67        80.28962
202.13        77.71387
202.58        78.14563
203.04        81.23543
203.50         85.4373
203.96         87.8964
204.42        87.91704
204.88        86.48895
205.34         85.0814
205.80        85.41315
206.26        88.24571
206.72        94.91021
207.18        107.8306
207.64        118.5214
208.10        109.6883
208.55        93.35725
209.01        82.66771
209.47        77.39758
209.93        74.71424
210.39        73.34286
210.85        72.13515
211.31        69.51094
211.77        65.48582
212.23        60.82527
212.69          57.512
213.14        58.67816
213.60        64.42814
214.06        73.85651
214.52        84.13612
214.98         91.0092
215.44        93.20392
215.90        91.75636
216.36         88.5815
216.81         86.3019
217.27        85.94859
217.73        86.82565
218.19         87.3577
218.65        85.37413
219.11        80.02489
219.57         70.4549
220.02        58.53601
220.48        53.28481
220.94        59.06656
221.40        72.90075
221.86        84.78635
222.32        84.71484
222.77         74.5199
223.23        60.47959
223.69        48.74456
224.15        45.55512
224.61        50.25804
225.06        59.62146
225.52         69.7103
225.98        75.44042
226.44        75.73527
226.90        72.64176
227.36        68.47236
227.81        66.32598
228.27        67.18814
228.73        69.61134
229.19        72.44726
229.65         74.1192
230.10        74.25847
230.56         73.7936
231.02        73.14793
231.48        72.72694
231.93        72.59456
232.39        72.57683
232.85        72.71501
233.31        73.22229
233.77        74.06438
234.22         75.2237
234.68        76.26419
235.14        76.33631
235.60        75.25027
236.05        73.31325
236.51        71.14468
236.97         69.5342
237.43         68.6711
237.88        68.51221
238.34        68.82643
238.80        69.33479
239.26        69.86295
239.71        70.73895
240.17        71.78671
240.63        73.28151
241.08        75.27301
241.54        77.27784
242.00        79.44019
242.46        82.40898
242.91        87.49138
243.37        97.82403
243.83        124.5599
244.28        191.1986
244.74        229.5026
245.20        162.3912
245.66         123.236
246.11        113.4561
246.57        118.7907
247.03        145.9478
247.48        238.9057
247.94        230.0504
248.40        139.4427
248.85        107.1056
249.31        95.73177
249.77        92.11733
250.22        92.01034
250.68        93.98824
251.14        97.27493
251.59        97.97618
252.05        93.60042
252.51        87.11174
252.96        81.34075
253.42        78.85659
253.88        79.06411
254.33        80.62212
254.79        84.04637
255.25        89.35445
255.70        95.20511
256.16        101.0122
256.62        104.5815
257.07        103.7155
257.53        99.60165
257.99        93.32219
258.44        86.93238
258.90        83.82607
259.35        83.09284
259.81        83.51177
260.27        83.26969
260.72        80.63336
261.18        76.34212
261.63        71.09396
262.09        66.22249
262.55         62.4828
263.00        59.91428
263.46        58.31294
263.91        57.10773
264.37        56.08006
264.83         54.9683
265.28        53.70383
265.74        52.54874
266.19        51.56103
266.65        50.91244
267.11        50.48626
267.56          49.967
268.02        49.00764
268.47        47.51031
268.93        45.61393
269.38        43.67311
269.84        42.53886
270.30        42.40522
270.75        43.01821
271.21         43.8154
271.66        43.93727
272.12        43.18394
272.57        41.82045
273.03        40.30293
273.48        39.22627
273.94        38.78026
274.39        38.71167
274.85        38.77277
275.31        38.57747
275.76        38.02136
276.22        37.28851
276.67        36.51393
277.13        35.99688
277.58        35.72419
278.04        35.61853
278.49        35.48403
278.95        35.15014
279.40        34.54332
279.86        33.80993
280.31        33.01002
280.77        32.36384
281.22        31.87545
281.68        31.52016
282.13        31.23715
282.59        30.99964
283.04        30.76528
283.50        30.57929
283.95        30.38053
284.41        30.10941
284.86        29.74543
285.32        29.32016
285.77        28.91015
286.22        28.70482
286.68         28.7103
287.13        28.84134
287.59        28.94898
288.04        28.78966
288.50         28.3551
288.95        27.71126
289.41        27.03497
289.86        26.47437
290.32        26.13224
290.77        25.93713
291.22        25.87527
291.68        25.88569
292.13        25.94512
292.59        26.07467
293.04        26.27566
293.50        26.55345
293.95        26.88609
294.40        27.23505
294.86        27.56364
295.31        27.82829
295.77        28.02747
296.22        28.18446
296.68        28.31036
297.13        28.39557
297.58        28.47165
298.04        28.56331
298.49        28.74154
298.95        29.15073
299.40        29.79142
299.85        30.60806
300.31        31.46562
300.76        32.15979
301.21         32.6171
301.67        32.91504
302.12        33.08594
302.58        33.24666
303.03        33.41241
303.48        33.56364
303.94        33.75724
304.39        34.04202
304.84         34.4273
305.30        34.89856
305.75        35.33725
306.20        35.57143
306.66        35.59459
307.11        35.44521
307.57        35.27191
308.02        35.21653
308.47        35.34475
308.93        35.60719
309.38        35.92844
309.83        36.22421
310.29        36.45095
310.74        36.61826
311.19        36.73819
311.65        36.82838
312.10        36.88887
312.55        36.91163
313.00        36.86158
313.46        36.69667
313.91        36.41457
314.36        36.06067
314.82        35.73209
315.27        35.55206
315.72        35.55363
316.18        35.69284
316.63        35.89505
317.08        36.01126
317.53        35.99196
317.99        35.86658
318.44        35.69172
318.89        35.56294
319.35        35.49466
319.80        35.45961
320.25        35.39148
320.70        35.19177
321.16         34.8494
321.61        34.40997
322.06        33.95215
322.51        33.58854
322.97        33.33445
323.42        33.16537
323.87        33.02506
324.32        32.82242
324.78         32.5334
325.23        32.20131
325.68        31.85309
326.13        31.53631
326.59        31.26256
327.04         31.0323
327.49         30.8505
327.94        30.73282
328.39        30.67749
328.85        30.67124
329.30        30.70785
329.75        30.72608
330.20        30.70964
330.66        30.65328
331.11        30.59723
331.56        30.56069
332.01        30.54686
332.46        30.53173
332.92        30.50074
333.37        30.47285
333.82        30.43272
334.27        30.39694
334.72        30.32425
335.17        30.14401
335.63        29.85509
336.08        29.49146
336.53        29.16629
336.98        29.06632
337.43         29.2229
337.88        29.57917
338.34        29.96746
338.79        30.16078
339.24        30.06961
339.69        29.75558
340.14        29.35851
340.59        29.12899
341.05        29.13068
341.50        29.28925
341.95        29.48598
342.40        29.54588
342.85        29.43091
343.30        29.21464
343.75        28.96104
344.20        28.77893
344.66        28.70444
345.11         28.6616
345.56        28.65646
346.01        28.69813
346.46        28.76777
346.91        28.88156
347.36        28.92027
347.81         28.6908
348.26        28.19179
348.72        27.52018
349.17        26.87439
349.62        26.66013
350.07         26.9577
350.52        27.62068
350.97        28.41192
351.42        28.96618
351.87         29.1759
352.32        29.14645
352.77        28.95037
353.22         28.7105
353.67        28.48405
354.13        28.23366
354.58        27.99128
355.03        27.85192
355.48        27.82901
355.93         27.9216
356.38         28.0395
356.83        28.02191
357.28        27.83389
357.73        27.51401
358.18        27.16735
358.63        26.96499
359.08        26.94207
359.53         27.0444
359.98        27.15763
360.43        27.10474
360.88        26.85096
361.33        26.45816
361.78        26.04309
362.23         25.7931
362.68        25.74929
363.13        25.83936
363.58        25.96357
364.03        25.96795
364.48        25.81278
364.93        25.56057
365.38        25.25414
365.83        24.95837
366.28        24.70634
366.73        24.47277
367.18        24.29552
367.63         24.2416
368.08        24.30662
368.53        24.46383
368.98        24.62243
369.43         24.6349
369.88         24.4736
370.33        24.19053
370.78        23.85253
371.23        23.57801
371.68        23.41276
372.13        23.31811
372.58        23.30888
373.03         23.4055
373.48        23.58681
373.93          23.841
374.38        24.06899
374.83        24.11643
375.28        23.95757
375.72        23.62481
376.17         23.2457
376.62        22.99588
377.07        22.92694
377.52        22.98365
377.97        23.09924
378.42        23.16244
378.87         23.1354
379.32        23.05777
379.77        22.94501
380.22        22.81316
380.67        22.67286
381.11        22.51694
381.56         22.3542
382.01        22.21422
382.46         22.1042
382.91        22.01689
383.36        21.94793
383.81        21.88431
384.26        21.82118
384.71        21.76838
385.15        21.69831
385.60        21.58579
386.05        21.41934
386.50        21.19595
386.95         20.9752
387.40        20.86362
387.85         20.8806
388.29          20.986
388.74        21.09089
389.19        21.03884
389.64        20.81277
390.09        20.45133
390.54         20.0823
390.98        19.92315
391.43        20.02839
391.88        20.31211
392.33        20.61236
392.78        20.69052
393.23        20.51467
393.67        20.17001
394.12        19.82041
394.57        19.62344
395.02        19.61589
395.47        19.73361
395.91        19.92065
396.36        20.05224
396.81        20.08659
397.26        20.04899
397.71        19.96086
398.15        19.83246
398.60        19.70654
399.05        19.58621
399.50        19.46083
399.95        19.26109
400.39        19.07286
400.84        18.84588
401.29        18.66709
401.74        18.65244
402.18        18.83063
402.63        19.13759
403.08        19.46958
403.53        19.65838
403.97        19.65946
404.42        19.51808
404.87        19.29647
405.32        19.10934
405.76        18.99665
406.21        18.93089
406.66        18.89704
407.11        18.87881
407.55        18.87034
408.00        18.87634
408.45        18.87698
408.90        18.82227
409.34        18.70459
409.79         18.5409
410.24          18.381
410.68        18.29325
411.13        18.29338
411.58        18.36443
412.03        18.46169
412.47        18.50954
412.92        18.47339
413.37        18.37652
413.81        18.26983
414.26        18.24884
414.71         18.3206
415.15        18.45619
415.60        18.57468
416.05        18.56694
416.49        18.41087
416.94         18.1567
417.39        17.87376
417.83        17.68011
418.28        17.61926
418.73        17.64309
419.17        17.72553
419.62        17.82086
420.07        17.90784
420.51        18.00457
420.96        18.06549
421.41        18.01149
421.85        17.83413
422.30        17.58117
422.74          17.333
423.19        17.24573
423.64         17.3271
424.08        17.54186
424.53        17.78998
424.98        17.92449
425.42         17.9047
425.87        17.76466
426.31        17.56368
426.76        17.44505
427.21        17.41572
427.65         17.3215
428.10        17.22951
428.54         17.3534
428.99         17.6943
429.44        18.15549
429.88        18.54702
430.33         18.6309
430.77        18.36913
431.22        17.83774
431.66        17.26353
432.11        17.06339
432.56        17.27261
433.00        17.67644
433.45        18.06653
433.89        18.31352
434.34        18.29843
434.78        17.91064
435.23        17.42706
435.67        17.40731
436.12        17.79214
436.57        17.96005
437.01        17.83708
437.46        17.74983
437.90         17.7286
438.35         17.6796
438.79        17.59591
439.24        17.51671
439.68        17.45905
440.13        17.34664
440.57         17.2324
441.02         17.4313
441.46        17.81321
441.91        17.74001
442.35        17.29416
442.80        17.12412
443.24        17.20308
443.69        17.27479
444.13        17.27129
444.58        17.08483
445.02        16.78827
445.47        16.75472
445.91        16.92704
446.36        16.90782
446.80        16.67806
447.24         16.4715
447.69        16.34723
448.13        16.28604
448.58        16.30647
449.02        16.40684
449.47        16.53353
449.91        16.59714
450.36        16.57713
450.80        16.49059
451.25        16.38947
451.69        16.34507
452.13        16.37685
452.58        16.44976
453.02        16.52562
453.47        16.54444
453.91        16.49544
454.36        16.40634
454.80        16.29784
455.24        16.20115
455.69        16.13975
456.13         16.0955
456.58        16.09449
457.02        16.15102
457.46        16.26789
457.91        16.43022
458.35        16.59224
458.79        16.67543
459.24        16.67232
459.68        16.58933
460.13        16.48768
460.57        16.42339
461.01        16.42992
461.46        16.48536
461.90        16.55775
462.34         16.5874
462.79        16.55669
463.23        16.47731
463.68        16.40277
464.12        16.42417
464.56        16.55726
465.01         16.7791
465.45        16.97039
465.89        17.01907
466.34        16.92109
466.78        16.62315
467.22        16.27926
467.67        16.30144
468.11        16.64733
468.55        16.81306
468.99        16.74254
469.44        16.68483
469.88        16.69522
470.32         16.8356
470.77        17.04212
471.21        17.08575
471.65        16.94465
472.10        16.79186
472.54        16.69229
472.98        16.69553
473.42         16.8202
473.87        17.05012
474.31        17.30404
474.75        17.44895
475.20         17.4611
475.64        17.37624
476.08        17.25908
476.52        17.20944
476.97        17.25581
477.41        17.36764
477.85        17.50842
478.29        17.65333
478.74        17.78797
479.18        17.83361
479.62        17.80229
480.06        18.01458
480.50        18.10219
480.95        18.12637
481.39         17.9877
481.83         17.9038
482.27        17.89167
482.72        17.79023
483.16        17.65342
483.60        17.78444
484.04        18.17638
484.48        18.36748
484.93        18.57436
485.37        18.91973
485.81        19.43034
486.25        19.64683
486.69        26.48428
487.14        21.23725
487.58        13.55411
488.02        16.56057
488.46        18.98802
488.90        18.81787
489.34        18.87279
489.79        18.69732
490.23         19.8197
490.67        20.44403
491.11        20.31443
491.55        20.19346
491.99        20.05512
492.43        19.90832
492.88        19.83625
493.32        19.95454
493.76        20.10623
494.20        20.37003
494.64        20.67204
495.08        20.99047
495.52         21.3127
495.96        21.64102
496.41        21.90928
496.85        22.10525
497.29        22.21602
497.73        21.95553
498.17         21.6107
498.61        21.84199
499.05        22.63528
499.49         22.7958
499.93        22.85773
500.37        22.92987
500.82        22.96653
501.26        23.18899
501.70        23.48608
502.14        23.66988
502.58        23.69963
503.02        23.73592
503.46        23.78234
503.90        23.72397
504.34        23.61644
504.78        23.60914
505.22        23.72381
505.66        23.92219
506.10        24.13664
506.54        24.25084
506.98        24.23779
507.42        24.13997
507.86        24.03352
508.30        24.03519
508.74        24.16979
509.18        24.39224
509.62        24.64604
510.06        24.83872
510.50        24.94195
510.94        24.99348
511.38        25.00648
511.82        24.99971
512.26        24.98802
512.70        24.95697
513.14        24.94647
513.58        25.02672
514.02        25.19316
514.46        25.41613
514.90        25.61725
515.34        25.63702
515.78        25.42397
516.22        25.18011
516.66        24.99384
517.10        24.58223
517.54        23.98021
517.98        24.70193
518.42        24.51048
518.86        24.86765
519.30        25.08123
519.74        25.36006
520.18        25.62507
520.62        25.72022
521.06        25.64744
521.50        25.42934
521.93        25.15511
522.37        24.98588
522.81        24.96445
523.25        25.04535
523.69        25.17626
524.13        25.27319
524.57        25.30664
525.01        25.30307
525.45        25.26829
525.89        25.20952
526.32        25.13132
526.76        25.02835
527.20        24.90954
527.64        24.80185
528.08        24.71733
528.52        24.63112
528.96        24.53181
529.40         24.4663
529.83        24.44573
530.27         24.2098
530.71        24.23574
531.15        24.13444
531.59        24.05208
532.03        23.97515
532.46        23.93191
532.90        23.96635
533.34        24.06994
533.78        24.22069
534.22        24.36438
534.66        24.42278
535.09        24.37519
535.53        24.25797
535.97        24.10001
536.41        23.95479
536.85        23.84767
537.28        23.76902
537.72        23.73079
538.16        23.75213
538.60        23.83086
539.04        23.94154
539.47        24.05877
539.91        24.20501
540.35        24.34423
540.79        24.38407
541.22        24.34935
541.66         24.3782
542.10        24.48267
542.54        24.58707
542.97        24.69051
543.41        24.83376
543.85        25.01145
544.29         25.2267
544.72        25.43655
545.16        25.58224
545.60        25.65394
546.04         25.6635
546.47        25.68988
546.91        25.87102
547.35        26.21575
547.79        26.68226
548.22        27.14335
548.66        27.37881
549.10         27.3626
549.53        27.20635
549.97        27.04046
550.41         26.9988
550.84         27.1312
551.28        27.40948
551.72        27.77833
552.15        28.12947
552.59        28.41457
553.03        28.65787
553.46        28.85191
553.90        29.01269
554.34        29.15218
554.77        29.23129
555.21        29.25811
555.65        29.33976
556.08        29.50065
556.52        29.35827
556.96        29.59991
557.39        29.66764
557.83        29.77443
558.27        29.89722
558.70        30.04266
559.14        30.20301
559.57        30.35691
560.01        30.51185
560.45        30.64207
560.88        30.69693
561.32        30.69345
561.75        30.66561
562.19        30.64967
562.63        30.58687
563.06        30.52031
563.50        30.61459
563.93        30.84032
564.37        31.02256
564.80        31.13439
565.24        31.28564
565.68        31.44743
566.11        31.54178
566.55        31.59109
566.98        31.59319
567.42        31.61275
567.85        31.79237
568.29        32.14437
568.72        32.43381
569.16        32.68654
569.60         33.1412
570.03        33.63604
570.47        33.76236
570.90        33.65886
571.34         33.2962
571.77        33.72209
572.21        33.93072
572.64        33.99318
573.08        33.49543
573.51        32.45604
573.95        33.89793
574.38        36.17759
574.82        35.11539
