SpectraSmart Spectrum 2.9.0.0
--------- Device Information -----------
Spectrum Name :  反射率_0
Saving Time :  2024/04/25 23:35:39
Spectro-Module Model Name : SE2030-DUVN
Spectro-Module Serial Number : OS361AC55029948
Wavelength Start : 200
Wavelength End : 1025
Wavelength Unit : Wavelength(nm)
Spectrum Unit : Reflectance(%)
-----------Spectrum Setting ------------
Integration Time : 20ms
Average : 10
Boxcar : 0
Background removal :  enabled
linearity correction :  enabled
SC :  disabled
Intensity correction :  disabled
DWT denoise :  enabled
savitzky-golay :  disabled
FFT :  disabled
Running average :  disabled
Kalman :  disabled
High pass :  disabled
---------------BEGIN--------------------
Wavelength(nm)             Reflectance(%)
200.29               0
200.75        87.49424
201.21        77.94461
201.67        67.43783
202.13        61.70157
202.58        61.37618
203.04        65.12598
203.50        70.81859
203.96        74.56295
204.42        75.17503
204.88        74.04294
205.34        72.73417
205.80        72.96674
206.26         75.5279
206.72        81.59588
207.18        93.16853
207.64        102.0968
208.10        93.15054
208.55        78.03635
209.01        68.88361
209.47        65.77926
209.93        66.08901
210.39        68.72612
210.85        71.94312
211.31        72.14825
211.77         68.4204
212.23        62.21002
212.69        56.71744
213.14        56.94722
213.60         63.4879
214.06        74.79234
214.52        87.17914
214.98        95.10583
215.44        96.99548
215.90        94.46586
216.36        89.90067
216.81        86.52298
217.27        85.56664
217.73        86.11625
218.19        86.45456
218.65        84.24756
219.11        78.53813
219.57        68.45174
220.02        55.88634
220.48        50.07748
220.94        55.60263
221.40        69.52177
221.86        81.48391
222.32        81.08584
222.77        70.23683
223.23         55.3569
223.69        42.97634
224.15        39.71766
224.61        44.82052
225.06        54.82067
225.52        65.33746
225.98        70.67473
226.44        69.69357
226.90        64.72163
227.36        58.55456
227.81        54.94117
228.27        55.04693
228.73        57.32859
229.19        60.36718
229.65        62.17239
230.10          62.291
230.56        61.67678
231.02        61.05303
231.48        61.17769
231.93        62.06936
232.39        63.35935
232.85        64.60227
233.31        65.25814
233.77        65.14008
234.22         64.3988
234.68        63.20439
235.14        61.91431
235.60         60.7744
236.05        59.81993
236.51        58.93144
236.97        57.77885
237.43        56.23867
237.88        54.37297
238.34        52.52412
238.80        51.96859
239.26        53.31137
239.71         56.3765
240.17        59.95168
240.63        62.31714
241.08        62.96755
241.54        62.29649
242.00        60.95271
242.46         59.7481
242.91        58.96719
243.37        57.74796
243.83        57.18894
244.28         70.6954
244.74         113.202
245.20        124.1825
245.66        117.4303
246.11        114.4043
246.57        114.7329
247.03         117.506
247.48        115.6014
247.94        77.31471
248.40        69.83408
248.85        72.09231
249.31        74.97919
249.77          78.183
250.22        82.47445
250.68        89.20554
251.14        98.47709
251.59        104.6293
252.05        101.8949
252.51        92.62364
252.96        82.15861
253.42        75.93018
253.88        73.48939
254.33        73.00539
254.79        74.26711
255.25        76.41222
255.70        78.61594
256.16        81.03896
256.62        82.29973
257.07        80.92876
257.53        77.64039
257.99           72.88
258.44        68.12181
258.90        65.96489
259.35        65.59985
259.81        66.11311
260.27        65.84785
260.72        63.21851
261.18        58.92634
261.63        53.66761
262.09        48.95588
262.55        45.87549
263.00        44.36789
263.46        43.97289
263.91        43.77961
264.37        43.09551
264.83         41.7646
265.28        39.93668
265.74        38.26579
266.19         37.4611
266.65        37.65395
267.11        38.38162
267.56        38.95729
268.02        38.59937
268.47        37.20953
268.93        35.09403
269.38        32.74074
269.84          31.229
270.30        30.87038
270.75        31.36677
271.21        32.17861
271.66        32.48738
272.12        32.07347
272.57        31.19421
273.03        30.23714
273.48        29.69397
273.94        29.69745
274.39         30.0032
274.85        30.33032
275.31         30.2756
275.76        29.75015
276.22        28.94605
276.67        28.06844
277.13        27.49932
277.58        27.26106
278.04        27.25113
278.49        27.25135
278.95        27.02608
279.40        26.50123
279.86        25.83081
280.31         25.1087
280.77        24.58163
281.22        24.26343
281.68         24.1041
282.13         24.0137
282.59        23.90867
283.04          23.749
283.50        23.58784
283.95        23.41644
284.41        23.24085
284.86        23.05379
285.32        22.85704
285.77        22.66946
286.22        22.58627
286.68        22.59614
287.13         22.6494
287.59          22.658
288.04         22.4811
288.50         22.1233
288.95        21.62276
289.41        21.09179
289.86        20.59496
290.32        20.21677
290.77        19.92621
291.22        19.75963
291.68        19.73201
292.13        19.83778
292.59        20.06263
293.04        20.37436
293.50        20.72291
293.95        21.06973
294.40        21.39543
294.86        21.66448
295.31        21.83827
295.77         21.9194
296.22        21.92377
296.68        21.89013
297.13        21.85663
297.58        21.86392
298.04        21.92883
298.49        22.07275
298.95         22.3545
299.40        22.76348
299.85        23.27034
300.31        23.81287
300.76        24.30719
301.21        24.70318
301.67        25.03202
302.12        25.25546
302.58        25.36977
303.03         25.3737
303.48         25.2867
303.94        25.21574
304.39        25.29417
304.84        25.54838
305.30         25.9285
305.75        26.30002
306.20        26.46081
306.66        26.39076
307.11        26.15215
307.57        25.87239
308.02        25.67426
308.47        25.61916
308.93        25.65696
309.38        25.76313
309.83        25.92918
310.29        26.12139
310.74        26.33349
311.19        26.50236
311.65        26.52826
312.10        26.39581
312.55         26.1357
313.00         25.8038
313.46        25.50736
313.91        25.27851
314.36        25.10724
314.82        25.00605
315.27        24.97875
315.72         25.0198
316.18        25.12467
316.63        25.24906
317.08        25.29633
317.53         25.2403
317.99        25.09329
318.44        24.91586
318.89        24.81139
319.35        24.79783
319.80        24.85054
320.25         24.8947
320.70        24.80887
321.16        24.56954
321.61        24.21824
322.06        23.84247
322.51        23.57179
322.97        23.42891
323.42        23.38563
323.87        23.36179
324.32        23.22585
324.78        22.94672
325.23        22.57105
325.68        22.18292
326.13        21.91854
326.59        21.80962
327.04        21.83301
327.49        21.90875
327.94        21.90596
328.39         21.7891
328.85        21.58616
329.30        21.39594
329.75        21.35697
330.20        21.50049
330.66        21.75621
331.11        22.04155
331.56        22.18337
332.01        22.13267
332.46        21.93042
332.92        21.64436
333.37        21.42159
333.82        21.31495
334.27        21.30201
334.72        21.33531
335.17        21.33218
335.63        21.26466
336.08        21.15798
336.53        21.07501
336.98        21.11558
337.43        21.29199
337.88        21.57168
338.34        21.81653
338.79        21.85071
339.24        21.61884
339.69        21.17768
340.14        20.71256
340.59        20.54399
341.05        20.73491
341.50         21.1811
341.95        21.68437
342.40        21.95315
342.85        21.92222
343.30        21.69528
343.75         21.3665
344.20        21.10464
344.66        20.97079
345.11        20.87072
345.56        20.82566
346.01         20.8674
346.46        20.97572
346.91        21.16826
347.36        21.28541
347.81        21.06454
348.26        20.49338
348.72        19.68948
349.17        18.90335
349.62        18.63089
350.07        18.97397
350.52        19.75662
350.97        20.69026
351.42        21.33144
351.87        21.55194
352.32        21.47994
352.77        21.22143
353.22        20.95165
353.67        20.74149
354.13        20.53502
354.58         20.3383
355.03        20.20563
355.48        20.14204
355.93        20.16245
356.38         20.2051
356.83         20.1517
357.28        19.97699
357.73        19.70574
358.18        19.41763
358.63         19.2429
359.08        19.20996
359.53        19.28382
359.98        19.37145
360.43        19.32819
360.88        19.12781
361.33        18.81632
361.78        18.50588
362.23         18.3776
362.68        18.46067
363.13        18.67851
363.58        18.90642
364.03        18.95316
364.48        18.77437
364.93        18.44492
365.38         18.0372
365.83        17.66565
366.28        17.38051
366.73         17.1481
367.18         16.9955
367.63        16.96744
368.08        17.05265
368.53        17.23391
368.98        17.42343
369.43        17.47729
369.88        17.36795
370.33        17.14026
370.78        16.86013
371.23        16.64753
371.68         16.5449
372.13        16.51074
372.58        16.54857
373.03        16.66077
373.48        16.82379
373.93        17.03361
374.38        17.20717
374.83        17.21414
375.28        17.03661
375.72        16.70292
376.17        16.33674
376.62        16.10356
377.07        16.05234
377.52        16.13315
377.97        16.28071
378.42        16.38472
378.87         16.4064
379.32        16.38067
379.77         16.3231
380.22        16.25315
380.67        16.18018
381.11         16.0935
381.56        15.99515
382.01        15.90296
382.46        15.82092
382.91        15.74647
383.36        15.67895
383.81        15.61201
384.26        15.54483
384.71        15.48587
385.15        15.41644
385.60        15.31748
386.05        15.18062
386.50        15.00172
386.95        14.82732
387.40        14.73956
387.85        14.75395
388.29        14.84625
388.74         14.9348
389.19        14.89316
389.64         14.7099
390.09        14.41812
390.54        14.13493
390.98        14.05684
391.43        14.22941
391.88        14.57165
392.33        14.92768
392.78        15.06994
393.23        14.96395
393.67        14.68524
394.12        14.38663
394.57        14.22869
395.02        14.24749
395.47         14.3854
395.91        14.56943
396.36        14.65176
396.81        14.59116
397.26        14.42739
397.71        14.22812
398.15        14.07494
398.60        14.01033
399.05        14.00981
399.50        14.01228
399.95         13.8934
400.39        13.70169
400.84        13.42529
401.29        13.17318
401.74        13.11415
402.18        13.29468
402.63        13.63674
403.08        14.01615
403.53        14.23524
403.97        14.24073
404.42        14.09055
404.87         13.8601
405.32        13.68388
405.76        13.60824
406.21        13.59472
406.66         13.6156
407.11        13.63697
407.55        13.64932
408.00        13.66532
408.45        13.67898
408.90        13.66498
409.34        13.61831
409.79        13.54241
410.24        13.46553
410.68        13.42966
411.13        13.44591
411.58        13.50862
412.03        13.58609
412.47        13.62369
412.92        13.59904
413.37         13.5279
413.81        13.45965
414.26        13.48527
414.71        13.60914
415.15        13.80226
415.60        13.97704
416.05        14.01386
416.49        13.88552
416.94        13.64279
417.39        13.35781
417.83         13.1553
418.28        13.08417
418.73        13.10097
419.17        13.17667
419.62        13.25623
420.07         13.3208
420.51        13.38929
420.96         13.4397
421.41         13.4287
421.85        13.34853
422.30         13.2254
422.74        13.09892
423.19        13.06202
423.64        13.11718
424.08        13.24673
424.53        13.39151
424.98        13.47301
425.42        13.47212
425.87         13.4077
426.31        13.30781
426.76        13.25833
427.21        13.25494
427.65        13.18119
428.10        13.10336
428.54        13.20625
428.99        13.49392
429.44        13.88783
429.88        14.21382
430.33        14.24411
430.77        13.95181
431.22        13.41698
431.66        12.86325
432.11        12.67572
432.56        12.89518
433.00        13.34687
433.45        13.82489
433.89         14.1314
434.34        14.13597
434.78        13.77765
435.23        13.32343
435.67        13.27101
436.12         13.5906
436.57        13.78753
437.01        13.76734
437.46        13.72068
437.90        13.65776
438.35        13.53227
438.79        13.37853
439.24        13.28508
439.68        13.27642
440.13         13.2701
440.57         13.2758
441.02         13.4889
441.46         13.7936
441.91        13.71088
442.35        13.31683
442.80        13.13035
443.24        13.13478
443.69        13.13246
444.13         13.0754
444.58        12.89438
445.02        12.64828
445.47         12.6179
445.91        12.76022
446.36        12.77501
446.80        12.64177
447.24        12.53222
447.69        12.48051
448.13        12.45305
448.58        12.46145
449.02        12.51106
449.47        12.56891
449.91        12.58078
450.36        12.53864
450.80        12.45226
451.25           12.37
451.69        12.35738
452.13        12.42828
452.58         12.5491
453.02        12.67385
453.47        12.72604
453.91        12.69313
454.36        12.60582
454.80        12.49297
455.24         12.4036
455.69        12.36345
456.13        12.34801
456.58        12.37686
457.02        12.46013
457.46        12.59721
457.91        12.77833
458.35        12.95303
458.79        13.03187
459.24        13.00773
459.68        12.89206
460.13        12.76394
460.57        12.71222
461.01        12.77151
461.46        12.90662
461.90        13.06044
462.34        13.13055
462.79        13.09213
463.23         12.9718
463.68        12.84136
464.12        12.82079
464.56        12.93922
465.01        13.15931
465.45        13.37087
465.89        13.46207
466.34        13.42275
466.78        13.21896
467.22        12.97263
467.67        13.01094
468.11        13.30105
468.55        13.43877
468.99        13.38384
469.44        13.34483
469.88        13.36902
470.32         13.5048
470.77        13.69548
471.21        13.74882
471.65        13.64365
472.10        13.52268
472.54          13.443
472.98        13.45534
473.42        13.57663
473.87        13.78975
474.31        14.02017
474.75         14.1452
475.20        14.14231
475.64        14.04283
476.08         13.9133
476.52        13.85612
476.97        13.89886
477.41        14.01498
477.85        14.15284
478.29        14.25615
478.74        14.30856
479.18        14.25775
479.62        14.15341
480.06        14.31078
480.50        14.44481
480.95        14.58054
481.39         14.5867
481.83        14.56356
482.27        14.51116
482.72         14.3233
483.16         14.0882
483.60        14.12675
484.04        14.44718
484.48        14.64843
484.93        14.88625
485.37        15.25706
485.81        15.70319
486.25        15.98156
486.69        21.04416
487.14         16.8922
487.58        10.97006
488.02         13.3343
488.46        15.41709
488.90        15.47438
489.34        15.52659
489.79        15.34466
490.23         16.0915
490.67        16.53496
491.11        16.47022
491.55        16.38182
491.99        16.23611
492.43         16.0923
492.88        16.01624
493.32        16.06897
493.76        16.14293
494.20        16.34515
494.64        16.62296
495.08         16.9451
495.52        17.27567
495.96        17.58345
496.41        17.80686
496.85         17.9289
497.29        17.96616
497.73        17.77308
498.17        17.57002
498.61        17.78889
499.05        18.41378
499.49        18.54923
499.93        18.63167
500.37        18.70066
500.82        18.72682
501.26        18.93097
501.70        19.22351
502.14        19.43249
502.58        19.51553
503.02        19.59286
503.46        19.66095
503.90        19.63068
504.34        19.53679
504.78        19.48359
505.22        19.49289
505.66        19.54496
506.10        19.61729
506.54        19.66978
506.98        19.69368
507.42        19.70428
507.86        19.73833
508.30        19.85001
508.74        20.04259
509.18        20.28871
509.62        20.53283
510.06        20.68585
510.50        20.72808
510.94        20.69508
511.38        20.62666
511.82        20.58655
512.26        20.59732
512.70        20.63368
513.14        20.70515
513.58        20.82656
514.02        20.97894
514.46         21.1517
514.90        21.28627
515.34        21.25355
515.78        21.01091
516.22        20.75558
516.66        20.58056
517.10        20.18593
517.54        19.60262
517.98        20.43355
518.42        20.28686
518.86        20.66417
519.30        20.82982
519.74        21.01694
520.18        21.18404
520.62        21.23527
521.06        21.18813
521.50        21.04614
521.93        20.86309
522.37        20.74159
522.81        20.70837
523.25        20.73752
523.69         20.8035
524.13        20.86312
524.57        20.89773
525.01        20.91928
525.45        20.91935
525.89        20.88317
526.32         20.8094
526.76        20.70306
527.20        20.57988
527.64        20.47482
528.08        20.40217
528.52        20.33609
528.96        20.26823
529.40        20.23907
529.83        20.25669
530.27        20.10498
530.71        20.16925
531.15        20.10975
531.59        20.04467
532.03        19.96446
532.46        19.90784
532.90        19.93943
533.34        20.05551
533.78        20.22861
534.22        20.38953
534.66        20.43709
535.09        20.34832
535.53        20.16674
535.97        19.94359
536.41        19.76506
536.85        19.66415
537.28        19.62323
537.72        19.63065
538.16        19.66636
538.60        19.71945
539.04        19.77897
539.47        19.84787
539.91        19.97912
540.35        20.14892
540.79        20.26891
541.22        20.32746
541.66         20.3904
542.10        20.45801
542.54         20.4806
542.97         20.4957
543.41        20.59769
543.85        20.79378
544.29        21.06853
544.72        21.34209
545.16        21.49698
545.60         21.5116
546.04        21.41822
546.47        21.33026
546.91        21.43773
547.35         21.7639
547.79        22.24914
548.22        22.74208
548.66        22.98631
549.10        22.94507
549.53        22.73746
549.97        22.51219
550.41        22.43933
550.84        22.57482
551.28        22.87509
551.72        23.26905
552.15        23.62615
552.59        23.89182
553.03        24.10143
553.46        24.25937
553.90        24.39168
554.34        24.51485
554.77        24.58916
555.21        24.62514
555.65        24.71938
556.08        24.89092
556.52         24.8148
556.96        25.05961
557.39        25.13671
557.83        25.22119
558.27        25.29512
558.70        25.37609
559.14        25.47611
559.57        25.58569
560.01        25.71183
560.45        25.81792
560.88        25.84587
561.32         25.8122
561.75         25.7262
562.19        25.65334
562.63        25.65768
563.06        25.74851
563.50        25.90526
563.93        26.09501
564.37        26.27768
564.80        26.42697
565.24        26.56626
565.68        26.67724
566.11        26.73454
566.55        26.76167
566.98        26.75909
567.42        26.78805
567.85        26.93751
568.29        27.23288
568.72        27.56726
569.16        27.92814
569.60        28.32726
570.03        28.61129
570.47        28.62633
570.90        28.55682
571.34         27.8764
571.77        28.48513
572.21        28.56255
572.64        28.70049
573.08        28.30533
573.51        27.52313
573.95         28.7064
574.38        30.45891
574.82        29.79941
