SpectraSmart Spectrum 2.9.0.0
--------- Device Information -----------
Spectrum Name :  反射率_0
Saving Time :  2024/04/25 22:50:30
Spectro-Module Model Name : SE2030-DUVN
Spectro-Module Serial Number : OS361AC55029948
Wavelength Start : 200
Wavelength End : 1025
Wavelength Unit : Wavelength(nm)
Spectrum Unit : Reflectance(%)
-----------Spectrum Setting ------------
Integration Time : 20ms
Average : 10
Boxcar : 0
Background removal :  enabled
linearity correction :  enabled
SC :  disabled
Intensity correction :  disabled
DWT denoise :  enabled
savitzky-golay :  disabled
FFT :  disabled
Running average :  disabled
Kalman :  disabled
High pass :  disabled
---------------BEGIN--------------------
Wavelength(nm)             Reflectance(%)
200.29               0
200.75         82.7182
201.21        75.05589
201.67        66.26484
202.13        60.45216
202.58        58.09727
203.04        58.32529
203.50        60.22001
203.96        62.11327
204.42        63.21722
204.88        63.97413
205.34        64.48696
205.80        64.87047
206.26        65.35094
206.72        66.10303
207.18        67.23264
207.64        68.14365
208.10        67.32838
208.55        65.33797
209.01        64.56139
209.47        65.81046
209.93        68.65302
210.39        73.28057
210.85        77.71297
211.31        77.38534
211.77        71.23252
212.23        60.97992
212.69        51.37437
213.14        49.78501
213.60        57.18679
214.06        71.47936
214.52        87.00724
214.98        95.00986
215.44        93.49406
215.90         85.4557
216.36        75.19852
216.81        68.76381
217.27        67.70618
217.73        69.80862
218.19        72.13983
218.65        70.88965
219.11        64.68909
219.57        53.10977
220.02        37.82354
220.48        28.48967
220.94        30.80676
221.40        42.25286
221.86        53.69357
222.32        55.60234
222.77        48.92957
223.23        38.79185
223.69        30.35101
224.15        28.84528
224.61        33.66704
225.06        42.10283
225.52        50.47043
225.98        54.09099
226.44        52.17255
226.90        46.84929
227.36        40.65061
227.81        36.94464
228.27        36.81482
228.73        38.85659
229.19        42.04267
229.65        44.87469
230.10        46.71893
230.56        48.02838
231.02        48.89546
231.48        49.36578
231.93        49.51962
232.39         49.3403
232.85        48.90017
233.31        48.41973
233.77        47.94627
234.22        47.42197
234.68        46.89161
235.14        46.37725
235.60        45.92528
236.05        45.64591
236.51        45.40057
236.97        44.86222
237.43        43.98112
237.88        42.84258
238.34        41.81015
238.80        42.03004
239.26        44.01262
239.71        47.50982
240.17        51.64564
240.63        55.29684
241.08        57.98074
241.54        59.72135
242.00        60.68643
242.46        61.26809
242.91        61.85903
243.37        62.21879
243.83        63.81517
244.28        76.77208
244.74        106.1995
245.20        109.2512
245.66        103.1668
246.11        102.1687
246.57        106.1801
247.03        118.9907
247.48        156.5415
247.94        141.7691
248.40        102.6492
248.85        89.88686
249.31         85.9615
249.77         85.2082
250.22        86.02958
250.68        88.16967
251.14        90.85981
251.59        90.14648
252.05          83.977
252.51         75.3394
252.96        67.83234
253.42        64.39793
253.88        64.19295
254.33        65.89671
254.79        69.27504
255.25        73.33262
255.70        77.07087
256.16        80.52996
256.62        82.30994
257.07        81.00621
257.53        77.46873
257.99        72.24406
258.44        67.07551
258.90        64.83607
259.35        64.67828
259.81        65.55054
260.27        65.56734
260.72         62.9138
261.18        58.36184
261.63        52.75774
262.09        47.77143
262.55        44.68277
263.00        43.37508
263.46        43.20756
263.91        43.19482
264.37        42.56638
264.83        41.15688
265.28        39.18559
265.74        37.23015
266.19        35.90535
266.65        35.43301
267.11        35.46104
267.56        35.51214
268.02        35.01889
268.47        33.87744
268.93        32.30239
269.38        30.60741
269.84        29.54373
270.30        29.29833
270.75        29.64741
271.21        30.17244
271.66        30.25541
272.12        29.73258
272.57        28.79988
273.03        27.77714
273.48        27.06481
273.94        26.78609
274.39        26.75795
274.85        26.78009
275.31        26.55701
275.76        26.02085
276.22        25.32087
276.67        24.59151
277.13        24.10409
277.58        23.86392
278.04         23.7987
278.49        23.75283
278.95        23.56766
279.40        23.18378
279.86        22.71536
280.31         22.2049
280.77        21.81912
281.22        21.55531
281.68         21.3831
282.13        21.26139
282.59        21.16658
283.04        21.07596
283.50        21.02697
283.95        20.96701
284.41        20.83124
284.86         20.6076
285.32        20.32299
285.77        20.07213
286.22        20.05688
286.68         20.2782
287.13        20.64797
287.59        20.98281
288.04        21.00514
288.50        20.69242
288.95        20.12758
289.41         19.5093
289.86         19.0354
290.32        18.81113
290.77        18.75673
291.22        18.83002
291.68        18.92905
292.13        19.02764
292.59        19.16149
293.04        19.35997
293.50         19.6654
293.95        20.06815
294.40          20.517
294.86        20.95381
295.31        21.30768
295.77        21.56495
296.22        21.75136
296.68        21.89361
297.13        22.00666
297.58        22.12659
298.04        22.27223
298.49        22.48032
298.95        22.84078
299.40        23.35034
299.85         23.9689
300.31        24.62942
300.76        25.23609
301.21        25.73454
301.67        26.16717
302.12        26.48206
302.58        26.65682
303.03        26.69236
303.48        26.61297
303.94        26.56591
304.39         26.7457
304.84        27.18246
305.30        27.80116
305.75        28.40333
306.20        28.68919
306.66        28.61983
307.11        28.28946
307.57        27.88534
308.02        27.61581
308.47         27.5668
308.93        27.66553
309.38        27.85256
309.83         28.0658
310.29         28.2577
310.74         28.4383
311.19         28.5754
311.65        28.61392
312.10        28.54457
312.55        28.38055
313.00        28.13661
313.46        27.85577
313.91        27.55829
314.36        27.25957
314.82        27.02039
315.27        26.91444
315.72        26.95434
316.18         27.1144
316.63        27.31776
317.08        27.41405
317.53        27.35751
317.99        27.17162
318.44         26.9372
318.89        26.78955
319.35        26.75364
319.80         26.7966
320.25        26.81586
320.70        26.64703
321.16        26.26482
321.61         25.7329
322.06        25.18825
322.51         24.8326
322.97        24.70109
323.42        24.74117
323.87        24.82726
324.32        24.74887
324.78        24.44855
325.23        23.99609
325.68        23.49719
326.13        23.12665
326.59        22.93074
327.04        22.87155
327.49        22.87526
327.94        22.82293
328.39        22.67962
328.85        22.47837
329.30        22.29473
329.75        22.22037
330.20        22.27964
330.66        22.41601
331.11        22.58689
331.56        22.68554
332.01         22.6751
332.46        22.57036
332.92         22.3996
333.37        22.24025
333.82        22.11535
334.27        22.02188
334.72        21.91924
335.17        21.74021
335.63        21.47746
336.08        21.16142
336.53        20.89272
336.98        20.82832
337.43        20.99099
337.88        21.33407
338.34        21.68372
338.79        21.79946
339.24        21.60126
339.69        21.15644
340.14        20.65613
340.59        20.43781
341.05        20.57343
341.50        20.95143
341.95        21.38091
342.40        21.58235
342.85        21.49155
343.30        21.21274
343.75        20.83585
344.20        20.51915
344.66        20.32522
345.11        20.16953
345.56        20.07712
346.01        20.08398
346.46        20.17156
346.91        20.35235
347.36        20.47589
347.81        20.29487
348.26        19.79407
348.72          19.083
349.17        18.38186
349.62        18.13758
350.07        18.44301
350.52        19.13867
350.97        19.96894
351.42        20.54331
351.87        20.74446
352.32        20.67958
352.77        20.43921
353.22        20.17245
353.67        19.94249
354.13        19.71155
354.58        19.47511
355.03        19.26764
355.48        19.10101
355.93        18.99843
356.38        18.95058
356.83        18.92198
357.28        18.89776
357.73         18.8724
358.18        18.85316
358.63        18.85596
359.08        18.87785
359.53        18.91105
359.98        18.91433
360.43        18.82901
360.88        18.64952
361.33         18.3925
361.78        18.13251
362.23        17.99028
362.68        17.98642
363.13        18.08078
363.58         18.1803
364.03        18.13715
364.48        17.92222
364.93        17.59111
365.38        17.22251
365.83        16.94227
366.28        16.78986
366.73         16.7233
367.18        16.71741
367.63        16.73145
368.08        16.74051
368.53        16.75765
368.98        16.75796
369.43        16.69639
369.88        16.57424
370.33         16.4118
370.78        16.24641
371.23        16.14705
371.68        16.13464
372.13        16.17982
372.58        16.28863
373.03        16.46609
373.48         16.6871
373.93        16.93836
374.38         17.1296
374.83        17.12611
375.28         16.9127
375.72        16.52396
376.17        16.10069
376.62        15.83384
377.07         15.7797
377.52        15.88348
377.97        16.06552
378.42        16.19018
378.87        16.21203
379.32        16.17372
379.77        16.10112
380.22        16.02895
380.67        15.96996
381.11        15.90723
381.56        15.83512
382.01        15.76041
382.46        15.68243
382.91        15.59991
383.36         15.5186
383.81        15.44187
384.26         15.3718
384.71        15.31688
385.15        15.24746
385.60        15.12728
386.05        14.94778
386.50        14.71152
386.95        14.48973
387.40        14.40516
387.85        14.47729
388.29        14.66159
388.74        14.84235
389.19        14.85321
389.64         14.6752
390.09        14.35084
390.54        14.01473
390.98        13.89433
391.43        14.04507
391.88         14.3788
392.33        14.72285
392.78        14.82475
393.23        14.65056
393.67        14.29108
394.12        13.92147
394.57        13.73172
395.02        13.76116
395.47        13.94054
395.91         14.1786
396.36        14.29511
396.81        14.23725
397.26        14.05565
397.71         13.8273
398.15        13.64886
398.60        13.56864
399.05        13.55674
399.50        13.55597
399.95        13.44996
400.39        13.28466
400.84        13.04889
401.29         12.8409
401.74        12.80876
402.18        12.99281
402.63        13.32068
403.08         13.6792
403.53        13.88941
403.97        13.90301
404.42        13.77137
404.87        13.56488
405.32        13.40955
405.76        13.34729
406.21        13.34226
406.66        13.36536
407.11        13.37941
407.55         13.3762
408.00          13.371
408.45        13.36264
408.90        13.33615
409.34        13.29039
409.79        13.22437
410.24        13.16697
410.68        13.16139
411.13        13.21648
411.58        13.32598
412.03        13.44293
412.47         13.4865
412.92        13.42772
413.37        13.28807
413.81        13.14074
414.26        13.11342
414.71        13.21903
415.15        13.42197
415.60        13.61092
416.05        13.62583
416.49        13.43366
416.94        13.10141
417.39        12.73368
417.83        12.50931
418.28        12.48699
418.73        12.59702
419.17        12.77901
419.62        12.93382
420.07        13.02837
420.51        13.09513
420.96        13.11056
421.41        13.03065
421.85         12.8596
422.30        12.63093
422.74        12.41083
423.19        12.32639
423.64         12.3847
424.08        12.55878
424.53        12.77192
424.98        12.90886
425.42        12.93368
425.87         12.8715
426.31        12.75544
426.76        12.67996
427.21        12.64718
427.65        12.54453
428.10        12.43706
428.54        12.50473
428.99        12.75478
429.44         13.1131
429.88         13.4256
430.33        13.48924
430.77         13.2747
431.22        12.84808
431.66         12.3952
432.11        12.24829
432.56        12.43864
433.00         12.8037
433.45        13.16984
433.89        13.40041
434.34        13.39115
434.78        13.07381
435.23        12.67379
435.67        12.62424
436.12        12.88971
436.57        13.01271
437.01        12.93314
437.46        12.87678
437.90        12.86184
438.35        12.82566
438.79        12.76876
439.24          12.729
439.68        12.71758
440.13        12.66989
440.57        12.61275
441.02        12.75908
441.46        13.00736
441.91        12.89757
442.35        12.49992
442.80        12.29733
443.24        12.27057
443.69        12.24065
444.13        12.15894
444.58        11.95481
445.02        11.68441
445.47        11.60829
445.91        11.69811
446.36         11.6994
446.80        11.59555
447.24        11.53597
447.69          11.531
448.13        11.51542
448.58         11.4935
449.02        11.48124
449.47        11.46994
449.91        11.44513
450.36        11.40941
450.80         11.3608
451.25         11.3289
451.69        11.35015
452.13        11.42993
452.58        11.54339
453.02        11.65626
453.47        11.70869
453.91        11.69211
454.36        11.63011
454.80         11.5414
455.24        11.46009
455.69        11.40802
456.13        11.36713
456.58        11.36635
457.02        11.43012
457.46        11.56055
457.91        11.74385
458.35        11.92394
458.79         12.0011
459.24        11.96712
459.68        11.84018
460.13        11.70324
460.57        11.65257
461.01        11.72277
461.46        11.87125
461.90        12.04322
462.34        12.14003
462.79        12.13499
463.23        12.05432
463.68        11.94967
464.12        11.90637
464.56        11.95303
465.01        12.06885
465.45        12.18287
465.89        12.23251
466.34        12.21445
466.78         12.0851
467.22        11.93478
467.67         12.0318
468.11        12.33612
468.55        12.48052
468.99        12.43434
469.44        12.40537
469.88        12.44129
470.32        12.57936
470.77        12.76202
471.21        12.80528
471.65        12.68873
472.10         12.5515
472.54        12.44987
472.98         12.4354
473.42        12.52777
473.87        12.71187
474.31        12.92218
474.75        13.04897
475.20        13.07083
475.64        13.01354
476.08        12.93506
476.52        12.92499
476.97        13.00607
477.41        13.15453
477.85         13.3173
478.29        13.43516
478.74        13.49197
479.18        13.43801
479.62        13.32994
480.06        13.48212
480.50        13.62792
480.95        13.78303
481.39        13.81143
481.83        13.79322
482.27         13.7275
482.72        13.51655
483.16        13.25434
483.60        13.28249
484.04        13.61511
484.48        13.81525
484.93        14.05853
485.37        14.51733
485.81        14.97556
486.25        15.22723
486.69        19.60799
487.14        15.30426
487.58        10.34939
488.02        12.76468
488.46        14.76608
488.90        14.86221
489.34        14.80143
489.79        14.68996
490.23        15.55092
490.67        16.08271
491.11        16.04156
491.55        15.90941
491.99        15.68073
492.43        15.50073
492.88        15.44656
493.32        15.50627
493.76        15.57839
494.20         15.8109
494.64        16.15149
495.08        16.55051
495.52        16.95624
495.96        17.31652
496.41        17.56497
496.85        17.69142
497.29        17.72307
497.73        17.53519
498.17        17.35093
498.61        17.59044
499.05        18.23904
499.49        18.40868
499.93        18.52689
500.37        18.63363
500.82        18.68908
501.26        18.89666
501.70        19.16625
502.14        19.33346
502.58        19.37238
503.02         19.4284
503.46        19.50514
503.90        19.50659
504.34         19.4589
504.78        19.45227
505.22        19.50176
505.66        19.58961
506.10        19.68947
506.54        19.75512
506.98        19.77673
507.42        19.77068
507.86         19.7782
508.30        19.86164
508.74        20.02865
509.18        20.25267
509.62        20.48175
510.06        20.63112
510.50        20.68174
510.94        20.66816
511.38        20.62631
511.82        20.61308
512.26        20.64842
512.70        20.70792
513.14        20.79993
513.58        20.93833
514.02        21.10395
514.46        21.28499
514.90        21.42678
515.34        21.40697
515.78        21.18447
516.22        20.95549
516.66        20.80553
517.10        20.42366
517.54        19.83773
517.98        20.64763
518.42        20.47976
518.86        20.84972
519.30        21.02663
519.74        21.23853
520.18        21.42616
520.62        21.46548
521.06        21.36932
521.50        21.15063
521.93        20.88868
522.37        20.72724
522.81        20.70282
523.25        20.77771
523.69        20.89995
524.13        20.98477
524.57        21.00493
525.01        20.98646
525.45        20.94292
525.89        20.89561
526.32        20.85002
526.76        20.79287
527.20        20.72271
527.64        20.64989
528.08        20.57859
528.52        20.49081
528.96        20.37597
529.40         20.2704
529.83        20.18886
530.27        19.92506
530.71        19.88033
531.15        19.74526
531.59        19.64467
532.03        19.56268
532.46         19.5335
532.90        19.61151
533.34        19.78334
533.78        20.01872
534.22        20.23405
534.66        20.30843
535.09         20.2155
535.53         20.0028
535.97        19.73348
536.41        19.51554
536.85         19.3884
537.28        19.32857
537.72        19.32217
538.16        19.34365
538.60        19.38118
539.04        19.43076
539.47        19.48999
539.91        19.60122
540.35        19.74061
540.79        19.82178
541.22        19.85134
541.66        19.92189
542.10        20.03733
542.54        20.14099
542.97        20.23824
543.41        20.37329
543.85        20.54372
544.29        20.74713
544.72        20.94422
545.16        21.08106
545.60          21.149
546.04        21.16213
546.47        21.18723
546.91         21.3403
547.35        21.63069
547.79        22.02418
548.22        22.42119
548.66        22.64639
549.10        22.67875
549.53        22.60638
549.97        22.53072
550.41        22.55011
550.84         22.7027
551.28        22.97027
551.72        23.30959
552.15         23.6363
552.59        23.91096
553.03        24.15012
553.46        24.35108
553.90        24.53175
554.34        24.70365
554.77        24.83384
555.21        24.91941
555.65        25.03293
556.08        25.19203
556.52        25.07576
556.96         25.2863
557.39        25.37294
557.83           25.52
558.27        25.69456
558.70        25.88724
559.14        26.06628
559.57        26.20844
560.01        26.33253
560.45        26.41702
560.88         26.4285
561.32        26.39109
561.75        26.30552
562.19        26.23113
562.63        26.22206
563.06        26.28783
563.50        26.41805
563.93        26.58561
564.37        26.75777
564.80        26.91096
565.24        27.06349
565.68        27.20107
566.11        27.30592
566.55        27.39736
566.98         27.4681
567.42        27.55796
567.85        27.72428
568.29         27.9876
568.72        28.24886
569.16        28.51501
569.60        28.84721
570.03        29.10662
570.47        29.09265
570.90        28.97437
571.34        28.38603
571.77         28.9458
572.21        29.01958
572.64        29.13935
573.08        28.78316
573.51        28.06374
573.95        29.28519
574.38        31.01612
574.82        30.21252
