SpectraSmart Spectrum 2.9.0.0
--------- Device Information -----------
Spectrum Name :  反射率_0
Saving Time :  2024/04/26 00:34:01
Spectro-Module Model Name : SE2030-DUVN
Spectro-Module Serial Number : OS361AC55029948
Wavelength Start : 200
Wavelength End : 1025
Wavelength Unit : Wavelength(nm)
Spectrum Unit : Reflectance(%)
-----------Spectrum Setting ------------
Integration Time : 20ms
Average : 10
Boxcar : 0
Background removal :  enabled
linearity correction :  enabled
SC :  disabled
Intensity correction :  disabled
DWT denoise :  enabled
savitzky-golay :  disabled
FFT :  disabled
Running average :  disabled
Kalman :  disabled
High pass :  disabled
---------------BEGIN--------------------
Wavelength(nm)             Reflectance(%)
200.29               0
200.75        91.22288
201.21        82.76233
201.67        73.32231
202.13        67.38411
202.58        65.45601
203.04         66.7721
203.50        69.56565
203.96        70.77198
204.42        69.74886
204.88        67.66729
205.34        66.01727
205.80        66.45754
206.26        69.90198
206.72        78.35651
207.18        95.53826
207.64        112.4929
208.10        105.8853
208.55        87.15582
209.01        74.72054
209.47        70.70269
209.93        71.70181
210.39        75.94469
210.85        80.63383
211.31        79.98845
211.77         72.6301
212.23        61.12119
212.69         50.4488
213.14        48.17342
213.60        55.41472
214.06        69.76964
214.52        86.25514
214.98        97.17666
215.44        100.2885
215.90        98.01193
216.36        92.80521
216.81        88.01959
217.27        85.24435
217.73        83.49121
218.19        81.96002
218.65        79.57172
219.11        75.66846
219.57        69.73072
220.02        62.65031
220.48        59.40569
220.94        62.12086
221.40        69.27863
221.86        74.70516
222.32        72.21986
222.77        63.17172
223.23        51.77314
223.69        42.31323
224.15        39.16573
224.61        41.74485
225.06        47.78727
225.52         54.1695
225.98        57.02234
226.44        55.63103
226.90        51.63948
227.36        47.09905
227.81        44.74137
228.27        45.41681
228.73         47.8847
229.19         51.0069
229.65        53.15581
230.10        53.89016
230.56        53.90012
231.02        53.64898
231.48        53.62274
231.93         53.8812
232.39         54.2062
232.85        54.47549
233.31        54.60604
233.77        54.53913
234.22        54.34463
234.68        53.95079
235.14        53.18379
235.60        52.11858
236.05        50.93018
236.51        49.86002
236.97        49.15423
237.43          48.883
237.88        49.07557
238.34        49.80455
238.80        51.26725
239.26         53.3748
239.71        56.11514
240.17        58.74392
240.63         60.5757
241.08        61.51876
241.54        61.59438
242.00        61.46098
242.46        62.21496
242.91        64.84431
243.37        71.14994
243.83        90.01538
244.28        148.2069
244.74        208.4605
245.20          168.34
245.66        134.5225
246.11        124.2969
246.57        126.4277
247.03        142.4768
247.48        188.7588
247.94        149.8552
248.40        96.14801
248.85        81.67825
249.31        78.20098
249.77        78.62315
250.22        81.33342
250.68        86.51237
251.14         93.8736
251.59        98.05883
252.05        94.27659
252.51        85.40623
252.96        75.80723
253.42         69.6096
253.88        66.38498
254.33        64.61838
254.79        65.23756
255.25         68.8774
255.70        74.25657
256.16        80.34749
256.62        84.37332
257.07        83.56985
257.53        79.00575
257.99          72.007
258.44        65.06033
258.90        61.87385
259.35        61.59384
259.81        62.65281
260.27        62.91627
260.72        60.36716
261.18        55.71606
261.63        49.92268
262.09        44.60897
262.55        41.00629
263.00        39.09947
263.46        38.33526
263.91        37.83135
264.37        36.86884
264.83        35.29023
265.28        33.27582
265.74        31.42358
266.19        30.39671
266.65        30.34216
267.11         30.8412
267.56        31.31506
268.02         31.0813
268.47        30.04597
268.93        28.45297
269.38        26.66516
269.84        25.52649
270.30        25.25607
270.75        25.61015
271.21        26.14485
271.66        26.20286
272.12        25.61446
272.57        24.60638
273.03        23.52736
273.48        22.81674
273.94        22.60546
274.39        22.70308
274.85        22.87763
275.31        22.79839
275.76        22.38236
276.22        21.76676
276.67        21.11547
277.13        20.73719
277.58        20.63494
278.04        20.71313
278.49        20.75363
278.95        20.49997
279.40        19.90213
279.86        19.12369
280.31        18.30859
280.77        17.76536
281.22        17.52219
281.68        17.48742
282.13        17.55693
282.59        17.60574
283.04        17.58644
283.50        17.56371
283.95        17.49431
284.41        17.32134
284.86        17.04439
285.32        16.67979
285.77         16.3502
286.22        16.29816
286.68        16.53099
287.13        16.95908
287.59        17.36223
288.04        17.41036
288.50        17.07084
288.95        16.44768
289.41         15.7805
289.86        15.33562
290.32        15.22276
290.77        15.33729
291.22        15.58455
291.68        15.78685
292.13        15.90211
292.59        15.98676
293.04        16.11214
293.50        16.38512
293.95        16.81357
294.40        17.32678
294.86        17.83084
295.31        18.20143
295.77        18.41496
296.22         18.5191
296.68        18.57757
297.13        18.66374
297.58         18.8246
298.04        19.05174
298.49        19.34994
298.95        19.75852
299.40        20.26236
299.85        20.84371
300.31        21.44103
300.76        21.96914
301.21        22.38524
301.67        22.72509
302.12        22.97385
302.58         23.1575
303.03         23.2799
303.48        23.34709
303.94        23.44385
304.39        23.66989
304.84        24.04049
305.30        24.51494
305.75        24.96328
306.20        25.19077
306.66         25.1798
307.11        24.98714
307.57        24.74839
308.02        24.60246
308.47        24.61233
308.93        24.72694
309.38        24.90331
309.83        25.10124
310.29        25.28258
310.74        25.45114
311.19        25.57318
311.65        25.59434
312.10        25.50783
312.55        25.33057
313.00        25.08389
313.46        24.81811
313.91        24.55151
314.36        24.29116
314.82         24.0847
315.27        23.99032
315.72        24.01286
316.18        24.12903
316.63        24.26375
317.08        24.27086
317.53        24.11398
317.99         23.8275
318.44        23.49742
318.89        23.26432
319.35        23.15818
319.80        23.14069
320.25        23.13532
320.70        23.01753
321.16        22.75942
321.61        22.40679
322.06        22.02754
322.51        21.71905
322.97        21.49791
323.42        21.33771
323.87        21.19114
324.32        20.98627
324.78         20.7068
325.23        20.38481
325.68        20.05697
326.13        19.77941
326.59        19.56758
327.04        19.42252
327.49        19.32261
327.94        19.23368
328.39        19.14558
328.85        19.05721
329.30        19.01231
329.75        19.05743
330.20        19.19385
330.66        19.38045
331.11        19.56551
331.56        19.62813
332.01        19.53449
332.46        19.30078
332.92        18.99308
333.37        18.75218
333.82        18.62746
334.27        18.60888
334.72        18.61806
335.17        18.51583
335.63        18.27008
336.08        17.92131
336.53        17.60684
336.98        17.54348
337.43        17.76553
337.88         18.2073
338.34        18.64085
338.79        18.73774
339.24        18.40057
339.69        17.72287
340.14        16.97678
340.59        16.63813
341.05        16.81502
341.50        17.35717
341.95        17.98117
342.40        18.26968
342.85        18.12917
343.30        17.70355
343.75        17.16051
344.20        16.79159
344.66         16.6907
345.11        16.72235
345.56        16.83109
346.01        16.93552
346.46        16.99066
346.91        17.05126
347.36        17.02229
347.81        16.74061
348.26        16.21512
348.72        15.52701
349.17        14.86904
349.62        14.64554
350.07        14.93689
350.52        15.60544
350.97        16.40594
351.42        16.95831
351.87         17.1531
352.32        17.09352
352.77        16.87687
353.22         16.6666
353.67        16.52162
354.13        16.38931
354.58        16.25246
355.03        16.12491
355.48        16.00823
355.93        15.93112
356.38         15.8659
356.83        15.75158
357.28        15.57737
357.73        15.34946
358.18        15.12969
358.63        15.01776
359.08        15.02965
359.53        15.14089
359.98        15.25001
360.43        15.19879
360.88        14.96245
361.33        14.58839
361.78        14.21473
362.23        14.06701
362.68        14.18214
363.13        14.46987
363.58        14.77309
364.03        14.84861
364.48        14.63956
364.93        14.23645
365.38        13.73747
365.83        13.29869
366.28         12.9838
366.73        12.74862
367.18        12.60441
367.63        12.57009
368.08        12.62803
368.53        12.77069
368.98        12.92667
369.43        12.97522
369.88        12.89282
370.33        12.71543
370.78        12.48863
371.23        12.30064
371.68        12.18499
372.13        12.10771
372.58        12.09456
373.03        12.18523
373.48        12.36702
373.93        12.62741
374.38        12.85814
374.83        12.89059
375.28        12.69916
375.72        12.32214
376.17        11.91562
376.62        11.69588
377.07         11.7213
377.52        11.92561
377.97        12.19837
378.42        12.35807
378.87        12.35308
379.32        12.24366
379.77        12.09617
380.22        12.00413
380.67        11.99107
381.11        12.02151
381.56        12.05612
382.01        12.04446
382.46        11.97088
382.91        11.85441
383.36        11.72464
383.81        11.62401
384.26        11.56421
384.71        11.53451
385.15        11.49944
385.60        11.41168
386.05         11.2599
386.50        11.05673
386.95        10.85428
387.40        10.74239
387.85        10.74269
388.29        10.82769
388.74        10.92412
389.19        10.93312
389.64        10.84102
390.09        10.67285
390.54        10.50618
390.98        10.46885
391.43        10.59306
391.88        10.82409
392.33         11.0562
392.78        11.13637
393.23        11.04454
393.67        10.83188
394.12        10.61499
394.57        10.51569
395.02         10.5605
395.47        10.70844
395.91        10.89318
396.36        10.98143
396.81        10.93534
397.26        10.78588
397.71        10.60536
398.15        10.48784
398.60        10.47086
399.05        10.52762
399.50        10.58085
399.95         10.4929
400.39        10.29468
400.84        9.989864
401.29         9.70438
401.74        9.644964
402.18        9.866229
402.63        10.28154
403.08        10.73253
403.53        10.96874
403.97        10.92812
404.42        10.68762
404.87        10.36318
405.32        10.15819
405.76        10.13481
406.21        10.22509
406.66        10.36461
407.11        10.46769
407.55        10.51159
408.00        10.52812
408.45        10.52062
408.90        10.48254
409.34        10.41911
409.79        10.32471
410.24        10.23601
410.68        10.20915
411.13         10.2546
411.58        10.36706
412.03        10.49315
412.47        10.53701
412.92        10.46776
413.37        10.30964
413.81        10.14529
414.26        10.11487
414.71        10.23508
415.15        10.46784
415.60        10.69009
416.05        10.72412
416.49        10.53163
416.94        10.18143
417.39        9.796563
417.83        9.586969
418.28        9.615617
418.73        9.803082
419.17        10.05346
419.62        10.21338
420.07        10.24359
420.51        10.19329
420.96        10.08683
421.41        9.960299
421.85        9.835511
422.30        9.713788
422.74        9.611157
423.19        9.580376
423.64        9.614916
424.08         9.70738
424.53        9.815089
424.98        9.880665
425.42        9.887736
425.87        9.848475
426.31        9.767624
426.76        9.688392
427.21        9.606707
427.65        9.447694
428.10        9.295856
428.54        9.339314
428.99        9.590741
429.44        9.971445
429.88        10.32428
430.33        10.43218
430.77        10.26158
431.22        9.885619
431.66        9.471519
432.11         9.30718
432.56        9.426247
433.00        9.695387
433.45         9.98109
433.89        10.17935
434.34         10.2029
434.78        9.994501
435.23        9.716602
435.67        9.686142
436.12        9.873346
436.57        9.930128
437.01        9.806499
437.46          9.6716
437.90        9.545513
438.35        9.389362
438.79        9.231509
439.24        9.140443
439.68        9.130309
440.13         9.14276
440.57        9.169228
441.02        9.316186
441.46        9.497214
441.91        9.391087
442.35        9.065469
442.80         8.90013
443.24        8.882141
443.69        8.869158
444.13        8.821254
444.58         8.68531
445.02        8.496957
445.47        8.452152
445.91        8.513012
446.36        8.465617
446.80        8.298698
447.24        8.130891
447.69        8.009417
448.13        7.949231
448.58         7.96491
449.02        8.047069
449.47        8.143325
449.91        8.166883
450.36        8.101449
450.80        7.970119
451.25        7.833066
451.69        7.776443
452.13        7.821523
452.58        7.927685
453.02        8.052904
453.47        8.122883
453.91        8.124163
454.36        8.087297
454.80        8.028036
455.24        7.974409
455.69        7.944615
456.13        7.918848
456.58        7.928347
457.02        8.009017
457.46        8.162385
457.91        8.371341
458.35        8.572031
458.79        8.650717
459.24        8.595678
459.68        8.430931
460.13        8.250869
460.57        8.172576
461.01        8.234823
461.46        8.392899
461.90        8.577426
462.34        8.662823
462.79        8.620339
463.23        8.482775
463.68        8.330781
464.12        8.294589
464.56        8.408033
465.01        8.623614
465.45         8.83689
465.89        8.927837
466.34        8.883208
466.78        8.699795
467.22        8.482916
467.67        8.485106
468.11        8.694905
468.55        8.834596
468.99        8.861077
469.44        8.886008
469.88         8.93148
470.32        9.036713
470.77        9.161662
471.21        9.177004
471.65        9.070731
472.10        8.942814
472.54        8.839212
472.98        8.813621
473.42        8.883924
473.87        9.034195
474.31        9.212297
474.75        9.326503
475.20        9.356676
475.64        9.322618
476.08        9.267133
476.52        9.257627
476.97        9.310851
477.41        9.410145
477.85        9.513854
478.29        9.574332
478.74        9.581413
479.18        9.503265
479.62        9.392101
480.06        9.486687
480.50        9.601582
480.95        9.741544
481.39        9.794044
481.83        9.791592
482.27        9.725533
482.72        9.531706
483.16        9.293046
483.60        9.271454
484.04        9.488266
484.48        9.660135
484.93        9.885287
485.37        10.21137
485.81        10.51273
486.25        10.66987
486.69        13.91263
487.14        10.88466
487.58        7.561686
488.02        9.309484
488.46        10.41447
488.90        10.33024
489.34        10.35431
489.79        10.39394
490.23        11.10016
490.67        11.50918
491.11        11.42474
491.55        11.23711
491.99        10.96501
492.43        10.72767
492.88        10.60113
493.32        10.57268
493.76        10.58652
494.20        10.76279
494.64        11.06431
495.08         11.4479
495.52        11.85198
495.96        12.19847
496.41        12.42725
496.85        12.54072
497.29         12.5595
497.73        12.40337
498.17        12.23934
498.61         12.3623
499.05        12.77866
499.49        12.89985
499.93        13.03206
500.37        13.19268
500.82        13.32617
501.26        13.53684
501.70        13.74883
502.14        13.85538
502.58        13.85012
503.02        13.85892
503.46        13.89224
503.90          13.874
504.34         13.8243
504.78        13.80998
505.22        13.84154
505.66        13.91001
506.10        13.98927
506.54        14.03102
506.98         14.0273
507.42        13.99575
507.86        13.97937
508.30        14.04512
508.74        14.20044
509.18        14.41338
509.62        14.63592
510.06        14.78937
510.50        14.85287
510.94        14.85991
511.38        14.82503
511.82        14.77172
512.26        14.71634
512.70        14.64483
513.14        14.60358
513.58        14.66946
514.02        14.83804
514.46         15.0804
514.90        15.30035
515.34        15.30605
515.78        15.03792
516.22        14.72436
516.66          14.489
517.10        14.04744
517.54        13.44206
517.98        14.38123
518.42        14.27192
518.86        14.70345
519.30        14.87721
519.74        15.05556
520.18        15.19983
520.62        15.21503
521.06        15.12561
521.50         14.9323
521.93        14.70276
522.37        14.56455
522.81        14.54727
523.25        14.61815
523.69        14.73141
524.13        14.81099
524.57        14.83146
525.01        14.81598
525.45         14.7716
525.89        14.70927
526.32        14.63613
526.76        14.54759
527.20        14.45409
527.64        14.38185
528.08        14.33739
528.52         14.3001
528.96        14.25777
529.40        14.22728
529.83        14.21319
530.27        14.07021
530.71        14.06815
531.15        13.96817
531.59        13.85787
532.03        13.73326
532.46        13.64149
532.90        13.66364
533.34        13.79862
533.78        14.01127
534.22        14.22198
534.66        14.31357
535.09        14.25722
535.53        14.09607
535.97        13.88049
536.41        13.69483
536.85        13.57304
537.28        13.49839
537.72        13.46567
538.16         13.4642
538.60        13.48746
539.04        13.52941
539.47        13.59144
539.91        13.70538
540.35        13.85182
540.79        13.96797
541.22        14.03865
541.66         14.0981
542.10        14.14529
542.54        14.14867
542.97        14.14191
543.41        14.20454
543.85        14.34568
544.29         14.5531
544.72        14.76816
545.16        14.90247
545.60         14.9402
546.04        14.90634
546.47        14.88223
546.91         15.0056
547.35        15.29026
547.79        15.68794
548.22        16.08989
548.66        16.30964
549.10        16.32073
549.53        16.21095
549.97        16.07995
550.41        16.03544
550.84        16.11827
551.28        16.30331
551.72         16.5654
552.15        16.85514
552.59        17.13611
553.03        17.41391
553.46        17.65401
553.90        17.81728
554.34        17.90616
554.77        17.91115
555.21        17.86418
555.65        17.87331
556.08        17.96736
556.52         17.9034
556.96        18.09082
557.39        18.17646
557.83         18.2823
558.27        18.39523
558.70        18.51766
559.14        18.63684
559.57        18.74045
560.01        18.83804
560.45        18.90747
560.88        18.91575
561.32        18.88115
561.75        18.80723
562.19        18.74717
562.63        18.75496
563.06        18.83767
563.50        18.97867
563.93        19.14619
564.37         19.2962
564.80        19.40755
565.24        19.50292
565.68        19.57616
566.11        19.61977
566.55        19.65468
566.98        19.67653
567.42        19.73196
567.85        19.88723
568.29        20.16059
568.72        20.46853
569.16        20.77673
569.60        21.12528
570.03        21.41131
570.47         21.3985
570.90        21.20507
571.34        21.02124
571.77        21.35337
572.21         21.4917
572.64        21.57503
573.08        21.51944
573.51        20.86038
573.95        21.81134
574.38        23.10778
574.82        22.83039
