SpectraSmart Spectrum 2.9.0.0
--------- Device Information -----------
Spectrum Name :  反射率_0
Saving Time :  2024/04/26 00:35:53
Spectro-Module Model Name : SE2030-DUVN
Spectro-Module Serial Number : OS361AC55029948
Wavelength Start : 200
Wavelength End : 1025
Wavelength Unit : Wavelength(nm)
Spectrum Unit : Reflectance(%)
-----------Spectrum Setting ------------
Integration Time : 20ms
Average : 10
Boxcar : 0
Background removal :  enabled
linearity correction :  enabled
SC :  disabled
Intensity correction :  disabled
DWT denoise :  enabled
savitzky-golay :  disabled
FFT :  disabled
Running average :  disabled
Kalman :  disabled
High pass :  disabled
---------------BEGIN--------------------
Wavelength(nm)             Reflectance(%)
200.29               0
200.75        70.47697
201.21        65.68991
201.67         60.2848
202.13        57.14114
202.58        56.52857
203.04        57.83508
203.50         60.3846
203.96        62.78884
204.42        64.29208
204.88        65.27308
205.34        65.59236
205.80         64.9608
206.26         63.0985
206.72        58.72729
207.18        49.47676
207.64          39.177
208.10        40.27514
208.55        48.22526
209.01         54.1325
209.47        56.88807
209.93        57.83193
210.39        58.25666
210.85        57.73608
211.31        55.33108
211.77        51.31429
212.23        46.06905
212.69        41.80331
213.14        42.13591
213.60        47.28716
214.06        56.46367
214.52        66.59277
214.98        72.85236
215.44        73.92708
215.90        71.05924
216.36        66.51441
216.81        63.49461
217.27        62.94617
217.73        63.82196
218.19        64.17652
218.65        61.26118
219.11        53.97892
219.57        41.54036
220.02        25.47659
220.48        15.54903
220.94        17.62111
221.40        29.40027
221.86        41.95085
222.32        45.77041
222.77        41.44697
223.23        33.67136
223.69        27.05817
224.15        26.32466
224.61        31.02881
225.06        38.81315
225.52        46.53381
225.98        50.27997
226.44        49.37263
226.90        45.64496
227.36        41.15678
227.81        38.62521
228.27        38.98422
228.73        41.02312
229.19        43.98432
229.65        46.76179
230.10         48.8004
230.56         50.4274
231.02         51.5622
231.48        52.05732
231.93        52.01599
232.39        51.54424
232.85        50.90318
233.31        50.59901
233.77        50.72777
234.22        51.12183
234.68        51.64014
235.14         51.9168
235.60         51.8158
236.05        51.53753
236.51        51.01598
236.97        50.04226
237.43        48.58985
237.88        46.62163
238.34         44.5722
238.80        43.96738
239.26        45.54855
239.71        49.11842
240.17        53.46129
240.63        56.72185
241.08        58.24764
241.54        58.34919
242.00        57.53824
242.46        56.47633
242.91        55.31696
243.37        52.85414
243.83        47.91963
244.28        45.77592
244.74         67.7707
245.20        86.43462
245.66        88.79784
246.11        89.10036
246.57        89.83405
247.03        91.37051
247.48        86.36488
247.94        57.12096
248.40        54.73437
248.85        57.43509
249.31         59.9483
249.77        62.83158
250.22        66.80406
250.68        73.18438
251.14         81.8829
251.59        86.97583
252.05        83.12228
252.51        72.97219
252.96        62.62691
253.42        57.99211
253.88         58.4566
254.33        61.83882
254.79        66.70918
255.25         70.5239
255.70        72.55278
256.16        73.98489
256.62        74.49793
257.07         73.6393
257.53        71.98078
257.99        69.35121
258.44        66.76895
258.90        66.29501
259.35        66.98996
259.81        68.15432
260.27        68.17423
260.72        65.49428
261.18        60.93209
261.63        55.22657
262.09        50.02473
262.55         46.5798
263.00        44.81132
263.46        44.16616
263.91        43.67747
264.37        42.55947
264.83        40.65676
265.28        38.21707
265.74        35.87276
266.19        34.34858
266.65        33.87294
267.11        34.01653
267.56        34.26733
268.02        34.02754
268.47         33.1738
268.93        31.92544
269.38        30.50334
269.84        29.48957
270.30        29.03944
270.75        28.98535
271.21        29.06798
271.66          28.915
272.12        28.41639
272.57        27.70095
273.03        26.97067
273.48        26.43755
273.94        26.18367
274.39        26.10034
274.85        26.05472
275.31         25.8509
275.76        25.43764
276.22        24.89996
276.67        24.35097
277.13        24.03936
277.58        23.94751
278.04        24.01266
278.49        24.02783
278.95        23.75833
279.40        23.15471
279.86        22.37167
280.31        21.55034
280.77        21.00682
281.22        20.76389
281.68        20.73366
282.13        20.79582
282.59        20.81017
283.04        20.72508
283.50        20.61579
283.95        20.45753
284.41        20.22554
284.86        19.92728
285.32        19.57806
285.77         19.2757
286.22        19.23064
286.68        19.44101
287.13        19.81254
287.59        20.16253
288.04        20.21262
288.50        19.93255
288.95        19.40577
289.41        18.79922
289.86        18.26504
290.32        17.91154
290.77        17.68395
291.22         17.5962
291.68        17.63184
292.13        17.77974
292.59        18.04123
293.04        18.40168
293.50         18.8321
293.95        19.29596
294.40        19.76004
294.86        20.17029
295.31        20.46293
295.77        20.63683
296.22        20.72258
296.68        20.76822
297.13        20.82552
297.58        20.94266
298.04        21.13017
298.49        21.42454
298.95        21.90938
299.40        22.57209
299.85        23.37066
300.31        24.20174
300.76         24.9145
301.21         25.4426
301.67        25.83817
302.12        26.10088
302.58         26.2865
303.03        26.41249
303.48         26.4872
303.94        26.60093
304.39         26.8591
304.84        27.28019
305.30        27.82049
305.75        28.35993
306.20        28.71778
306.66           28.87
307.11        28.86041
307.57        28.78318
308.02         28.7116
308.47        28.70494
308.93        28.73547
309.38        28.81338
309.83        28.98676
310.29        29.23698
310.74        29.53662
311.19        29.80869
311.65         29.9312
312.10        29.87702
312.55        29.68526
313.00        29.39661
313.46        29.09303
313.91        28.80658
314.36        28.53699
314.82        28.32974
315.27        28.23704
315.72        28.26639
316.18        28.40132
316.63        28.57479
317.08        28.64996
317.53        28.58619
317.99        28.40307
318.44         28.1757
318.89        28.03152
319.35         27.9919
319.80        28.02458
320.25        28.03252
320.70         27.8603
321.16        27.48387
321.61         26.9648
322.06        26.42556
322.51        26.04603
322.97        25.85821
323.42        25.81619
323.87         25.8189
324.32        25.69808
324.78        25.40694
325.23        25.00471
325.68        24.56685
326.13        24.21789
326.59        23.99086
327.04          23.862
327.49        23.78459
327.94        23.68677
328.39        23.54525
328.85        23.37469
329.30        23.22784
329.75        23.15685
330.20        23.17382
330.66        23.23877
331.11        23.31938
331.56        23.32192
332.01        23.21854
332.46        23.02151
332.92         22.7748
333.37        22.58504
333.82        22.48337
334.27        22.46312
334.72        22.46033
335.17        22.36438
335.63        22.15027
336.08          21.851
336.53        21.58135
336.98        21.52645
337.43        21.71456
337.88        22.08886
338.34        22.45409
338.79        22.53673
339.24        22.25159
339.69        21.68097
340.14        21.04863
340.59        20.74666
341.05        20.86473
341.50        21.27688
341.95        21.76405
342.40        22.00385
342.85        21.91934
343.30        21.62411
343.75        21.22093
344.20        20.89115
344.66        20.70211
345.11        20.55753
345.56        20.46711
346.01        20.44605
346.46          20.473
346.91         20.5714
347.36        20.60587
347.81        20.35057
348.26        19.79756
348.72        19.05107
349.17        18.32645
349.62        18.06276
350.07        18.34902
350.52        19.02807
350.97        19.84609
351.42        20.41245
351.87        20.61295
352.32        20.56065
352.77        20.33886
353.22        20.08734
353.67         19.8663
354.13        19.62955
354.58        19.40112
355.03         19.2618
355.48        19.22215
355.93        19.28849
356.38        19.37429
356.83        19.32437
357.28        19.10688
357.73        18.75722
358.18        18.38945
358.63        18.18791
359.08        18.18949
359.53         18.3399
359.98        18.50387
360.43        18.47066
360.88         18.2014
361.33        17.76724
361.78        17.31941
362.23         17.1011
362.68        17.16122
363.13        17.40446
363.58        17.68498
364.03        17.77969
364.48         17.6293
364.93        17.31183
365.38        16.90443
365.83        16.52858
366.28        16.23522
366.73        15.98937
367.18        15.80022
367.63        15.68581
368.08         15.6405
368.53         15.6667
368.98        15.72292
369.43        15.73316
369.88        15.68137
370.33        15.58728
370.78        15.47564
371.23        15.39708
371.68        15.36609
372.13        15.35436
372.58        15.37077
373.03        15.43158
373.48        15.52554
373.93        15.64845
374.38        15.73198
374.83        15.66881
375.28        15.44885
375.72        15.10022
376.17        14.74707
376.62         14.5498
377.07        14.55122
377.52        14.69834
377.97        14.91067
378.42        15.05549
378.87        15.08669
379.32        15.04114
379.77        14.94647
380.22        14.84178
380.67        14.74264
381.11        14.63719
381.56        14.51894
382.01        14.39121
382.46        14.25804
382.91        14.12379
383.36        14.00991
383.81        13.94349
384.26        13.92677
384.71        13.95407
385.15        13.97604
385.60         13.9269
386.05        13.79222
386.50        13.58664
386.95         13.3779
387.40         13.2854
387.85        13.33306
388.29        13.47528
388.74        13.62683
389.19        13.66638
389.64        13.57731
390.09        13.39369
390.54        13.19549
390.98        13.11491
391.43        13.19047
391.88        13.36769
392.33        13.55323
392.78        13.61155
393.23        13.52362
393.67        13.33406
394.12        13.14508
394.57        13.05054
395.02         13.0722
395.47        13.17451
395.91        13.30939
396.36        13.37426
396.81        13.34101
397.26        13.23008
397.71        13.09136
398.15        12.98384
398.60        12.94202
399.05        12.95144
399.50        12.95622
399.95         12.8407
400.39        12.65187
400.84        12.37878
401.29         12.1324
401.74         12.0877
402.18        12.29164
402.63        12.66589
403.08        13.07876
403.53        13.32073
403.97        13.33644
404.42        13.18697
404.87        12.95591
405.32        12.79183
405.76        12.74393
406.21        12.76762
406.66        12.82678
407.11        12.87644
407.55         12.9045
408.00        12.92688
408.45        12.94276
408.90        12.93538
409.34        12.90274
409.79        12.84713
410.24         12.7899
410.68        12.76347
411.13        12.77899
411.58        12.83414
412.03         12.9095
412.47        12.97191
412.92        12.99942
413.37        12.99308
413.81        12.98353
414.26        13.03407
414.71        13.14294
415.15        13.29466
415.60        13.40384
416.05        13.35372
416.49        13.12716
416.94        12.77856
417.39        12.41119
417.83        12.20139
418.28        12.20315
418.73        12.34958
419.17        12.56792
419.62        12.73786
420.07        12.82384
420.51        12.86419
420.96        12.84798
421.41        12.75478
421.85         12.5948
422.30        12.39143
422.74        12.20517
423.19        12.15575
423.64        12.24715
424.08         12.4557
424.53        12.69674
424.98        12.83936
425.42        12.84516
425.87        12.74414
426.31        12.58652
426.76        12.49325
427.21        12.47423
427.65         12.4129
428.10        12.35972
428.54        12.46854
428.99        12.73834
429.44        13.10042
429.88        13.41195
430.33        13.48742
430.77        13.29941
431.22        12.90587
431.66        12.47945
432.11         12.3353
432.56        12.50179
433.00        12.82173
433.45        13.13469
433.89        13.33174
434.34        13.31892
434.78        13.01901
435.23        12.64571
435.67        12.61701
436.12        12.89431
436.57        13.02651
437.01        12.94853
437.46         12.8788
437.90        12.83652
438.35        12.75988
438.79         12.6671
439.24         12.6238
439.68        12.64445
440.13        12.65623
440.57        12.66154
441.02        12.83504
441.46        13.06734
441.91        12.91131
442.35        12.46323
442.80        12.23889
443.24        12.22431
443.69        12.22802
444.13        12.19316
444.58        12.03412
445.02        11.79845
445.47        11.75436
445.91        11.86489
446.36        11.85672
446.80        11.71334
447.24        11.59058
447.69        11.52045
448.13        11.47303
448.58        11.45984
449.02        11.48734
449.47        11.52353
449.91        11.51473
450.36        11.45416
450.80        11.35268
451.25        11.26055
451.69        11.24652
452.13        11.32402
452.58        11.45685
453.02        11.59648
453.47         11.6619
453.91        11.63894
454.36         11.5592
454.80        11.45002
455.24        11.35868
455.69        11.31168
456.13        11.28656
456.58        11.30718
457.02        11.39157
457.46        11.53972
457.91        11.73892
458.35        11.93584
458.79        12.03537
459.24        12.02756
459.68        11.92573
460.13        11.80705
460.57         11.7587
461.01        11.81599
461.46        11.94516
461.90        12.09376
462.34        12.16607
462.79        12.13918
463.23        12.03668
463.68        11.92789
464.12        11.92693
464.56         12.0588
465.01        12.28502
465.45        12.49462
465.89         12.5713
466.34        12.50614
466.78        12.27527
467.22        12.00178
467.67        12.00316
468.11        12.25378
468.55        12.37669
468.99        12.33652
469.44        12.32666
469.88        12.38567
470.32        12.55385
470.77        12.76476
471.21        12.81718
471.65        12.68689
472.10        12.51711
472.54        12.36978
472.98        12.30883
473.42        12.36052
473.87         12.5077
474.31        12.69338
474.75        12.81958
475.20        12.86482
475.64        12.85136
476.08        12.81995
476.52        12.83349
476.97        12.90791
477.41         13.0237
477.85        13.14402
478.29        13.23766
478.74        13.29504
479.18        13.26006
479.62        13.16943
480.06        13.30383
480.50        13.39605
480.95        13.47496
481.39        13.43183
481.83        13.37886
482.27        13.32038
482.72        13.15101
483.16        12.94442
483.60        12.99463
484.04        13.29808
484.48        13.48794
484.93        13.72992
485.37        14.11564
485.81        14.48471
486.25        14.97058
486.69        19.05515
487.14        15.29777
487.58        10.19739
488.02        12.48229
488.46         14.1874
488.90        14.26524
489.34        14.40791
489.79        14.37324
490.23        15.13382
490.67        15.57702
491.11         15.5022
491.55        15.39414
491.99        15.22805
492.43        15.03742
492.88        14.89413
493.32         14.8726
493.76         14.8964
494.20        15.09538
494.64        15.42361
495.08        15.83616
495.52        16.27115
495.96        16.65446
496.41        16.91326
496.85        17.04487
497.29        17.06293
497.73        16.82969
498.17         16.5644
498.61         16.6731
499.05        17.16993
499.49        17.28106
499.93        17.42459
500.37        17.61558
500.82        17.77447
501.26        18.02883
501.70        18.27636
502.14        18.38359
502.58        18.34254
503.02        18.31874
503.46        18.32951
503.90        18.27468
504.34        18.19742
504.78        18.21258
505.22        18.33499
505.66        18.54062
506.10        18.76497
506.54        18.89356
506.98        18.89968
507.42        18.81951
507.86        18.73073
508.30        18.75569
508.74        18.91892
509.18        19.17432
509.62        19.45433
510.06        19.64862
510.50        19.72544
510.94        19.72628
511.38        19.68267
511.82        19.64291
512.26        19.62755
512.70        19.61485
513.14         19.6226
513.58        19.68252
514.02        19.78525
514.46        19.92055
514.90        20.03658
515.34        20.01188
515.78        19.80247
516.22         19.6037
516.66         19.4978
517.10        19.16013
517.54        18.61328
517.98        19.48133
518.42        19.34189
518.86        19.71543
519.30        19.86069
519.74        20.01454
520.18         20.1444
520.62        20.16863
521.06        20.10943
521.50        19.96808
521.93        19.79368
522.37        19.67919
522.81        19.64802
523.25        19.67753
523.69        19.74258
524.13        19.80048
524.57        19.83337
525.01        19.85208
525.45         19.8503
525.89        19.81776
526.32        19.75281
526.76        19.65715
527.20        19.54322
527.64        19.44046
528.08        19.36115
528.52        19.28293
528.96        19.19577
529.40         19.1347
529.83        19.10894
530.27         18.9172
530.71        18.93202
531.15        18.84771
531.59        18.77801
532.03        18.71063
532.46        18.67174
532.90        18.70527
533.34        18.80314
533.78        18.94454
534.22        19.07388
534.66        19.11038
535.09        19.03546
535.53         18.8851
535.97        18.69877
536.41        18.54455
536.85         18.4496
537.28        18.39987
537.72        18.39295
538.16         18.4233
538.60        18.48314
539.04        18.55812
539.47        18.63867
539.91        18.75607
540.35        18.88576
540.79        18.95209
541.22        18.96194
541.66        19.00313
542.10         19.0826
542.54        19.14725
542.97        19.21481
543.41        19.34659
543.85        19.54225
544.29         19.7935
544.72        20.04282
545.16        20.20735
545.60          20.271
546.04        20.25376
546.47        20.23823
546.91        20.36658
547.35        20.65402
547.79        21.05779
548.22        21.46208
548.66        21.66672
549.10         21.6467
549.53        21.50013
549.97        21.34697
550.41        21.31461
550.84        21.44841
551.28        21.72149
551.72        22.07689
552.15        22.40868
552.59         22.6696
553.03        22.88066
553.46        23.05068
553.90        23.21239
554.34        23.37983
554.77        23.51703
555.21        23.60523
555.65        23.68851
556.08        23.78133
556.52        23.59215
556.96        23.71636
557.39        23.77144
557.83        23.93748
558.27        24.17002
558.70        24.43022
559.14        24.63928
559.57        24.76324
560.01        24.83493
560.45        24.85873
560.88        24.84205
561.32        24.81741
561.75        24.77102
562.19         24.7413
562.63         24.7546
563.06        24.81293
563.50        24.91421
563.93        25.04451
564.37        25.19051
564.80        25.33646
565.24        25.49468
565.68        25.63959
566.11         25.7458
566.55         25.8311
566.98        25.86553
567.42        25.90679
567.85        26.10618
568.29        26.45643
568.72        26.70239
569.16        26.85513
569.60        27.16469
570.03        27.51252
570.47         27.5039
570.90        27.26813
571.34        27.00263
571.77        27.35001
572.21        27.45796
572.64        27.55945
573.08        27.22386
573.51         26.5646
573.95        27.65428
574.38        29.13887
574.82        28.61051
