SpectraSmart Spectrum 2.9.0.0
--------- Device Information -----------
Spectrum Name :  反射率_0
Saving Time :  2024/04/26 00:39:43
Spectro-Module Model Name : SE2030-DUVN
Spectro-Module Serial Number : OS361AC55029948
Wavelength Start : 200
Wavelength End : 1025
Wavelength Unit : Wavelength(nm)
Spectrum Unit : Reflectance(%)
-----------Spectrum Setting ------------
Integration Time : 20ms
Average : 10
Boxcar : 0
Background removal :  enabled
linearity correction :  enabled
SC :  disabled
Intensity correction :  disabled
DWT denoise :  enabled
savitzky-golay :  disabled
FFT :  disabled
Running average :  disabled
Kalman :  disabled
High pass :  disabled
---------------BEGIN--------------------
Wavelength(nm)             Reflectance(%)
200.29               0
200.75        80.22929
201.21        73.79001
201.67        66.00014
202.13        61.05569
202.58        59.57758
203.04        60.67783
203.50        63.26168
203.96        65.40928
204.42        66.32372
204.88        66.52951
205.34        66.61465
205.80        67.27904
206.26        68.95837
206.72        72.41891
207.18        78.02249
207.64        79.25578
208.10        69.42091
208.55        58.54676
209.01        53.08552
209.47        52.14695
209.93         53.7793
210.39        57.56402
210.85        61.65355
211.31        61.91525
211.77        57.29213
212.23        49.41577
212.69        41.90158
213.14        40.44217
213.60        45.83936
214.06        56.43467
214.52         68.6071
214.98         76.7907
215.44         79.2504
215.90        77.51927
216.36        73.56508
216.81        70.04013
217.27        68.13056
217.73        67.19905
218.19        65.89567
218.65        62.23549
219.11        55.31232
219.57        44.23302
220.02        30.81151
220.48        24.54677
220.94        30.17663
221.40        44.63638
221.86        57.89655
222.32        59.88799
222.77        52.00938
223.23        39.96758
223.69        29.39291
224.15        25.97274
224.61        29.16187
225.06        36.07246
225.52        43.23012
225.98        46.31342
226.44        44.55056
226.90        40.03566
227.36        34.75171
227.81        31.23948
228.27        30.52036
228.73        31.48624
229.19        33.86304
229.65        37.24991
230.10        40.94378
230.56        44.67036
231.02        47.78711
231.48        49.55966
231.93        50.03417
232.39        49.55264
232.85        48.49635
233.31        47.51021
233.77        46.82059
234.22        46.29394
234.68        45.95768
235.14        45.79396
235.60        45.80152
236.05        46.06606
236.51        46.53329
236.97        47.05345
237.43        47.64469
237.88        48.44479
238.34        49.41292
238.80        50.56551
239.26        51.76646
239.71        52.92189
240.17        53.94973
240.63         55.3359
241.08        57.22989
241.54        59.42193
242.00        61.48631
242.46        62.91081
242.91        63.81444
243.37        63.96241
243.83        64.86476
244.28        79.92641
244.74        119.9175
245.20        125.9468
245.66        117.2451
246.11        112.7013
246.57        110.4451
247.03        107.4051
247.48         89.1952
247.94        55.19297
248.40        63.76365
248.85         71.0867
249.31         75.6481
249.77        79.35468
250.22        83.53911
250.68        89.69382
251.14        97.28387
251.59        99.63772
252.05        91.92381
252.51        78.30283
252.96        65.67651
253.42        59.91234
253.88        60.15047
254.33        64.06516
254.79        70.74454
255.25        78.09367
255.70        84.44971
256.16        90.09052
256.62        93.36573
257.07        92.58278
257.53        88.91875
257.99        83.18388
258.44        77.46888
258.90        75.16061
259.35        75.27702
259.81        76.48363
260.27        76.80157
260.72        74.34181
261.18        69.88418
261.63        64.27513
262.09        59.01726
262.55        55.11087
263.00        52.59224
263.46        51.11637
263.91        49.99042
264.37        48.79097
264.83        47.29168
265.28        45.53425
265.74        43.90318
266.19        42.69677
266.65        42.09011
267.11        41.84243
267.56        41.56912
268.02        40.82087
268.47         39.4901
268.93          37.748
269.38        35.87425
269.84        34.58525
270.30         34.0745
270.75        34.15047
271.21        34.44269
271.66        34.38542
272.12        33.82695
272.57         32.9467
273.03        32.02255
273.48        31.38304
273.94        31.13733
274.39         31.1133
274.85        31.14643
275.31        30.99239
275.76        30.57907
276.22        30.02073
276.67        29.40718
277.13        28.96214
277.58        28.67347
278.04        28.50161
278.49        28.29401
278.95        27.90751
279.40        27.29365
279.86        26.57906
280.31        25.83965
280.77        25.30295
281.22        24.97017
281.68        24.79497
282.13        24.69709
282.59        24.60081
283.04        24.46995
283.50        24.37002
283.95        24.25331
284.41        24.07056
284.86        23.81393
285.32        23.49563
285.77        23.23605
286.22        23.28486
286.68        23.63528
287.13        24.17196
287.59         24.6385
288.04        24.64047
288.50        24.14994
288.95        23.30155
289.41        22.37791
289.86        21.69415
290.32         21.3901
290.77        21.34677
291.22         21.4976
291.68        21.70034
292.13        21.90752
292.59        22.16898
293.04        22.48948
293.50        22.87278
293.95        23.30081
294.40        23.72345
294.86        24.12265
295.31        24.49401
295.77        24.83945
296.22        25.17178
296.68        25.46775
297.13        25.65945
297.58         25.7657
298.04        25.83026
298.49        25.96013
298.95        26.35375
299.40        27.02857
299.85        27.91465
300.31        28.85425
300.76        29.60762
301.21        30.08916
301.67        30.38347
302.12        30.54395
302.58        30.71186
303.03        30.90868
303.48        31.10627
303.94        31.33079
304.39        31.58921
304.84        31.88452
305.30        32.21365
305.75        32.50876
306.20        32.67352
306.66        32.71223
307.11        32.64254
307.57         32.5453
308.02        32.46431
308.47        32.45145
308.93        32.49537
309.38        32.59614
309.83        32.78558
310.29        33.04378
310.74         33.3374
311.19        33.61542
311.65        33.80108
312.10        33.86703
312.55        33.83291
313.00        33.68994
313.46        33.43887
313.91        33.09636
314.36        32.69631
314.82        32.33102
315.27        32.12056
315.72          32.096
316.18        32.21936
316.63        32.42297
317.08        32.56567
317.53        32.59615
317.99        32.53679
318.44         32.4267
318.89        32.33566
319.35        32.27339
319.80        32.21905
320.25        32.12178
320.70        31.91047
321.16        31.58224
321.61         31.1739
322.06        30.75839
322.51        30.43841
322.97        30.22669
323.42         30.1036
323.87        30.00623
324.32        29.83151
324.78          29.552
325.23        29.20679
325.68        28.84266
326.13        28.53927
326.59        28.31673
327.04        28.17326
327.49        28.07621
327.94        27.97634
328.39        27.85963
328.85        27.72741
329.30        27.64141
329.75        27.66278
330.20        27.79809
330.66        28.00073
331.11        28.20728
331.56        28.27374
332.01        28.15986
332.46        27.88358
332.92        27.52074
333.37        27.25181
333.82        27.12916
334.27        27.13752
334.72        27.17239
335.17        27.04923
335.63        26.72914
336.08        26.27562
336.53         25.8653
336.98        25.77958
337.43        26.06588
337.88        26.63285
338.34        27.21874
338.79        27.44624
339.24        27.19534
339.69        26.57449
340.14        25.84968
340.59        25.48879
341.05        25.61097
341.50        26.07023
341.95        26.62011
342.40        26.89993
342.85        26.82591
343.30        26.52544
343.75        26.13215
344.20        25.87469
344.66         25.8235
345.11        25.85489
345.56        25.92517
346.01        25.97434
346.46        25.96755
346.91        25.95494
347.36        25.84703
347.81        25.48908
348.26        24.89706
348.72        24.16052
349.17         23.4755
349.62        23.24542
350.07        23.54865
350.52        24.23985
350.97        25.08218
351.42        25.70946
351.87        26.00722
352.32        26.07157
352.77        25.95742
353.22        25.76353
353.67        25.54107
354.13        25.25928
354.58        24.96304
355.03        24.76828
355.48        24.69786
355.93        24.74848
356.38        24.83077
356.83        24.78433
357.28        24.57225
357.73        24.23228
358.18        23.86983
358.63        23.65291
359.08        23.61821
359.53        23.72012
359.98        23.83253
360.43        23.76065
360.88        23.47019
361.33        23.02309
361.78        22.57874
362.23        22.39347
362.68        22.51176
363.13        22.83343
363.58        23.17802
364.03        23.26658
364.48        23.03606
364.93        22.58939
365.38        22.05089
365.83        21.61939
366.28        21.36509
366.73        21.22292
367.18        21.17822
367.63        21.20845
368.08        21.28231
368.53         21.4083
368.98        21.51706
369.43        21.49103
369.88        21.31442
370.33        21.02148
370.78        20.68844
371.23        20.45468
371.68        20.36396
372.13         20.3728
372.58        20.45988
373.03        20.58179
373.48        20.70601
373.93        20.84431
374.38        20.94143
374.83        20.91061
375.28        20.74497
375.72        20.45769
376.17        20.15775
376.62        19.98816
377.07        19.98526
377.52        20.10085
377.97        20.26439
378.42        20.35859
378.87        20.34423
379.32        20.25894
379.77        20.12394
380.22        19.96609
380.67        19.80188
381.11        19.62789
381.56        19.45408
382.01        19.30948
382.46        19.20315
382.91        19.12819
383.36         19.0887
383.81        19.08427
384.26        19.10527
384.71        19.14841
385.15        19.16423
385.60        19.09605
386.05        18.92692
386.50        18.66405
386.95        18.37805
387.40        18.19687
387.85        18.15612
388.29        18.22118
388.74        18.30388
389.19        18.25545
389.64         18.0577
390.09        17.74638
390.54        17.44687
390.98        17.36853
391.43        17.55606
391.88        17.92006
392.33        18.28193
392.78        18.38243
393.23        18.18894
393.67        17.79431
394.12        17.38368
394.57        17.15124
395.02        17.13904
395.47        17.27542
395.91        17.47942
396.36        17.58447
396.81        17.54075
397.26        17.39329
397.71        17.19811
398.15         17.0172
398.60        16.89805
399.05        16.82272
399.50        16.75378
399.95        16.59318
400.39        16.40569
400.84        16.16084
401.29        15.94975
401.74        15.90235
402.18        16.05415
402.63        16.33791
403.08        16.65096
403.53        16.82776
403.97        16.82364
404.42        16.68594
404.87        16.47551
405.32        16.30275
405.76        16.20667
406.21        16.15892
406.66        16.14341
407.11        16.14246
407.55        16.15015
408.00        16.17229
408.45        16.19335
408.90        16.17062
409.34        16.09596
409.79        15.98183
410.24        15.86787
410.68        15.81095
411.13        15.82396
411.58        15.89135
412.03         15.9774
412.47        16.02178
412.92        15.99571
413.37        15.91961
413.81        15.82988
414.26        15.79766
414.71        15.82902
415.15        15.90534
415.60        15.97094
416.05        15.95648
416.49        15.84716
416.94        15.67954
417.39        15.49716
417.83        15.37394
418.28        15.33934
418.73        15.35852
419.17        15.41781
419.62        15.48998
420.07        15.56043
420.51        15.63655
420.96        15.67922
421.41        15.62076
421.85        15.45322
422.30        15.22286
422.74        14.98888
423.19        14.86948
423.64        14.87034
424.08        14.96534
424.53        15.09034
424.98        15.16248
425.42        15.15793
425.87        15.09283
426.31          14.987
426.76        14.91627
427.21        14.87388
427.65        14.74014
428.10        14.59386
428.54        14.66003
428.99        14.95293
429.44        15.35398
429.88        15.69306
430.33        15.81057
430.77        15.64064
431.22        15.12953
431.66         14.5161
432.11        14.31695
432.56         14.5748
433.00           15.03
433.45        15.46694
433.89        15.73909
434.34        15.72169
434.78        15.33039
435.23        14.84441
435.67        14.79332
436.12        15.13708
436.57        15.33343
437.01        15.28986
437.46        15.23632
437.90        15.18689
438.35        15.07992
438.79        14.93732
439.24        14.83428
439.68        14.79346
440.13        14.73256
440.57        14.67615
441.02        14.86085
441.46        15.16666
441.91        15.06466
442.35        14.63549
442.80        14.44058
443.24         14.4609
443.69        14.48094
444.13        14.45232
444.58        14.30248
445.02        14.09209
445.47        14.12514
445.91        14.34594
446.36        14.40398
446.80        14.27108
447.24        14.14549
447.69        14.06757
448.13        14.00401
448.58        13.97257
449.02        13.98116
449.47        14.00371
449.91        13.99626
450.36        13.95281
450.80        13.88016
451.25        13.81972
451.69        13.82436
452.13        13.90304
452.58        14.02374
453.02        14.14052
453.47        14.17898
453.91        14.12779
454.36        14.01794
454.80        13.87933
455.24        13.76325
455.69        13.69794
456.13        13.65831
456.58        13.66921
457.02        13.74571
457.46        13.88632
457.91        14.07805
458.35        14.25969
458.79        14.32573
459.24        14.26782
459.68        14.10477
460.13        13.92638
460.57        13.83605
461.01         13.8742
461.46        14.00161
461.90        14.15973
462.34        14.24549
462.79        14.22919
463.23        14.13301
463.68        14.02188
464.12        14.00557
464.56        14.10966
465.01        14.30423
465.45        14.47384
465.89         14.5021
466.34        14.38485
466.78        14.08977
467.22        13.76532
467.67        13.78631
468.11        14.12336
468.55        14.33834
468.99        14.36741
469.44        14.39994
469.88        14.47334
470.32        14.64465
470.77        14.85131
471.21        14.88515
471.65         14.7275
472.10        14.53288
472.54        14.37444
472.98        14.32543
473.42        14.41126
473.87        14.61356
474.31        14.84721
474.75         14.9701
475.20        14.95561
475.64        14.84111
476.08        14.70109
476.52        14.65027
476.97        14.71722
477.41        14.86684
477.85        15.03918
478.29        15.16761
478.74        15.23129
479.18        15.17742
479.62        15.05586
480.06        15.19618
480.50        15.29918
480.95        15.39828
481.39        15.36801
481.83        15.33424
482.27        15.29754
482.72        15.13341
483.16        14.93048
483.60        15.01528
484.04        15.39212
484.48        15.65975
484.93        15.96719
485.37        16.31355
485.81        16.64023
486.25        16.85712
486.69         22.3378
487.14        17.75432
487.58        11.68352
488.02        14.25455
488.46        16.15182
488.90        16.23462
489.34        16.28741
489.79        16.25814
490.23        17.20317
490.67        17.65011
491.11        17.40646
491.55         17.2504
491.99        17.15717
492.43        16.98856
492.88        16.81588
493.32        16.82797
493.76        16.91626
494.20        17.13929
494.64        17.43726
495.08        17.79066
495.52        18.15395
495.96        18.48015
496.41        18.70162
496.85        18.80327
497.29        18.80316
497.73        18.55366
498.17        18.29053
498.61        18.46121
499.05        19.06158
499.49        19.19192
499.93        19.30796
500.37        19.44005
500.82        19.52982
501.26        19.76369
501.70        20.03925
502.14        20.19203
502.58        20.19877
503.02        20.21766
503.46        20.25705
503.90        20.21576
504.34         20.1282
504.78        20.09956
505.22        20.14716
505.66        20.24979
506.10        20.37269
506.54         20.4537
506.98        20.47726
507.42        20.46335
507.86        20.45573
508.30        20.52162
508.74        20.67048
509.18        20.87309
509.62        21.07918
510.06        21.20787
510.50        21.24066
510.94        21.21185
511.38        21.15343
511.82        21.11495
512.26        21.11497
512.70        21.13148
513.14        21.17799
513.58        21.27707
514.02        21.41302
514.46         21.5729
514.90        21.69848
515.34        21.66141
515.78        21.41882
516.22        21.16764
516.66        20.99848
517.10        20.60923
517.54        20.02959
517.98        20.85403
518.42        20.70539
518.86        21.08114
519.30        21.24986
519.74         21.4417
520.18        21.61246
520.62        21.66208
521.06        21.60732
521.50        21.45418
521.93        21.25918
522.37        21.12879
522.81        21.09203
523.25        21.12292
523.69        21.19582
524.13        21.26754
524.57        21.31797
525.01        21.35636
525.45        21.37394
525.89        21.35539
526.32         21.2974
526.76        21.20468
527.20        21.08475
527.64        20.96064
528.08        20.84655
528.52        20.72094
528.96        20.59218
529.40        20.52741
529.83        20.54034
530.27        20.40518
530.71        20.49542
531.15        20.43842
531.59        20.34791
532.03        20.22238
532.46        20.11819
532.90        20.12862
533.34        20.25734
533.78        20.46786
534.22        20.67205
534.66        20.74121
535.09         20.6458
535.53        20.43596
535.97        20.18124
536.41        19.99688
536.85        19.92059
537.28        19.92454
537.72        19.97229
538.16        20.00456
538.60        20.00467
539.04        19.97874
539.47        19.95863
539.91        20.03952
540.35        20.20707
540.79        20.35832
541.22        20.46427
541.66        20.56398
542.10        20.64732
542.54        20.67074
542.97        20.67422
543.41        20.75646
543.85        20.92686
544.29         21.1676
544.72        21.40021
545.16        21.51044
545.60        21.47954
546.04        21.34269
546.47        21.21531
546.91        21.28977
547.35        21.58831
547.79        22.04665
548.22        22.51499
548.66        22.73913
549.10        22.68097
549.53        22.46122
549.97        22.21225
550.41        22.07908
550.84        22.11668
551.28        22.28899
551.72        22.56104
552.15        22.86416
552.59        23.15433
553.03         23.4437
553.46        23.69065
553.90        23.85162
554.34        23.92856
554.77        23.90595
555.21         23.8231
555.65        23.82237
556.08        23.93892
556.52        23.84425
556.96        24.07892
557.39         24.1646
557.83        24.26267
558.27        24.36038
558.70        24.46146
559.14        24.55371
559.57        24.62485
560.01        24.68719
560.45        24.72405
560.88        24.71143
561.32        24.67088
561.75        24.59869
562.19        24.54299
562.63         24.5423
563.06        24.59953
563.50        24.70512
563.93        24.82936
564.37        24.93658
564.80        25.00721
565.24        25.06326
565.68        25.10172
566.11        25.12076
566.55        25.14381
566.98        25.16214
567.42        25.21231
567.85        25.34759
568.29        25.58498
568.72        25.82342
569.16        26.05374
569.60         26.3687
570.03        26.64259
570.47        26.59223
570.90        26.35403
571.34        26.03664
571.77        26.29069
572.21        26.46153
572.64        26.48174
573.08        26.17484
573.51        25.52948
573.95        26.62938
574.38        28.15832
574.82        27.65492
