SpectraSmart Spectrum 2.9.0.0
--------- Device Information -----------
Spectrum Name :  反射率_0
Saving Time :  2024/04/26 00:06:22
Spectro-Module Model Name : SE2030-DUVN
Spectro-Module Serial Number : OS361AC55029948
Wavelength Start : 200
Wavelength End : 1025
Wavelength Unit : Wavelength(nm)
Spectrum Unit : Reflectance(%)
-----------Spectrum Setting ------------
Integration Time : 20ms
Average : 10
Boxcar : 0
Background removal :  enabled
linearity correction :  enabled
SC :  disabled
Intensity correction :  disabled
DWT denoise :  enabled
savitzky-golay :  disabled
FFT :  disabled
Running average :  disabled
Kalman :  disabled
High pass :  disabled
---------------BEGIN--------------------
Wavelength(nm)             Reflectance(%)
200.29               0
200.75         80.6276
201.21        76.92721
201.67        72.19977
202.13        69.60078
202.58        69.54258
203.04        71.55205
203.50        73.91422
203.96        73.83094
204.42        71.14169
204.88        67.27314
205.34        64.08878
205.80        63.44105
206.26        66.03648
206.72        73.55697
207.18        89.50255
207.64        105.3907
208.10        99.20052
208.55        81.94109
209.01        70.01753
209.47        65.00246
209.93        63.82977
210.39         64.8271
210.85        66.16176
211.31        64.55611
211.77        59.42138
212.23        52.24263
212.69        46.23753
213.14        46.35288
213.60        53.00668
214.06        64.53635
214.52        77.00982
214.98        84.46045
215.44        85.30632
215.90        81.49304
216.36        75.34209
216.81        70.08647
217.27        67.11671
217.73         65.5084
218.19        64.19048
218.65        61.64529
219.11        57.06699
219.57        49.86693
220.02        40.93269
220.48        36.06811
220.94        38.21866
221.40        46.10011
221.86        53.15112
222.32        52.63498
222.77        45.64983
223.23        36.07177
223.69        28.49972
224.15        27.70295
224.61        32.95996
225.06        41.81303
225.52        50.40723
225.98        53.74577
226.44         51.0356
226.90        44.46355
227.36        36.98566
227.81        32.61124
228.27        32.50255
228.73        35.08509
229.19        38.83054
229.65        41.49373
230.10        42.45156
230.56        42.54263
231.02        42.38028
231.48        42.58486
231.93         43.2478
232.39        44.08245
232.85        44.82207
233.31          45.178
233.77        45.06243
234.22        44.56265
234.68        43.92347
235.14        43.53188
235.60         43.5268
236.05         43.8348
236.51        44.14997
236.97        43.95333
237.43        43.15436
237.88        41.92703
238.34         40.6427
238.80        40.48017
239.26        42.02224
239.71        44.98797
240.17        48.72476
240.63        52.46318
241.08        55.76039
241.54        58.56693
242.00        60.62373
242.46         61.7333
242.91        62.06157
243.37        60.82895
243.83        57.59761
244.28         60.1899
244.74        87.71815
245.20        102.9387
245.66        102.3424
246.11        101.9636
246.57        103.4334
247.03         107.939
247.48        112.7412
247.94        80.89658
248.40        68.74847
248.85         68.3498
249.31        69.76648
249.77        71.94373
250.22        75.17065
250.68         80.3654
251.14        87.74061
251.59        93.09335
252.05        92.01926
252.51        86.19765
252.96        79.05653
253.42        74.53713
253.88        72.33708
254.33        70.98555
254.79         71.2379
255.25         73.5389
255.70        77.03897
256.16        81.29777
256.62        83.96468
257.07        82.63088
257.53        78.28189
257.99        71.95168
258.44        66.01758
258.90        64.04417
259.35        64.95007
259.81        67.07873
260.27        68.09055
260.72        65.78983
261.18        61.02592
261.63        54.90066
262.09        49.23314
262.55        45.44269
263.00        43.51193
263.46        42.80954
263.91         42.3813
264.37        41.47701
264.83        39.90924
265.28        37.86808
265.74         35.9311
266.19        34.71329
266.65        34.39748
267.11        34.60426
267.56        34.78901
268.02        34.30773
268.47         33.0597
268.93        31.28322
269.38        29.35396
269.84        28.14399
270.30        27.88028
270.75        28.30578
271.21        28.95178
271.66        29.12054
272.12        28.62455
272.57        27.68825
273.03        26.65112
273.48        25.94057
273.94        25.69068
274.39        25.71048
274.85        25.78862
275.31        25.62244
275.76          25.135
276.22        24.46149
276.67        23.75533
277.13        23.31203
277.58          23.134
278.04        23.14453
278.49        23.12358
278.95         22.8201
279.40        22.17899
279.86        21.35234
280.31        20.50455
280.77        19.98039
281.22        19.80411
281.68        19.88158
282.13        20.03963
282.59        20.05966
283.04        19.89247
283.50         19.6454
283.95        19.38376
284.41        19.21885
284.86        19.17253
285.32        19.19701
285.77        19.29169
286.22        19.52043
286.68        19.84462
287.13        20.21827
287.59        20.50536
288.04        20.49764
288.50        20.19517
288.95        19.66411
289.41        19.07726
289.86        18.59813
290.32        18.33112
290.77        18.21647
291.22         18.2585
291.68        18.41969
292.13        18.68279
292.59        19.06143
293.04        19.52349
293.50        20.01398
293.95        20.50167
294.40        20.96386
294.86         21.4074
295.31        21.86335
295.77        22.34337
296.22        22.84459
296.68        23.33368
297.13        23.72774
297.58        24.03517
298.04        24.30085
298.49        24.62321
298.95        25.18887
299.40        26.01518
299.85        27.03386
300.31        28.09962
300.76        28.99206
301.21        29.63096
301.67        30.09928
302.12        30.43842
302.58        30.77267
303.03        31.12097
303.48        31.45613
303.94        31.82659
304.39        32.27178
304.84         32.7958
305.30        33.38556
305.75        33.92529
306.20        34.24474
306.66        34.33968
307.11        34.25254
307.57        34.12893
308.02        34.10974
308.47        34.26086
308.93        34.52976
309.38        34.85749
309.83          35.184
310.29        35.46511
310.74        35.70319
311.19        35.87296
311.65        35.93328
312.10         35.8798
312.55        35.72958
313.00        35.49949
313.46        35.23393
313.91        34.95265
314.36        34.66978
314.82        34.44841
315.27        34.35926
315.72        34.41581
316.18        34.59288
316.63        34.80549
317.08        34.88823
317.53        34.79621
317.99        34.56134
318.44        34.28521
318.89        34.13633
319.35        34.14499
319.80        34.26931
320.25        34.38784
320.70        34.30323
321.16        33.97657
321.61        33.47736
322.06        32.94339
322.51        32.58223
322.97        32.42913
323.42        32.42792
323.87        32.46058
324.32        32.33167
324.78        31.98987
325.23        31.51489
325.68        30.99464
326.13        30.57383
326.59        30.29398
327.04        30.12669
327.49        30.04088
327.94        29.99124
328.39        29.95414
328.85        29.93616
329.30        29.94527
329.75         29.9437
330.20        29.92459
330.66        29.87253
331.11        29.82253
331.56        29.78918
332.01        29.77509
332.46        29.76204
332.92         29.7409
333.37        29.73579
333.82        29.73156
334.27        29.73703
334.72        29.70566
335.17         29.5603
335.63        29.29306
336.08        28.93682
336.53        28.59411
336.98        28.43498
337.43        28.49395
337.88        28.72818
338.34        28.99334
338.79        29.09831
339.24         28.9685
339.69        28.65887
340.14        28.31102
340.59        28.17254
341.05        28.29346
341.50         28.5888
341.95        28.90973
342.40        29.04345
342.85        28.94127
343.30        28.67833
343.75        28.33584
344.20        28.05774
344.66        27.89689
345.11        27.78014
345.56        27.69756
346.01        27.63021
346.46        27.55822
346.91        27.50813
347.36        27.40604
347.81        27.12595
348.26        26.67387
348.72        26.12565
349.17        25.60695
349.62        25.40379
350.07        25.57676
350.52        26.02514
350.97          26.596
351.42        27.05494
351.87        27.31913
352.32        27.43823
352.77        27.43197
353.22         27.3396
353.67        27.18645
354.13        26.96671
354.58        26.69527
355.03        26.43985
355.48        26.22406
355.93        26.05252
356.38         25.9171
356.83         25.7908
357.28         25.6603
357.73        25.52625
358.18        25.38965
358.63        25.24994
359.08        25.10777
359.53        24.97005
359.98        24.81302
360.43        24.60209
360.88        24.33975
361.33        24.03496
361.78         23.7613
362.23        23.63823
362.68        23.67637
363.13        23.82574
363.58        23.97348
364.03        23.94277
364.48        23.69664
364.93        23.29918
365.38         22.8347
365.83        22.44054
366.28        22.16755
366.73        21.97644
367.18        21.86445
367.63        21.82562
368.08        21.83979
368.53        21.90726
368.98        21.97436
369.43        21.95031
369.88        21.81997
370.33        21.61049
370.78        21.36614
371.23        21.17095
371.68        21.05416
372.13        20.98513
372.58        20.97264
373.03        21.02836
373.48        21.13462
373.93        21.28405
374.38        21.39915
374.83        21.35803
375.28         21.1452
375.72        20.79141
376.17        20.41248
376.62        20.16083
377.07        20.08138
377.52        20.12275
377.97        20.23376
378.42        20.32743
378.87        20.36583
379.32        20.37561
379.77         20.3404
380.22        20.23339
380.67        20.05828
381.11        19.81944
381.56         19.5624
382.01        19.37672
382.46        19.28594
382.91        19.27032
383.36        19.28433
383.81        19.24756
384.26        19.14274
384.71        19.00207
385.15          18.851
385.60        18.73936
386.05        18.66811
386.50        18.60586
386.95        18.55384
387.40        18.51891
387.85        18.49774
388.29         18.4937
388.74         18.4683
389.19        18.33497
389.64        18.09063
390.09        17.75285
390.54         17.4302
390.98        17.30836
391.43        17.43004
391.88        17.72089
392.33        18.02682
392.78         18.1194
393.23        17.96595
393.67        17.64244
394.12        17.30305
394.57        17.10138
395.02        17.07252
395.47        17.15737
395.91        17.29607
396.36        17.36194
396.81        17.31832
397.26        17.19628
397.71        17.03881
398.15        16.88826
398.60        16.78526
399.05        16.72003
399.50        16.65421
399.95        16.48729
400.39        16.28518
400.84        16.01694
401.29        15.78333
401.74        15.73327
402.18        15.90653
402.63         16.2309
403.08        16.58881
403.53        16.79123
403.97        16.78796
404.42        16.63295
404.87        16.39912
405.32        16.21744
405.76        16.13295
406.21        16.11064
406.66         16.1249
407.11        16.14542
407.55        16.16319
408.00        16.18706
408.45        16.20834
408.90        16.19577
409.34        16.14272
409.79        16.05659
410.24        15.96546
410.68        15.91018
411.13        15.90296
411.58        15.93573
412.03        15.98623
412.47        16.01802
412.92        16.00888
413.37        15.96867
413.81        15.92523
414.26        15.93753
414.71        16.00418
415.15        16.10798
415.60        16.18371
416.05        16.14703
416.49        15.98323
416.94        15.73567
417.39        15.46472
417.83        15.27447
418.28         15.2051
418.73        15.21502
419.17        15.28534
419.62        15.37799
420.07        15.47357
420.51        15.58467
420.96        15.66228
421.41        15.62125
421.85         15.4516
422.30        15.20302
422.74        14.95533
423.19         14.8583
423.64         14.9224
424.08        15.11322
424.53        15.34307
424.98        15.48357
425.42        15.49573
425.87        15.40742
426.31        15.26231
426.76        15.17492
427.21        15.14822
427.65        15.05001
428.10        14.94334
428.54        15.02181
428.99        15.29108
429.44        15.66732
429.88        15.99056
430.33        16.05814
430.77        15.83779
431.22        15.39405
431.66        14.91716
432.11        14.75969
432.56         14.9505
433.00        15.30541
433.45        15.64669
433.89        15.86992
434.34        15.87243
434.78        15.55364
435.23        15.14938
435.67        15.14009
436.12        15.47493
436.57        15.61647
437.01        15.50361
437.46         15.4251
437.90        15.40997
438.35        15.37691
438.79        15.31992
439.24         15.2748
439.68        15.25373
440.13         15.1837
440.57         15.1087
441.02        15.30181
441.46        15.64516
441.91        15.57917
442.35        15.16573
442.80        14.96026
443.24         14.9401
443.69        14.89333
444.13        14.78474
444.58        14.56413
445.02        14.30547
445.47        14.31314
445.91        14.52779
446.36        14.59073
446.80        14.47011
447.24        14.36623
447.69        14.31768
448.13         14.2863
448.58        14.28666
449.02        14.32537
449.47        14.36987
449.91        14.36722
450.36        14.31166
450.80        14.21479
451.25         14.1293
451.69        14.12526
452.13        14.21584
452.58        14.36327
453.02        14.51421
453.47          14.583
453.91        14.55114
454.36        14.45026
454.80        14.30919
455.24        14.16827
455.69        14.05719
456.13        13.98482
456.58        13.97353
457.02        13.97493
457.46        14.02007
457.91        14.22576
458.35        14.51715
458.79        14.65433
459.24        14.61736
459.68        14.49782
460.13        14.36987
460.57         14.2802
461.01         14.2679
461.46         14.3118
461.90        14.37958
462.34        14.40968
462.79        14.38369
463.23        14.31317
463.68        14.24768
464.12        14.26815
464.56        14.38984
465.01          14.592
465.45        14.76432
465.89        14.79993
466.34        14.69517
466.78        14.40589
467.22        14.08187
467.67        14.10538
468.11        14.44445
468.55        14.65577
468.99        14.66083
469.44        14.63101
469.88        14.60605
470.32        14.65255
470.77        14.74405
471.21        14.73302
471.65        14.61318
472.10        14.51917
472.54        14.48007
472.98        14.49721
473.42        14.57855
473.87        14.72801
474.31        14.89462
474.75        14.99116
475.20        15.00282
475.64        14.94366
476.08         14.8672
476.52        14.85743
476.97        14.93419
477.41         15.0773
477.85        15.22729
478.29        15.31754
478.74        15.33208
479.18        15.21512
479.62        15.03942
480.06        15.16947
480.50        15.30839
480.95        15.47852
481.39        15.51566
481.83        15.48538
482.27        15.38036
482.72        15.10263
483.16        14.77902
483.60        14.78569
484.04        15.14058
484.48        15.43223
484.93        15.79191
485.37        16.21007
485.81        16.64503
486.25        16.95339
486.69         22.5907
487.14        18.05639
487.58         11.6508
488.02        14.24642
488.46        16.10184
488.90        16.25727
489.34        16.33926
489.79        16.24307
490.23        17.06353
490.67        17.54767
491.11        17.47945
491.55        17.35569
491.99        17.15234
492.43         16.9424
492.88        16.80597
493.32        16.81328
493.76        16.85962
494.20        17.06285
494.64         17.3674
495.08        17.74088
495.52         18.1291
495.96         18.4688
496.41        18.68958
496.85        18.78467
497.29        18.78196
497.73        18.54786
498.17        18.31962
498.61        18.53833
499.05        19.19539
499.49        19.37244
499.93        19.52044
500.37         19.6736
500.82        19.76938
501.26        19.99176
501.70        20.23926
502.14        20.34784
502.58        20.30987
503.02        20.30931
503.46        20.35975
503.90        20.35369
504.34         20.3089
504.78        20.30348
505.22        20.34762
505.66        20.42716
506.10        20.52052
506.54        20.58833
506.98        20.62146
507.42        20.63228
507.86        20.65253
508.30        20.73173
508.74        20.87465
509.18        21.05731
509.62        21.23977
510.06        21.35741
510.50         21.3957
510.94        21.38394
511.38        21.34237
511.82        21.30235
512.26        21.27911
512.70        21.25751
513.14          21.265
513.58        21.34664
514.02        21.49237
514.46         21.6818
514.90        21.84409
515.34        21.83135
515.78        21.59508
516.22        21.33701
516.66         21.1542
517.10         20.7569
517.54        20.17686
517.98        20.99908
518.42        20.84704
518.86        21.20997
519.30        21.35741
519.74        21.52626
520.18        21.66979
520.62        21.68278
521.06        21.58426
521.50        21.38099
521.93         21.1492
522.37        21.02778
522.81          21.047
523.25        21.16633
523.69         21.3257
524.13        21.42869
524.57        21.44571
525.01         21.4066
525.45         21.3287
525.89         21.2404
526.32         21.1538
526.76        21.05854
527.20        20.96197
527.64        20.88665
528.08        20.83826
528.52        20.79355
528.96        20.73351
529.40        20.68177
529.83        20.64618
530.27        20.41486
530.71        20.39464
531.15        20.26439
531.59        20.15218
532.03        20.04352
532.46        19.97856
532.90        20.02206
533.34         20.1667
533.78        20.38385
534.22        20.59049
534.66        20.66483
535.09        20.57895
535.53        20.37853
535.97         20.1272
536.41        19.93339
536.85        19.83415
537.28        19.80438
537.72        19.81839
538.16         19.8334
538.60        19.83585
539.04        19.82733
539.47        19.82573
539.91        19.90425
540.35        20.04516
540.79        20.15413
541.22        20.21736
541.66        20.29639
542.10        20.38727
542.54        20.44038
542.97        20.48481
543.41        20.60154
543.85        20.79548
544.29        21.05453
544.72        21.30744
545.16         21.4513
545.60        21.46889
546.04        21.38847
546.47        21.31921
546.91         21.4445
547.35        21.78369
547.79        22.27676
548.22        22.77282
548.66        23.01599
549.10        22.96965
549.53         22.7545
549.97        22.51384
550.41        22.40914
550.84        22.49824
551.28        22.74276
551.72        23.08904
552.15        23.43564
552.59        23.73164
553.03        23.99854
553.46        24.22094
553.90        24.39589
554.34        24.53242
554.77        24.60164
555.21        24.61556
555.65        24.67384
556.08        24.80243
556.52        24.67875
556.96        24.88824
557.39        24.97478
557.83        25.11519
558.27        25.28147
558.70        25.46446
559.14        25.63198
559.57        25.76177
560.01        25.87178
560.45        25.94277
560.88        25.94571
561.32        25.90567
561.75        25.82273
562.19        25.75404
562.63        25.75116
563.06         25.8214
563.50        25.95194
563.93        26.11611
564.37         26.2822
564.80        26.42599
565.24        26.56584
565.68        26.68167
566.11         26.7462
566.55        26.78036
566.98        26.78559
567.42        26.81741
567.85          26.955
568.29        27.22908
568.72        27.53643
569.16        27.85653
569.60        28.26627
570.03        28.62626
570.47        28.62351
570.90        28.41939
571.34        28.14678
571.77        28.54588
572.21        28.76386
572.64        29.01917
573.08        28.56331
573.51        27.60067
573.95        28.82708
574.38        30.79338
574.82        30.18232
