SpectraSmart Spectrum 2.9.0.0
--------- Device Information -----------
Spectrum Name :  反射率_0
Saving Time :  2024/04/25 23:56:50
Spectro-Module Model Name : SE2030-DUVN
Spectro-Module Serial Number : OS361AC55029948
Wavelength Start : 200
Wavelength End : 1025
Wavelength Unit : Wavelength(nm)
Spectrum Unit : Reflectance(%)
-----------Spectrum Setting ------------
Integration Time : 20ms
Average : 10
Boxcar : 0
Background removal :  enabled
linearity correction :  enabled
SC :  disabled
Intensity correction :  disabled
DWT denoise :  enabled
savitzky-golay :  disabled
FFT :  disabled
Running average :  disabled
Kalman :  disabled
High pass :  disabled
---------------BEGIN--------------------
Wavelength(nm)             Reflectance(%)
200.29               0
200.75        87.61903
201.21        79.64359
201.67        69.90971
202.13        63.33517
202.58        60.64036
203.04        60.71859
203.50        62.59289
203.96        64.55706
204.42        65.76184
204.88         66.6399
205.34        67.32274
205.80        67.98446
206.26        68.86777
206.72        70.19473
207.18        71.60555
207.64          69.992
208.10        63.97946
208.55        58.61666
209.01        56.32252
209.47        56.35405
209.93        57.74559
210.39        60.72051
210.85        63.55357
211.31        62.48541
211.77        56.82515
212.23        47.96357
212.69        40.15058
213.14        40.08046
213.60        48.54009
214.06        63.52866
214.52        79.67863
214.98        88.74822
215.44        88.70397
215.90        82.19259
216.36        73.07361
216.81        66.76617
217.27        64.87727
217.73        65.68057
218.19        66.56394
218.65         63.9803
219.11         56.6018
219.57        43.81083
220.02        27.69191
220.48        19.18911
220.94        24.26676
221.40        39.51641
221.86         54.1101
222.32        57.09126
222.77        49.72726
223.23        38.01019
223.69        27.87834
224.15        25.28063
224.61        29.72501
225.06        38.30535
225.52        47.20205
225.98        51.59804
226.44        50.58712
226.90        46.20265
227.36        41.08682
227.81        38.77561
228.27        40.24383
228.73        43.94156
229.19        48.13107
229.65        50.36108
230.10        50.17123
230.56        48.68692
231.02        46.99894
231.48        46.24819
231.93        46.54309
232.39        47.45426
232.85        48.40306
233.31        48.60986
233.77        47.87926
234.22        46.43372
234.68        44.83241
235.14        44.07811
235.60        44.49521
236.05        45.79416
236.51        47.24905
236.97        47.79033
237.43        47.16602
237.88        45.58396
238.34        43.61085
238.80        43.05624
239.26        44.80499
239.71        48.46517
240.17        52.73881
240.63        55.72246
241.08        56.79745
241.54        56.43678
242.00        55.21722
242.46        53.78307
242.91        52.15638
243.37        48.71626
243.83        41.52031
244.28        35.40205
244.74        59.58824
245.20        86.59809
245.66         91.4538
246.11        90.90141
246.57        88.17394
247.03        78.55276
247.48        41.41516
247.94        27.53422
248.40        58.96613
248.85        72.20155
249.31        77.87755
249.77        80.35698
250.22        81.53382
250.68         82.3164
251.14        82.17127
251.59        79.06856
252.05        73.13102
252.51        66.46195
252.96        61.37687
253.42        59.77757
253.88        60.73745
254.33        63.28859
254.79        67.16778
255.25        71.22891
255.70        74.66389
256.16        77.79674
256.62        79.32472
257.07        77.93475
257.53        74.52156
257.99        69.57353
258.44        65.05238
258.90        64.03199
259.35        65.39204
259.81           67.74
260.27        68.81371
260.72        66.47475
261.18        61.63441
261.63        55.38538
262.09        49.65801
262.55        45.99718
263.00        44.34932
263.46        44.01769
263.91        43.92214
264.37        43.19245
264.83        41.65836
265.28         39.5727
265.74        37.61152
266.19        36.52416
266.65        36.48661
267.11        37.01931
267.56        37.50227
268.02        37.23528
268.47        36.10775
268.93          34.395
269.38        32.45978
269.84        31.14479
270.30        30.69663
270.75        30.88764
271.21        31.32283
271.66        31.41321
272.12        30.98837
272.57        30.22375
273.03        29.41897
273.48        28.93187
273.94        28.86287
274.39        29.03689
274.85        29.19454
275.31        28.95685
275.76         28.2621
276.22        27.29291
276.67        26.31656
277.13        25.80539
277.58        25.77818
278.04        26.08543
278.49        26.40977
278.95        26.37292
279.40        25.87987
279.86        25.13013
280.31        24.28895
280.77        23.71257
281.22        23.43803
281.68        23.37057
282.13        23.38256
282.59        23.33519
283.04        23.18002
283.50        23.00264
283.95        22.80179
284.41         22.5899
284.86        22.36834
285.32        22.12853
285.77        21.92503
286.22        21.90768
286.68        22.06399
287.13        22.32612
287.59        22.53047
288.04         22.4224
288.50        21.99449
288.95        21.32855
289.41        20.62664
289.86        20.08831
290.32        19.82157
290.77        19.74627
291.22        19.82661
291.68        19.96881
292.13        20.13943
292.59        20.36102
293.04        20.63862
293.50        20.98006
293.95        21.36445
294.40        21.74912
294.86        22.08623
295.31        22.32162
295.77        22.45232
296.22        22.50476
296.68        22.51449
297.13        22.51101
297.58         22.5337
298.04        22.59734
298.49        22.73665
298.95        23.03354
299.40        23.48043
299.85        24.04279
300.31        24.63412
300.76        25.13141
301.21        25.47953
301.67         25.7248
302.12        25.86341
302.58        25.94264
303.03         25.9697
303.48        25.94902
303.94        25.95546
304.39        26.07156
304.84        26.31558
305.30        26.65742
305.75        26.99165
306.20        27.16214
306.66        27.15552
307.11        27.00883
307.57        26.82959
308.02        26.71183
308.47        26.70797
308.93        26.78156
309.38        26.89949
309.83        27.03914
310.29        27.17375
310.74        27.30475
311.19        27.40693
311.65        27.43982
312.10        27.39557
312.55        27.28308
313.00        27.11644
313.46        26.93124
313.91        26.73701
314.36        26.54564
314.82        26.38811
315.27        26.29699
315.72        26.28174
316.18        26.32999
316.63        26.41133
317.08        26.45286
317.53        26.43042
317.99        26.35037
318.44         26.2502
318.89        26.19394
319.35        26.18766
319.80         26.2158
320.25        26.21406
320.70        26.08219
321.16        25.80682
321.61        25.42519
322.06        25.02534
322.51        24.73792
322.97         24.5843
323.42        24.53724
323.87        24.51781
324.32        24.39299
324.78        24.13136
325.23         23.7833
325.68        23.42069
326.13        23.16225
326.59        23.03561
327.04        23.01514
327.49        23.05011
327.94        23.06095
328.39        23.01829
328.85        22.93517
329.30         22.8508
329.75          22.798
330.20        22.78943
330.66        22.79613
331.11         22.8143
331.56        22.79486
332.01        22.72461
332.46        22.60858
332.92        22.47669
333.37        22.40399
333.82        22.40471
334.27        22.47339
334.72        22.54446
335.17        22.50779
335.63        22.33759
336.08        22.06437
336.53        21.79745
336.98        21.71602
337.43        21.85574
337.88        22.17214
338.34        22.49485
338.79        22.58896
339.24        22.37673
339.69        21.92282
340.14        21.43429
340.59        21.27008
341.05        21.49837
341.50        21.99811
341.95        22.52618
342.40        22.72828
342.85        22.53247
343.30        22.06527
343.75        21.48858
344.20        21.08714
344.66        20.95553
345.11        20.96878
345.56        21.07647
346.01        21.19852
346.46        21.28818
346.91        21.39491
347.36        21.41561
347.81        21.17686
348.26        20.68383
348.72        20.01893
349.17        19.37703
349.62        19.16598
350.07         19.4675
350.52        20.14173
350.97        20.94611
351.42        21.50562
351.87        21.71029
352.32         21.6612
352.77        21.45023
353.22        21.23108
353.67        21.06243
354.13        20.89901
354.58        20.72637
355.03        20.56421
355.48         20.4174
355.93        20.31163
356.38        20.23067
356.83        20.13043
357.28        20.00057
357.73        19.84328
358.18        19.69156
358.63        19.60007
359.08        19.57654
359.53         19.6069
359.98        19.62894
360.43        19.54774
360.88        19.34892
361.33        19.05909
361.78        18.77018
362.23        18.63208
362.68        18.66887
363.13        18.82383
363.58        18.98448
364.03        18.97558
364.48        18.75966
364.93        18.40234
365.38        17.98893
365.83        17.65477
366.28        17.44852
366.73        17.33127
367.18        17.28673
367.63        17.28873
368.08        17.31323
368.53        17.36263
368.98        17.40866
369.43         17.4016
369.88        17.33286
370.33        17.21883
370.78        17.06809
371.23         16.9038
371.68        16.74339
372.13        16.57875
372.58        16.46187
373.03        16.47683
373.48        16.62647
373.93        16.87845
374.38        17.12548
374.83        17.20135
375.28        17.07399
375.72        16.78542
376.17        16.45392
376.62        16.23365
377.07        16.17454
377.52        16.22679
377.97        16.34417
378.42        16.45037
378.87        16.51158
379.32        16.55029
379.77        16.56113
380.22        16.53261
380.67         16.4666
381.11        16.36206
381.56        16.23013
382.01        16.10376
382.46        15.99356
382.91        15.89297
383.36        15.80098
383.81        15.71152
384.26        15.62351
384.71          15.547
385.15        15.46401
385.60        15.35385
386.05         15.2084
386.50        15.02637
386.95        14.85048
387.40        14.75702
387.85        14.76185
388.29        14.84064
388.74        14.92395
389.19        14.90332
389.64         14.7656
390.09        14.53458
390.54        14.30469
390.98        14.23403
391.43        14.36054
391.88        14.62022
392.33        14.87887
392.78        14.94045
393.23        14.78155
393.67        14.47029
394.12        14.15664
394.57        13.99694
395.02        14.02348
395.47        14.18002
395.91        14.38682
396.36        14.48288
396.81        14.42227
397.26        14.24626
397.71        14.02889
398.15        13.86301
398.60        13.79467
399.05        13.79771
399.50        13.80699
399.95        13.69321
400.39         13.5028
400.84        13.22472
401.29        12.97446
401.74        12.93202
402.18        13.14385
402.63         13.5267
403.08        13.93911
403.53        14.15749
403.97        14.12496
404.42        13.90891
404.87        13.60546
405.32        13.38496
405.76         13.3043
406.21        13.31345
406.66        13.37061
407.11        13.42115
407.55        13.44946
408.00         13.4756
408.45        13.49454
408.90        13.48154
409.34        13.43389
409.79        13.35384
410.24        13.27478
410.68        13.24844
411.13        13.28601
411.58        13.37618
412.03        13.48197
412.47        13.53858
412.92        13.51752
413.37        13.43713
413.81        13.33975
414.26        13.30564
414.71        13.34151
415.15        13.42515
415.60         13.4902
416.05        13.44991
416.49        13.28673
416.94        13.04584
417.39        12.78377
417.83        12.59683
418.28        12.52443
418.73         12.5287
419.17        12.59205
419.62        12.67722
420.07        12.76681
420.51        12.86996
420.96        12.94809
421.41        12.93219
421.85        12.81137
422.30        12.62533
422.74        12.43125
423.19         12.3425
423.64        12.36703
424.08        12.48032
424.53        12.62136
424.98        12.70757
425.42        12.71477
425.87        12.66157
426.31        12.57021
426.76        12.51482
427.21        12.49088
427.65        12.39311
428.10        12.28635
428.54        12.34894
428.99        12.58963
429.44        12.93394
429.88         13.2339
430.33        13.29647
430.77        13.09384
431.22        12.68902
431.66        12.26152
432.11        12.13415
432.56        12.33674
433.00        12.70955
433.45        13.08086
433.89        13.31657
434.34        13.31234
434.78        12.99751
435.23        12.59526
435.67        12.53506
436.12        12.78095
436.57         12.8805
437.01        12.77507
437.46         12.6885
437.90         12.6416
438.35        12.57569
438.79        12.49736
439.24        12.45187
439.68        12.45085
440.13        12.42688
440.57        12.40125
441.02        12.57547
441.46        12.84606
441.91        12.75903
442.35        12.37846
442.80         12.1785
443.24        12.14056
443.69        12.08757
444.13        11.97985
444.58        11.76249
445.02        11.49504
445.47        11.43229
445.91        11.53586
446.36          11.537
446.80        11.41616
447.24        11.32551
447.69        11.29117
448.13        11.27454
448.58        11.28276
449.02        11.32105
449.47         11.3584
449.91        11.34461
450.36        11.27501
450.80        11.16177
451.25        11.05441
451.69        11.02049
452.13        11.07528
452.58        11.18446
453.02        11.30823
453.47        11.37783
453.91        11.37973
454.36        11.34053
454.80        11.27349
455.24        11.20208
455.69        11.14721
456.13        11.09473
456.58        11.08025
457.02        11.14037
457.46        11.27932
457.91        11.47673
458.35         11.6776
458.79        11.78364
459.24         11.7827
459.68        11.69196
460.13        11.57898
460.57        11.51616
461.01        11.53774
461.46        11.61253
461.90        11.70891
462.34        11.76367
462.79        11.75941
463.23         11.7115
463.68        11.65941
464.12        11.66505
464.56        11.74407
465.01        11.87839
465.45        11.99512
465.89        12.02843
466.34        11.97754
466.78        11.80386
467.22        11.60176
467.67         11.6422
468.11        11.88945
468.55        11.98654
468.99         11.9159
469.44        11.89128
469.88        11.95745
470.32        12.14672
470.77        12.37856
471.21        12.43277
471.65        12.28165
472.10        12.07355
472.54        11.89377
472.98        11.84377
473.42        11.95436
473.87        12.19317
474.31        12.47136
474.75        12.64271
475.20        12.67491
475.64        12.60485
476.08        12.50154
476.52        12.47163
476.97        12.54199
477.41        12.68086
477.85        12.82958
478.29         12.9206
478.74        12.93678
479.18        12.83861
479.62        12.68662
480.06        12.78628
480.50        12.88753
480.95        13.00531
481.39        13.01379
481.83        12.98964
482.27        12.93136
482.72        12.74871
483.16        12.52162
483.60        12.56016
484.04         12.8867
484.48        13.06581
484.93        13.25624
485.37        13.70822
485.81        14.29646
486.25        14.32424
486.69         18.9229
487.14        14.80683
487.58        9.908197
488.02        12.09008
488.46        13.65066
488.90        13.72271
489.34        13.84774
489.79        13.86257
490.23        14.66219
490.67        15.12649
491.11        15.04673
491.55        14.89237
491.99         14.6638
492.43         14.4469
492.88        14.32227
493.32        14.33892
493.76        14.39759
494.20        14.58592
494.64        14.85247
495.08        15.17192
495.52        15.51033
495.96        15.83489
496.41        16.08566
496.85        16.24406
497.29        16.31326
497.73        16.14572
498.17        15.94143
498.61        16.09833
499.05        16.61562
499.49        16.71383
499.93        16.79551
500.37         16.8855
500.82        16.94622
501.26        17.16039
501.70        17.44033
502.14        17.63765
502.58        17.70721
503.02        17.74701
503.46        17.75696
503.90        17.66178
504.34        17.51737
504.78        17.45691
505.22        17.50684
505.66        17.63616
506.10        17.80011
506.54        17.91895
506.98        17.96911
507.42        17.97607
507.86        17.98024
508.30        18.04361
508.74        18.17651
509.18        18.34923
509.62        18.52262
510.06          18.636
510.50         18.6745
510.94        18.66658
511.38        18.63106
511.82        18.59487
512.26        18.57273
512.70        18.55353
513.14        18.56038
513.58        18.63142
514.02        18.75739
514.46        18.91883
514.90        19.06288
515.34        19.06896
515.78        18.89015
516.22        18.72407
516.66        18.63844
517.10        18.28028
517.54        17.67069
517.98        18.46325
518.42        18.23593
518.86        18.57378
519.30        18.73473
519.74        18.94455
520.18        19.14343
520.62        19.20493
521.06        19.13835
521.50        18.95725
521.93        18.72672
522.37        18.56627
522.81        18.50972
523.25         18.5284
523.69        18.58925
524.13        18.63864
524.57        18.65511
525.01        18.65128
525.45        18.63364
525.89        18.61022
526.32        18.58167
526.76        18.54568
527.20        18.48513
527.64        18.38446
528.08        18.24926
528.52        18.07018
528.96        17.88562
529.40        17.80259
529.83        17.84233
530.27        17.79326
530.71        17.94397
531.15        17.91261
531.59        17.78788
532.03         17.5876
532.46        17.39946
532.90        17.36975
533.34        17.51595
533.78         17.7822
534.22        18.05593
534.66        18.17226
535.09        18.09178
535.53        17.87621
535.97        17.60494
536.41         17.4071
536.85        17.32569
537.28        17.32719
537.72        17.37553
538.16        17.41238
538.60        17.42109
539.04        17.41189
539.47        17.41284
539.91        17.50564
540.35        17.67694
540.79        17.83336
541.22        17.95094
541.66        18.06678
542.10         18.1721
542.54        18.22916
542.97        18.26438
543.41        18.35131
543.85        18.49877
544.29        18.69797
544.72        18.89807
545.16        19.02677
545.60        19.07162
546.04        19.05115
546.47        19.04879
546.91        19.20551
547.35        19.53104
547.79         19.9774
548.22        20.41504
548.66        20.62357
549.10        20.57476
549.53        20.37384
549.97        20.15141
550.41        20.05473
550.84        20.13601
551.28         20.3622
551.72        20.68414
552.15        21.00783
552.59        21.28636
553.03         21.5403
553.46        21.75502
553.90        21.92614
554.34        22.06203
554.77        22.13482
555.21        22.15949
555.65        22.23187
556.08        22.37479
556.52        22.29509
556.96        22.51033
557.39        22.59251
557.83        22.69938
558.27         22.8106
558.70        22.93329
559.14        23.06206
559.57         23.1829
560.01        23.30625
560.45         23.3995
560.88        23.41177
561.32        23.36194
561.75        23.25901
562.19        23.17049
562.63        23.16629
563.06        23.25718
563.50        23.42199
563.93        23.62324
564.37        23.81114
564.80         23.9575
565.24        24.08514
565.68        24.18251
566.11        24.23534
566.55        24.26563
566.98        24.26934
567.42        24.29583
567.85        24.41597
568.29        24.65546
568.72        24.92314
569.16        25.20209
569.60        25.54816
570.03         25.8334
570.47        25.81605
570.90        25.65121
571.34        25.32103
571.77        25.71975
572.21        25.94845
572.64        26.12945
573.08        25.78774
573.51        25.02207
573.95        26.11159
574.38        27.77584
574.82        27.11218
