SpectraSmart Spectrum 2.9.0.0
--------- Device Information -----------
Spectrum Name :  反射率_0
Saving Time :  2024/04/26 00:36:35
Spectro-Module Model Name : SE2030-DUVN
Spectro-Module Serial Number : OS361AC55029948
Wavelength Start : 200
Wavelength End : 1025
Wavelength Unit : Wavelength(nm)
Spectrum Unit : Reflectance(%)
-----------Spectrum Setting ------------
Integration Time : 20ms
Average : 10
Boxcar : 0
Background removal :  enabled
linearity correction :  enabled
SC :  disabled
Intensity correction :  disabled
DWT denoise :  enabled
savitzky-golay :  disabled
FFT :  disabled
Running average :  disabled
Kalman :  disabled
High pass :  disabled
---------------BEGIN--------------------
Wavelength(nm)             Reflectance(%)
200.29               0
200.75        90.28088
201.21        83.22366
201.67        75.15646
202.13        70.02032
202.58         68.2954
203.04        69.25257
203.50        71.57075
203.96        72.97199
204.42        72.79828
204.88        71.81699
205.34         70.9388
205.80        71.14573
206.26        72.94379
206.72        77.34748
207.18        85.64806
207.64        91.40568
208.10        83.69804
208.55        71.58337
209.01        64.66486
209.47         63.1497
209.93        64.86172
210.39         69.1692
210.85        73.66023
211.31        73.15779
211.77        66.44726
212.23         55.5429
212.69        45.52582
213.14        44.23169
213.60        52.80008
214.06        68.98434
214.52        86.88064
214.98        97.37152
215.44        98.22096
215.90        92.36968
216.36        84.11272
216.81        79.44917
217.27        79.89981
217.73         83.2143
218.19        86.53201
218.65        86.22717
219.11          81.103
219.57        70.87661
220.02        57.31155
220.48        49.56165
220.94        52.80126
221.40        64.33595
221.86        75.32678
222.32        76.69943
222.77        69.55063
223.23        59.18862
223.69        50.55097
224.15        48.66988
224.61        53.01172
225.06         60.9349
225.52        69.19033
225.98        73.67062
226.44        73.52939
226.90        70.51527
227.36        66.52641
227.81        64.05242
228.27        64.02798
228.73        65.34646
229.19        67.28854
229.65        68.86234
230.10        69.67729
230.56        70.19888
231.02        70.55692
231.48        70.87172
231.93        71.14102
232.39        71.32201
232.85         71.3426
233.31        71.20697
233.77        70.90282
234.22        70.46712
234.68        69.86697
235.14        69.07484
235.60        68.17321
236.05        67.25824
236.51        66.46695
236.97        65.88744
237.43        65.51874
237.88        65.43304
238.34        65.50404
238.80        65.77645
239.26        66.20425
239.71        66.88393
240.17        67.49524
240.63        68.09909
241.08        68.77825
241.54        69.42982
242.00        70.12501
242.46        71.00308
242.91        72.55682
243.37        75.47832
243.83        84.45642
244.28        117.3747
244.74        161.0959
245.20        144.5727
245.66        125.6811
246.11         120.212
246.57        122.7501
247.03        135.5934
247.48        169.2991
247.94        132.2756
248.40        91.11312
248.85        80.62128
249.31        78.41746
249.77        79.11674
250.22        81.66995
250.68         86.6531
251.14        93.70085
251.59        97.40308
252.05        93.17164
252.51        83.59995
252.96        74.37876
253.42        71.03918
253.88        72.86242
254.33        77.76646
254.79        83.81386
255.25        87.72528
255.70        88.89523
256.16        89.02053
256.62        88.54997
257.07        87.80885
257.53        87.18924
257.99        85.91571
258.44        84.26909
258.90        83.63723
259.35        83.16013
259.81        82.81583
260.27        81.38282
260.72        77.62424
261.18        72.43925
261.63        66.36041
262.09        61.01244
262.55        57.55585
263.00        55.84487
263.46        55.36089
263.91        55.06679
264.37        54.21527
264.83        52.59972
265.28        50.41529
265.74        48.26772
266.19        46.78142
266.65        46.21409
267.11        46.18892
267.56        46.18288
268.02        45.61991
268.47        44.36438
268.93        42.64046
269.38        40.78857
269.84        39.61061
270.30        39.31729
270.75        39.68077
271.21        40.23038
271.66        40.26065
272.12        39.60159
272.57        38.46469
273.03        37.27124
273.48         36.5594
273.94        36.46853
274.39        36.74706
274.85        37.05632
275.31        36.88383
275.76        36.12556
276.22        35.01812
276.67        33.83466
277.13        33.07365
277.58        32.77042
278.04        32.78926
278.49        32.84308
278.95        32.61948
279.40        32.01844
279.86        31.22384
280.31        30.36371
280.77         29.7511
281.22        29.40053
281.68        29.23737
282.13        29.12441
282.59        28.92616
283.04        28.59281
283.50        28.21646
283.95        27.81667
284.41        27.44875
284.86        27.12233
285.32        26.82923
285.77        26.59624
286.22        26.53401
286.68        26.62463
287.13        26.80625
287.59        26.94864
288.04        26.84094
288.50        26.47569
288.95         25.8981
289.41        25.26727
289.86        24.71322
290.32        24.33549
290.77        24.08076
291.22        23.93925
291.68        23.85322
292.13        23.80943
292.59         23.8307
293.04        23.94643
293.50        24.20366
293.95        24.58511
294.40        25.03755
294.86        25.48234
295.31        25.81078
295.77         26.0066
296.22        26.11312
296.68        26.17531
297.13        26.24002
297.58        26.35612
298.04         26.5308
298.49        26.81564
298.95        27.32492
299.40        28.04929
299.85        28.94017
300.31        29.86967
300.76        30.64405
301.21        31.18772
301.67        31.56743
302.12        31.80342
302.58        31.99463
303.03        32.15839
303.48        32.28702
303.94        32.44888
304.39        32.71175
304.84        33.08834
305.30        33.55195
305.75        33.99163
306.20        34.24487
306.66        34.30138
307.11        34.20201
307.57        34.05633
308.02        33.94856
308.47         33.9428
308.93        34.01094
309.38        34.14665
309.83         34.3749
310.29        34.66836
310.74        34.99487
311.19        35.29167
311.65        35.46096
312.10        35.47499
312.55        35.36486
313.00        35.13674
313.46        34.81873
313.91        34.43743
314.36        34.01648
314.82        33.65511
315.27         33.4813
315.72        33.52134
316.18        33.73547
316.63        34.01926
317.08        34.17018
317.53        34.12759
317.99        33.93262
318.44        33.67941
318.89         33.5266
319.35        33.50407
319.80        33.56515
320.25         33.6087
320.70        33.47723
321.16        33.13913
321.61        32.65365
322.06        32.12922
322.51        31.72273
322.97        31.46334
323.42        31.31983
323.87        31.20308
324.32        30.96758
324.78        30.58102
325.23         30.1024
325.68         29.6252
326.13        29.30163
326.59         29.1623
327.04        29.17468
327.49        29.24889
327.94         29.2416
328.39        29.10898
328.85        28.88019
329.30        28.64368
329.75        28.50924
330.20        28.51246
330.66        28.59805
331.11        28.72546
331.56         28.7849
332.01        28.73911
332.46        28.60193
332.92        28.41046
333.37        28.26881
333.82        28.19866
334.27        28.19479
334.72        28.17601
335.17        28.00751
335.63        27.66957
336.08        27.21324
336.53        26.80606
336.98        26.71611
337.43        26.98753
337.88         27.5376
338.34        28.11648
338.79         28.3614
339.24        28.15566
339.69         27.6046
340.14        26.95125
340.59        26.62619
341.05          26.738
341.50        27.14463
341.95        27.63509
342.40        27.90345
342.85        27.87257
343.30        27.65411
343.75         27.3305
344.20        27.04276
344.66         26.8495
345.11        26.66809
345.56        26.52402
346.01        26.45807
346.46        26.45924
346.91        26.54367
347.36        26.58343
347.81         26.3638
348.26        25.87541
348.72        25.21996
349.17        24.59094
349.62        24.38747
350.07        24.68941
350.52         25.3492
350.97        26.13733
351.42        26.70429
351.87        26.94219
352.32        26.94532
352.77        26.77832
353.22        26.55151
353.67         26.3169
354.13        26.04398
354.58        25.75438
355.03        25.52628
355.48        25.37696
355.93        25.31381
356.38        25.28414
356.83        25.18566
357.28        24.99408
357.73        24.73134
358.18        24.46038
358.63         24.2823
359.08        24.21801
359.53        24.23904
359.98        24.26385
360.43         24.1678
360.88        23.92884
361.33        23.58444
361.78        23.24093
362.23        23.07027
362.68        23.10102
363.13        23.26573
363.58        23.43838
364.03        23.42438
364.48        23.18019
364.93        22.77757
365.38        22.30838
365.83          21.918
366.28        21.66037
366.73        21.49587
367.18        21.40882
367.63        21.37399
368.08        21.36872
368.53        21.39685
368.98        21.43314
369.43         21.4309
369.88        21.38016
370.33        21.29421
370.78        21.17221
371.23        21.02309
371.68        20.85888
372.13        20.67149
372.58        20.52084
373.03        20.50644
373.48        20.63535
373.93        20.87271
374.38        21.09987
374.83         21.1317
375.28        20.93512
375.72        20.56201
376.17        20.14923
376.62        19.88095
377.07        19.81433
377.52        19.88813
377.97        20.04039
378.42        20.17022
378.87        20.23306
379.32        20.25531
379.77        20.23452
380.22          20.163
380.67        20.04622
381.11        19.88618
381.56         19.6936
382.01        19.50187
382.46        19.32768
382.91        19.16871
383.36        19.04331
383.81        18.97356
384.26        18.95825
384.71        18.99173
385.15        19.02256
385.60        18.98726
386.05        18.86423
386.50        18.66152
386.95        18.43629
387.40        18.29288
387.85        18.26075
388.29        18.30942
388.74        18.36897
389.19        18.31706
389.64        18.13794
390.09        17.85723
390.54         17.5845
390.98        17.50234
391.43        17.65031
391.88        17.95318
392.33        18.24482
392.78        18.28306
393.23        18.04296
393.67        17.61426
394.12        17.18596
394.57        16.95664
395.02        16.96922
395.47        17.15532
395.91        17.42284
396.36        17.58341
396.81         17.5777
397.26        17.44732
397.71         17.2689
398.15        17.13791
398.60        17.10217
399.05        17.13094
399.50        17.14648
399.95        16.99443
400.39        16.73648
400.84        16.35791
401.29         16.0036
401.74        15.89959
402.18        16.10866
402.63         16.5371
403.08        17.01701
403.53        17.28003
403.97        17.25819
404.42        17.03058
404.87        16.71261
405.32        16.50676
405.76        16.47381
406.21         16.5468
406.66        16.66612
407.11        16.75709
407.55        16.79906
408.00        16.81768
408.45        16.80765
408.90        16.74404
409.34        16.63092
409.79        16.47616
410.24        16.32877
410.68         16.2583
411.13        16.28097
411.58        16.38507
412.03        16.52435
412.47        16.61564
412.92        16.62078
413.37        16.55887
413.81        16.48419
414.26        16.49902
414.71        16.61064
415.15        16.78787
415.60        16.93623
416.05        16.92576
416.49        16.73213
416.94        16.41384
417.39         16.0648
417.83        15.84373
418.28         15.8049
418.73        15.88951
419.17         16.0444
419.62        16.18216
420.07        16.27203
420.51        16.34109
420.96        16.36721
421.41        16.31015
421.85        16.16895
422.30        15.97531
422.74        15.78113
423.19        15.70015
423.64        15.73649
424.08        15.87012
424.53        16.03226
424.98        16.13021
425.42        16.13797
425.87        16.07059
426.31        15.96115
426.76        15.90915
427.21        15.91028
427.65        15.83443
428.10        15.74063
428.54        15.82114
428.99        16.08248
429.44         16.4376
429.88         16.7399
430.33        16.81076
430.77        16.61992
431.22        16.22451
431.66        15.79618
432.11        15.66682
432.56        15.85945
433.00        16.18706
433.45        16.48896
433.89        16.70914
434.34        16.75331
434.78        16.49249
435.23        16.13708
435.67        16.15087
436.12        16.47166
436.57        16.54402
437.01         16.3295
437.46        16.17608
437.90        16.12948
438.35        16.09164
438.79        16.04907
439.24        16.02703
439.68         16.0303
440.13        15.98701
440.57        15.93571
441.02        16.14274
441.46         16.4818
441.91        16.39376
442.35        15.95394
442.80        15.70881
443.24        15.66325
443.69        15.70158
444.13        15.75933
444.58         15.6278
445.02         15.3657
445.47        15.37791
445.91        15.60534
446.36        15.63897
446.80        15.45259
447.24         15.2705
447.69        15.14762
448.13        15.06774
448.58        15.05146
449.02        15.09742
449.47        15.16297
449.91        15.17735
450.36        15.12697
450.80        15.02862
451.25        14.93004
451.69        14.89332
452.13        14.93609
452.58        15.02752
453.02        15.13202
453.47        15.19283
453.91        15.19823
454.36        15.16832
454.80        15.12125
455.24        15.08609
455.69        15.07901
456.13        15.07842
456.58        15.09726
457.02        15.13314
457.46        15.19036
457.91        15.26586
458.35        15.33434
458.79        15.34768
459.24        15.30954
459.68        15.22133
460.13         15.1395
460.57        15.11271
461.01        15.16736
461.46        15.27965
461.90        15.41069
462.34        15.48982
462.79        15.49557
463.23        15.43885
463.68        15.36995
464.12        15.37696
464.56        15.47857
465.01        15.65472
465.45        15.80069
465.89        15.81882
466.34        15.70801
466.78         15.4212
467.22        15.09943
467.67         15.1204
468.11        15.44425
468.55        15.60373
468.99        15.55187
469.44        15.52869
469.88        15.58334
470.32        15.76525
470.77        16.00138
471.21        16.05648
471.65         15.9048
472.10        15.71888
472.54         15.5656
472.98        15.50247
473.42        15.55645
473.87        15.71309
474.31        15.90962
474.75        16.04047
475.20        16.08246
475.64        16.05829
476.08        16.01068
476.52        16.00495
476.97        16.05933
477.41        16.15481
477.85        16.25549
478.29         16.3377
478.74        16.39405
479.18        16.35229
479.62        16.25108
480.06        16.42407
480.50        16.53911
480.95        16.63902
481.39        16.59191
481.83        16.53517
482.27        16.47252
482.72        16.27787
483.16        16.04506
483.60        16.10081
484.04        16.42529
484.48        16.67924
484.93        17.06232
485.37        17.38896
485.81         17.5965
486.25        18.50547
486.69        24.22852
487.14        19.50471
487.58        12.66474
488.02          15.385
488.46        17.51465
488.90        17.56821
489.34        17.51285
489.79        17.28971
490.23        18.12991
490.67        18.76654
491.11        18.90863
491.55        18.88422
491.99        18.65059
492.43        18.44976
492.88        18.36315
493.32        18.34118
493.76        18.29272
494.20        18.45986
494.64        18.79742
495.08        19.23554
495.52        19.69672
495.96        20.08123
496.41        20.30235
496.85        20.37569
497.29        20.34011
497.73        20.03771
498.17        19.74193
498.61        19.97544
499.05        20.71636
499.49        20.90589
499.93        21.02452
500.37        21.14788
500.82        21.22494
501.26          21.462
501.70        21.75328
502.14          21.916
502.58        21.92648
503.02        21.95955
503.46        22.02301
503.90        22.00768
504.34        21.93815
504.78        21.90769
505.22        21.93157
505.66        21.99377
506.10        22.08204
506.54        22.15007
506.98        22.18485
507.42        22.24026
507.86        22.35077
508.30        22.35002
508.74        22.58822
509.18        22.76624
509.62        22.94917
510.06        23.06742
510.50        23.11073
510.94        23.10152
511.38        23.06333
511.82        23.04377
512.26        23.05807
512.70         23.0842
513.14        23.12688
513.58        23.22114
514.02        23.35803
514.46        23.47516
514.90         23.5079
515.34        23.59184
515.78        23.25262
516.22        23.02858
516.66        22.88329
517.10        22.53945
517.54        22.02103
517.98        22.88276
518.42        22.79333
518.86        23.17859
519.30        23.32275
519.74        23.45971
520.18        23.56687
520.62        23.58105
521.06        23.52728
521.50        23.40001
521.93         23.2421
522.37        23.13615
522.81         23.1031
523.25        23.12605
523.69        23.17959
524.13        23.21995
524.57        23.23064
525.01        23.22134
525.45        23.19653
525.89        23.16316
526.32        23.12222
526.76        23.07255
527.20        23.00517
527.64        22.91676
528.08        22.81365
528.52        22.67679
528.96        22.52515
529.40        22.44942
529.83        22.46759
530.27        22.32622
530.71        22.42375
531.15        22.33705
531.59        22.19041
532.03        21.99331
532.46        21.81997
532.90         21.7916
533.34        21.91856
533.78        22.15148
534.22        22.39536
534.66        22.51068
535.09        22.46111
535.53        22.30286
535.97        22.08556
536.41        21.89442
536.85        21.76485
537.28        21.67458
537.72        21.63073
538.16        21.64573
538.60        21.71526
539.04        21.82301
539.47        21.93997
539.91        22.07442
540.35        22.19317
540.79        22.21402
541.22        22.17373
541.66         22.2215
542.10        22.37019
542.54        22.53945
542.97        22.70852
543.41        22.88445
543.85        23.05489
544.29        23.23381
544.72        23.39209
545.16         23.4926
545.60        23.53342
546.04        23.51955
546.47        23.52898
546.91        23.69768
547.35        24.03214
547.79        24.49144
548.22        24.94281
548.66         25.1564
549.10        25.10543
549.53        24.90404
549.97        24.69013
550.41         24.6138
550.84        24.72959
551.28        25.00452
551.72        25.38452
552.15        25.76402
552.59        26.09048
553.03        26.38325
553.46        26.62617
553.90        26.82064
554.34        26.97579
554.77        27.05855
555.21        27.07967
555.65        27.14439
556.08        27.28046
556.52        27.13598
556.96        27.35343
557.39        27.42783
557.83         27.5559
558.27        27.70999
558.70        27.88927
559.14        28.07353
559.57        28.23815
560.01         28.3949
560.45        28.51243
560.88        28.53485
561.32        28.48106
561.75        28.38227
562.19        28.29841
562.63        28.22196
563.06        28.19505
563.50         28.3427
563.93        28.60907
564.37        28.80121
564.80        28.88428
565.24        28.96326
565.68         29.0488
566.11        29.12509
566.55        29.22088
566.98        29.33158
567.42        29.47406
567.85        29.66676
568.29        29.92872
568.72        30.17145
569.16        30.43759
569.60        30.84516
570.03        31.23627
570.47        31.37792
570.90        31.42312
571.34        30.88983
571.77        31.39819
572.21        31.71367
572.64        31.76236
573.08        31.24747
573.51         30.1939
573.95         31.5619
574.38        33.81113
574.82        32.82182
