SpectraSmart Spectrum 2.9.0.0
--------- Device Information -----------
Spectrum Name :  反射率_0
Saving Time :  2024/04/26 00:50:11
Spectro-Module Model Name : SE2030-DUVN
Spectro-Module Serial Number : OS361AC55029948
Wavelength Start : 200
Wavelength End : 1025
Wavelength Unit : Wavelength(nm)
Spectrum Unit : Reflectance(%)
-----------Spectrum Setting ------------
Integration Time : 20ms
Average : 10
Boxcar : 0
Background removal :  enabled
linearity correction :  enabled
SC :  disabled
Intensity correction :  disabled
DWT denoise :  enabled
savitzky-golay :  disabled
FFT :  disabled
Running average :  disabled
Kalman :  disabled
High pass :  disabled
---------------BEGIN--------------------
Wavelength(nm)             Reflectance(%)
200.29               0
200.75        78.17831
201.21        74.19284
201.67        69.69891
202.13        66.94333
202.58        66.17462
203.04        67.20699
203.50        68.94653
203.96        69.55266
204.42        68.66711
204.88        66.91823
205.34        65.43836
205.80        65.44804
206.26        67.47473
206.72         72.8561
207.18        83.08781
207.64        89.33314
208.10        78.33933
208.55        62.81256
209.01        54.15676
209.47        52.23843
209.93        54.22989
210.39        59.10315
210.85        64.32725
211.31        64.39626
211.77        57.85542
212.23         46.9539
212.69        36.29874
213.14        32.96851
213.60        38.15437
214.06        49.94218
214.52        64.00662
214.98        73.58707
215.44        76.64594
215.90        75.04888
216.36        71.29471
216.81        68.80914
217.27         68.6748
217.73        69.65431
218.19        69.97954
218.65        67.24918
219.11         60.4479
219.57        48.83233
220.02        33.77835
220.48         24.1903
220.94         25.4868
221.40        35.73841
221.86        46.56536
222.32        48.99026
222.77        43.61624
223.23        34.91956
223.69        27.47643
224.15        25.95997
224.61        29.82383
225.06         36.6813
225.52        43.14583
225.98        45.00699
226.44        41.64646
226.90        35.11731
227.36        27.92428
227.81        23.35289
228.27        22.50967
228.73        24.16097
229.19        27.32821
229.65        30.53477
230.10        33.06025
230.56        35.08455
231.02        36.75146
231.48        38.21991
231.93        39.52047
232.39        40.57184
232.85        41.08423
233.31        40.68626
233.77        39.35001
234.22        37.18844
234.68        34.81703
235.14        33.37561
235.60        33.29623
236.05        34.38727
236.51        35.91379
236.97        36.71289
237.43        36.52074
237.88        35.57579
238.34         34.4831
238.80        34.91798
239.26        37.59452
239.71        42.00745
240.17        46.80503
240.63        50.08234
241.08        51.27877
241.54        50.90439
242.00        49.67572
242.46        48.48295
242.91        47.59188
243.37        46.09929
243.83        45.00591
244.28        58.61625
244.74        105.4838
245.20        119.5153
245.66        112.7072
246.11        109.0033
246.57        108.0039
247.03        106.9726
247.48        92.58868
247.94        54.30619
248.40         58.4199
248.85        65.00184
249.31        69.42593
249.77        73.04544
250.22        77.14896
250.68        83.22173
251.14        91.15825
251.59        95.35333
252.05        90.95113
252.51        80.82896
252.96        70.40726
253.42        64.85423
253.88        63.56316
254.33        64.54571
254.79        67.67603
255.25        72.07802
255.70        76.55314
256.16         81.0983
256.62        83.66988
257.07        82.16364
257.53        77.65401
257.99        71.09077
258.44        64.90034
258.90        62.72462
259.35         63.4939
259.81        65.53503
260.27        66.48109
260.72        64.09437
261.18        59.22093
261.63        52.99846
262.09        47.24585
262.55        43.39838
263.00        41.44551
263.46        40.73512
263.91        40.33046
264.37        39.48442
264.83        38.01234
265.28        36.10419
265.74        34.30143
266.19        33.16948
266.65        32.87429
267.11         33.0462
267.56        33.19475
268.02        32.73582
268.47        31.57282
268.93        29.92696
269.38        28.10169
269.84        26.84139
270.30        26.35545
270.75        26.44501
271.21        26.76114
271.66        26.78178
272.12         26.3546
272.57         25.6476
273.03        24.90706
273.48        24.42068
273.94        24.27803
274.39        24.32626
274.85        24.39473
275.31        24.24338
275.76         23.8128
276.22        23.21543
276.67        22.57625
277.13        22.15166
277.58        21.94437
278.04        21.89617
278.49        21.83393
278.95        21.56391
279.40        21.03672
279.86        20.37932
280.31        19.70011
280.77        19.25915
281.22        19.06551
281.68         19.0502
282.13         19.0981
282.59        19.07072
283.04         18.9341
283.50        18.77076
283.95        18.59217
284.41        18.42671
284.86        18.28569
285.32        18.15349
285.77        18.09726
286.22        18.27805
286.68        18.67307
287.13         19.2019
287.59        19.66078
288.04        19.74322
288.50        19.42906
288.95        18.81947
289.41        18.14205
289.86        17.64245
290.32        17.44015
290.77         17.4449
291.22        17.61602
291.68        17.85124
292.13        18.11714
292.59        18.44703
293.04        18.84046
293.50        19.29088
293.95          19.778
294.40        20.26089
294.86        20.71522
295.31        21.12631
295.77        21.49584
296.22        21.83666
296.68        22.14597
297.13        22.39031
297.58        22.59071
298.04        22.77603
298.49        23.01806
298.95        23.45928
299.40        24.10883
299.85        24.91864
300.31        25.76581
300.76        26.46607
301.21        26.95308
301.67        27.29636
302.12        27.53626
302.58        27.78987
303.03        28.06912
303.48        28.34264
303.94        28.64095
304.39        28.97916
304.84        29.35728
305.30        29.77156
305.75        30.12587
306.20        30.27888
306.66        30.23834
307.11        30.04736
307.57        29.84604
308.02        29.77177
308.47         29.8833
308.93        30.12431
309.38        30.43852
309.83        30.76652
310.29        31.05853
310.74        31.31444
311.19        31.48713
311.65         31.5051
312.10        31.36223
312.55        31.08493
313.00        30.72415
313.46        30.38061
313.91        30.08863
314.36        29.84669
314.82        29.68328
315.27        29.61839
315.72         29.6497
316.18        29.76593
316.63        29.90505
317.08        29.94035
317.53        29.83835
317.99        29.61982
318.44        29.36091
318.89        29.19196
319.35        29.13424
319.80        29.15108
320.25         29.1577
320.70        29.01708
321.16        28.70294
321.61        28.27047
322.06        27.79949
322.51        27.40477
322.97        27.10941
323.42        26.88679
323.87         26.6967
324.32        26.47846
324.78        26.21225
325.23        25.92337
325.68         25.6263
326.13        25.34324
326.59         25.0773
327.04           24.84
327.49        24.61475
327.94         24.3807
328.39        24.13782
328.85        23.88254
329.30        23.68126
329.75        23.61092
330.20        23.68125
330.66        23.84618
331.11        24.03164
331.56        24.07186
332.01        23.92117
332.46        23.60794
332.92        23.20859
333.37        22.89787
333.82        22.73293
334.27        22.68821
334.72        22.69146
335.17          22.614
335.63        22.41932
336.08        22.15065
336.53        21.90133
336.98        21.81926
337.43        21.92816
337.88         22.1771
338.34        22.40908
338.79        22.41869
339.24        22.13592
339.69        21.62316
340.14        21.06255
340.59          20.772
341.05        20.82216
341.50        21.11688
341.95        21.46926
342.40         21.6002
342.85        21.44681
343.30        21.10912
343.75        20.69023
344.20        20.37357
344.66        20.22078
345.11        20.13192
345.56         20.1005
346.01        20.11694
346.46        20.15137
346.91        20.22943
347.36        20.22128
347.81         19.9116
348.26        19.30054
348.72         18.4977
349.17        17.71991
349.62        17.40866
350.07        17.65685
350.52        18.30552
350.97         19.1196
351.42        19.73554
351.87        20.03499
352.32        20.11688
352.77        20.01564
353.22        19.79465
353.67        19.50164
354.13        19.11726
354.58        18.71904
355.03        18.47442
355.48        18.41718
355.93        18.52665
356.38        18.68727
356.83        18.69525
357.28        18.50232
357.73        18.16325
358.18        17.79219
358.63        17.57159
359.08        17.54336
359.53        17.64966
359.98        17.77691
360.43        17.75251
360.88         17.5402
361.33        17.19627
361.78        16.83956
362.23        16.65928
362.68        16.69185
363.13        16.86314
363.58        17.04892
364.03        17.05912
364.48        16.85081
364.93        16.49712
365.38        16.08375
365.83        15.74497
366.28        15.52984
366.73         15.3963
367.18        15.33477
367.63        15.33135
368.08        15.36377
368.53        15.43302
368.98        15.49662
369.43         15.4815
369.88        15.37726
370.33        15.20951
370.78        15.00841
371.23        14.83342
371.68        14.70928
372.13        14.61271
372.58        14.57662
373.03         14.6519
373.48        14.82888
373.93        15.08701
374.38        15.31679
374.83        15.34931
375.28        15.15808
375.72        14.78475
376.17         14.3762
376.62         14.1343
377.07        14.11562
377.52        14.25505
377.97        14.46524
378.42        14.60165
378.87        14.61741
379.32        14.56209
379.77        14.46444
380.22        14.36197
380.67        14.27104
381.11         14.1755
381.56        14.08151
382.01        14.01328
382.46        13.97448
382.91        13.96203
383.36        13.96187
383.81         13.9458
384.26        13.90561
384.71        13.85005
385.15        13.77782
385.60        13.69507
386.05        13.60106
386.50        13.49139
386.95        13.38339
387.40        13.30963
387.85        13.27978
388.29        13.28696
388.74        13.30398
389.19        13.28152
389.64        13.21187
390.09        13.10212
390.54        12.99535
390.98        12.96182
391.43        13.02231
391.88        13.14636
392.33        13.26414
392.78        13.27369
393.23        13.16561
393.67        12.97054
394.12        12.78599
394.57         12.7024
395.02        12.73782
395.47        12.85952
395.91        13.00994
396.36        13.06845
396.81        13.00387
397.26        12.84251
397.71        12.65029
398.15        12.51122
398.60        12.46435
399.05         12.4876
399.50        12.51244
399.95        12.40666
400.39        12.21051
400.84         11.9177
401.29        11.64589
401.74        11.58382
402.18        11.78143
402.63        12.15558
403.08        12.56243
403.53         12.7735
403.97         12.7313
404.42        12.50641
404.87        12.19856
405.32        11.98384
405.76        11.91921
406.21        11.94847
406.66        12.02625
407.11        12.09357
407.55        12.13261
408.00        12.16567
408.45        12.18238
408.90        12.14999
409.34        12.06698
409.79        11.94025
410.24        11.81761
410.68        11.76967
411.13        11.81106
411.58        11.92852
412.03        12.07274
412.47        12.15474
412.92        12.14001
413.37        12.05206
413.81        11.95071
414.26        11.94281
414.71        12.04012
415.15        12.21155
415.60        12.36777
416.05        12.38671
416.49        12.24145
416.94        11.98485
417.39        11.69781
417.83        11.51829
418.28        11.49312
418.73         11.5687
419.17         11.6952
419.62        11.78755
420.07        11.82125
420.51        11.82426
420.96        11.78997
421.41        11.70267
421.85        11.56909
422.30        11.41178
422.74        11.26684
423.19        11.21654
423.64         11.2604
424.08        11.38078
424.53        11.52568
424.98        11.62491
425.42        11.65655
425.87        11.63508
426.31        11.56779
426.76        11.50589
427.21        11.44396
427.65        11.29119
428.10         11.1363
428.54        11.18772
428.99        11.46063
429.44        11.87056
429.88        12.24542
430.33        12.35196
430.77        12.15418
431.22        11.72906
431.66        11.26978
432.11        11.11194
432.56        11.29204
433.00        11.65328
433.45        12.02485
433.89        12.25774
434.34        12.24786
434.78        11.94337
435.23        11.56122
435.67        11.50836
436.12        11.75599
436.57        11.88135
437.01        11.82712
437.46        11.79709
437.90        11.80418
438.35        11.79004
438.79        11.74959
439.24        11.70998
439.68         11.6804
440.13        11.60471
440.57        11.51306
441.02        11.60714
441.46        11.79934
441.91          11.676
442.35        11.30344
442.80        11.12048
443.24        11.10756
443.69            11.1
444.13        11.05572
444.58        10.91402
445.02         10.7199
445.47        10.70814
445.91         10.8353
446.36        10.83723
446.80        10.69543
447.24        10.55978
447.69        10.46703
448.13        10.40012
448.58        10.37446
449.02        10.39286
449.47        10.42763
449.91        10.43212
450.36        10.39799
450.80        10.33213
451.25        10.27304
451.69        10.27131
452.13        10.33642
452.58        10.43823
453.02         10.5361
453.47        10.56078
453.91        10.50285
454.36        10.39055
454.80        10.25416
455.24        10.14639
455.69        10.09353
456.13         10.0732
456.58        10.09956
457.02        10.17682
457.46        10.30226
457.91        10.46753
458.35        10.62969
458.79        10.70964
459.24        10.70082
459.68        10.61172
460.13        10.51082
460.57        10.47418
461.01        10.53277
461.46        10.65503
461.90        10.79338
462.34        10.85834
462.79        10.82895
463.23        10.72678
463.68        10.61544
464.12        10.59843
464.56        10.70168
465.01        10.89219
465.45         11.0724
465.89        11.13878
466.34        11.08278
466.78         10.8818
467.22        10.64736
467.67        10.66542
468.11        10.91299
468.55        11.05347
468.99        11.04313
469.44        11.03647
469.88        11.06707
470.32        11.17816
470.77        11.32561
471.21        11.35767
471.65        11.25817
472.10        11.14371
472.54        11.05929
472.98        11.04665
473.42        11.12279
473.87        11.27901
474.31        11.45683
474.75        11.55576
475.20        11.55872
475.64          11.489
476.08        11.40954
476.52        11.41847
476.97        11.53601
477.41        11.73314
477.85        11.94206
478.29        12.07594
478.74        12.11319
479.18        12.02213
479.62        11.87022
480.06        11.96319
480.50        12.07245
480.95        12.20385
481.39        12.23816
481.83        12.24673
482.27        12.22602
482.72        12.09163
483.16        11.90832
483.60        11.95555
484.04         12.2515
484.48        12.39641
484.93        12.55849
485.37        12.99885
485.81        13.58337
486.25        13.75196
486.69        17.91515
487.14          14.174
487.58         9.62999
488.02        11.75847
488.46        13.23003
488.90        13.24767
489.34        13.41767
489.79        13.38189
490.23        14.04023
490.67        14.50792
491.11        14.56324
491.55        14.47214
491.99        14.23255
492.43        14.06053
492.88        14.03254
493.32        14.11012
493.76        14.20378
494.20         14.4535
494.64        14.81019
495.08        15.23085
495.52        15.65643
495.96        16.01814
496.41        16.25087
496.85        16.35024
497.29        16.35615
497.73        16.17735
498.17        16.02584
498.61        16.28606
499.05        16.93053
499.49        17.10642
499.93        17.20373
500.37        17.26911
500.82        17.29152
501.26        17.49924
501.70        17.81546
502.14        18.07321
502.58        18.21587
503.02        18.33001
503.46        18.40674
503.90        18.36987
504.34        18.27009
504.78        18.23385
505.22        18.28721
505.66        18.40202
506.10        18.53578
506.54        18.61501
506.98         18.6228
507.42        18.58659
507.86        18.56112
508.30        18.62889
508.74         18.8011
509.18        19.04054
509.62        19.28701
510.06        19.44293
510.50        19.48542
510.94        19.45761
511.38        19.39143
511.82        19.33645
512.26        19.31566
512.70        19.30642
513.14        19.34282
513.58        19.48103
514.02        19.70725
514.46        19.99495
514.90          20.249
515.34        20.28316
515.78        20.04071
516.22        19.73693
516.66         19.4918
517.10        19.04564
517.54        18.44248
517.98        19.29293
518.42         19.1578
518.86        19.53974
519.30        19.68707
519.74         19.8485
520.18        19.98155
520.62        19.98621
521.06        19.88281
521.50        19.67256
521.93        19.42899
522.37        19.28828
522.81        19.28124
523.25        19.37278
523.69        19.50195
524.13        19.56998
524.57        19.54857
525.01        19.46678
525.45        19.35579
525.89        19.26627
526.32        19.21171
526.76        19.17372
527.20        19.13186
527.64        19.06435
528.08        18.96932
528.52        18.84093
528.96        18.69215
529.40        18.59111
529.83        18.55702
530.27        18.38488
530.71        18.41945
531.15        18.33854
531.59         18.2472
532.03        18.14044
532.46          18.066
532.90        18.10204
533.34        18.24547
533.78        18.46235
534.22        18.66344
534.66        18.71882
535.09        18.60163
535.53        18.36362
535.97        18.08075
536.41        17.87841
536.85        17.79763
537.28        17.80808
537.72        17.87434
538.16        17.93661
538.60        17.97516
539.04        17.99599
539.47        18.02035
539.91        18.12351
540.35        18.29058
540.79        18.42923
541.22        18.52235
541.66         18.6201
542.10        18.71852
542.54        18.77798
542.97        18.82531
543.41        18.93431
543.85        19.11277
544.29        19.35109
544.72        19.59615
545.16        19.77266
545.60        19.86512
546.04        19.88986
546.47        19.92788
546.91        20.11742
547.35        20.46862
547.79        20.93767
548.22        21.39551
548.66        21.62172
549.10        21.59153
549.53        21.41301
549.97        21.22762
550.41        21.19719
550.84        21.37469
551.28         21.7207
551.72        22.16751
552.15         22.5878
552.59        22.92341
553.03        23.20203
553.46        23.42061
553.90        23.59688
554.34        23.74601
554.77        23.83232
555.21        23.86845
555.65         23.9518
556.08        24.10536
556.52        24.01797
556.96        24.24695
557.39        24.32821
557.83        24.43398
558.27        24.54574
558.70        24.67708
559.14        24.83235
559.57        24.99798
560.01        25.17948
560.45        25.33891
560.88        25.41766
561.32        25.42972
561.75        25.38154
562.19         25.3364
562.63        25.35632
563.06        25.45285
563.50          25.611
563.93        25.79946
564.37        25.98012
564.80        26.12895
565.24         26.2671
565.68        26.38799
566.11        26.48372
566.55        26.57687
566.98        26.66175
567.42        26.77053
567.85        26.94768
568.29        27.21514
568.72        27.47604
569.16        27.73608
569.60        28.11769
570.03         28.4931
570.47        28.52947
570.90        28.35278
571.34           28.11
571.77        28.45766
572.21        28.58713
572.64        28.73755
573.08        28.33599
573.51        27.55286
573.95        28.80912
574.38        30.66411
574.82          30.146
