SpectraSmart Spectrum 2.9.0.0
--------- Device Information -----------
Spectrum Name :  反射率_0
Saving Time :  2024/04/26 00:06:42
Spectro-Module Model Name : SE2030-DUVN
Spectro-Module Serial Number : OS361AC55029948
Wavelength Start : 200
Wavelength End : 1025
Wavelength Unit : Wavelength(nm)
Spectrum Unit : Reflectance(%)
-----------Spectrum Setting ------------
Integration Time : 20ms
Average : 10
Boxcar : 0
Background removal :  enabled
linearity correction :  enabled
SC :  disabled
Intensity correction :  disabled
DWT denoise :  enabled
savitzky-golay :  disabled
FFT :  disabled
Running average :  disabled
Kalman :  disabled
High pass :  disabled
---------------BEGIN--------------------
Wavelength(nm)             Reflectance(%)
200.29               0
200.75        81.04504
201.21        74.34188
201.67         67.0964
202.13        63.61258
202.58        64.26833
203.04        67.95809
203.50        72.84597
203.96        75.63969
204.42        75.44699
204.88        73.64883
205.34        71.43744
205.80        69.76105
206.26        68.67016
206.72        67.61008
207.18        65.91444
207.64        63.36496
208.10        61.85659
208.55        61.90564
209.01        62.65433
209.47        63.88837
209.93        65.52214
210.39        67.93331
210.85         69.6927
211.31           67.73
211.77        61.67441
212.23        52.90007
212.69        45.05981
213.14        43.85638
213.60        50.00563
214.06        61.96079
214.52         75.6895
214.98        84.87285
215.44        87.60251
215.90        85.57256
216.36        81.05253
216.81        77.19195
217.27        75.27184
217.73        74.42484
218.19         73.1646
218.65        69.32777
219.11        61.88361
219.57         49.8953
220.02        34.97831
220.48        26.53201
220.94        29.78244
221.40        42.20455
221.86        54.23232
222.32        55.90235
222.77        48.37188
223.23        37.09888
223.69        27.43234
224.15         24.7827
224.61        28.60538
225.06        36.10999
225.52        43.83779
225.98        47.51339
226.44        46.29372
226.90        42.06545
227.36        36.90089
227.81        33.51176
228.27        32.86624
228.73         33.8442
229.19        35.68999
229.65        37.33441
230.10        38.38863
230.56        39.21267
231.02        39.96116
231.48        40.75017
231.93        41.60141
232.39        42.41105
232.85        43.11271
233.31         43.6904
233.77        44.11606
234.22        44.39153
234.68        44.53271
235.14        44.48521
235.60        44.29037
236.05        44.06529
236.51        43.85113
236.97        43.64554
237.43         43.5139
237.88        43.53285
238.34        44.02279
238.80        45.74826
239.26        48.86794
239.71        53.18482
240.17        57.59398
240.63        60.73169
241.08         62.2418
241.54        62.28196
242.00        61.67219
242.46        61.71056
242.91         63.2529
243.37         67.2055
243.83        79.73309
244.28        121.1383
244.74        168.7126
245.20        144.1844
245.66        120.2155
246.11        111.5923
246.57         110.232
247.03        114.1951
247.48        123.2867
247.94        95.70287
248.40        79.90041
248.85        77.67658
249.31        78.76131
249.77        81.61642
250.22        86.39902
250.68        94.24162
251.14        104.8148
251.59        110.5737
252.05        104.7169
252.51        91.14654
252.96        77.38508
253.42        70.24045
253.88        68.99966
254.33        71.16974
254.79        75.72384
255.25        80.55276
255.70        84.41242
256.16        87.90153
256.62        89.74848
257.07        88.60442
257.53        85.34224
257.99        80.33253
258.44        75.28065
258.90        73.13145
259.35        72.93799
259.81        73.65437
260.27        73.35522
260.72        70.17714
261.18        64.97731
261.63        58.65538
262.09        52.92974
262.55        49.10186
263.00        47.10865
263.46        46.35163
263.91        45.87907
264.37        44.96531
264.83        43.41162
265.28        41.40527
265.74        39.47186
266.19        38.14428
266.65        37.63038
267.11         37.5859
267.56        37.57184
268.02        37.07806
268.47        35.99302
268.93        34.51313
269.38        32.88517
269.84        31.74782
270.30        31.27214
270.75        31.28081
271.21        31.46144
271.66        31.35061
272.12        30.81491
272.57        29.99993
273.03        29.14159
273.48        28.50658
273.94        28.18926
274.39        28.05646
274.85        27.95549
275.31        27.65767
275.76        27.11346
276.22        26.44058
276.67        25.76628
277.13        25.36004
277.58        25.21064
278.04        25.24137
278.49        25.26468
278.95        25.08043
279.40        24.62449
279.86        24.03078
280.31        23.36899
280.77        22.85194
281.22        22.49315
281.68        22.25677
282.13        22.09611
282.59        21.97883
283.04        21.87776
283.50         21.8353
283.95        21.79744
284.41        21.69692
284.86        21.51692
285.32        21.27839
285.77        21.06966
286.22        21.08812
286.68        21.33115
287.13        21.70804
287.59        22.03621
288.04         22.0378
288.50        21.69563
288.95        21.09998
289.41        20.45333
289.86        19.95518
290.32        19.71789
290.77        19.66552
291.22        19.77364
291.68        19.96411
292.13        20.21373
292.59        20.55228
293.04        20.98265
293.50        21.50562
293.95        22.09673
294.40        22.70724
294.86        23.30631
295.31        23.86773
295.77        24.38775
296.22        24.88247
296.68        25.33131
297.13         25.6728
297.58        25.92797
298.04        26.13641
298.49        26.41009
298.95        26.95885
299.40        27.79909
299.85        28.85378
300.31        29.95436
300.76        30.84014
301.21        31.42237
301.67        31.80124
302.12        32.02868
302.58        32.24746
303.03        32.48553
303.48        32.71393
303.94        32.99627
304.39        33.39374
304.84        33.91156
305.30        34.52864
305.75        35.10475
306.20        35.43203
306.66        35.49636
307.11        35.34816
307.57        35.15117
308.02        35.07202
308.47         35.1855
308.93        35.43595
309.38        35.75247
309.83         36.0564
310.29        36.30422
310.74         36.5083
311.19        36.66722
311.65        36.77542
312.10        36.83063
312.55        36.83109
313.00        36.76297
313.46        36.62035
313.91        36.40533
314.36        36.14613
314.82        35.91489
315.27        35.79779
315.72        35.81899
316.18        35.94827
316.63         36.1189
317.08        36.19622
317.53        36.13843
317.99        35.96876
318.44        35.75956
318.89        35.62991
319.35        35.59894
319.80        35.64206
320.25        35.65914
320.70        35.49144
321.16        35.11642
321.61        34.59294
322.06        34.05966
322.51        33.72477
322.97        33.61876
323.42          33.687
323.87        33.79241
324.32        33.70517
324.78        33.36404
325.23        32.85443
325.68         32.2871
326.13        31.84704
326.59        31.58811
327.04        31.47624
327.49        31.45804
327.94        31.44985
328.39        31.41871
328.85        31.37985
329.30        31.37389
329.75        31.41584
330.20        31.50618
330.66        31.60543
331.11        31.69972
331.56        31.72788
332.01        31.67229
332.46        31.53469
332.92        31.34223
333.37        31.19184
333.82        31.09899
334.27        31.06181
334.72        31.01841
335.17        30.86065
335.63        30.56954
336.08        30.18906
336.53        29.83603
336.98        29.69976
337.43        29.81474
337.88        30.12593
338.34        30.45669
338.79        30.56882
339.24        30.37662
339.69        29.94753
340.14        29.46449
340.59        29.24805
341.05        29.37082
341.50        29.73048
341.95        30.13751
342.40        30.31643
342.85        30.20688
343.30        29.90501
343.75        29.52597
344.20        29.27137
344.66        29.20297
345.11        29.21492
345.56        29.26445
346.01        29.28666
346.46        29.24962
346.91          29.202
347.36        29.06785
347.81        28.71727
348.26        28.16571
348.72        27.48825
349.17        26.85997
349.62        26.64846
350.07        26.92299
350.52        27.55449
350.97        28.31024
351.42        28.83097
351.87        29.01088
352.32        28.94357
352.77        28.71723
353.22        28.48166
353.67        28.29485
354.13         28.1151
354.58        27.92668
355.03        27.75005
355.48         27.5866
355.93         27.4534
356.38        27.33765
356.83        27.20144
357.28        27.03433
357.73        26.84341
358.18        26.63777
358.63        26.43306
359.08         26.2408
359.53        26.06702
359.98         25.9083
360.43        25.75982
360.88        25.62021
361.33        25.48035
361.78        25.36956
362.23        25.33616
362.68        25.37164
363.13        25.44709
363.58        25.47675
364.03        25.32891
364.48         24.9868
364.93        24.50716
365.38        23.98145
365.83        23.55691
366.28        23.28377
366.73        23.12102
367.18        23.05271
367.63        23.04819
368.08        23.07512
368.53        23.13348
368.98        23.16911
369.43        23.09198
369.88        22.89324
370.33        22.60943
370.78        22.28764
371.23        22.01769
371.68        21.83487
372.13        21.70356
372.58        21.66627
373.03        21.78667
373.48        22.04631
373.93        22.41762
374.38        22.73787
374.83        22.75727
375.28        22.43965
375.72        21.85281
376.17          21.213
376.62        20.84022
377.07        20.82129
377.52        21.05474
377.97        21.39591
378.42        21.60616
378.87        21.60966
379.32        21.48594
379.77        21.29091
380.22        21.09933
380.67         20.9401
381.11          20.785
381.56        20.63238
382.01        20.49896
382.46        20.38761
382.91        20.30001
383.36        20.23679
383.81        20.18915
384.26        20.14956
384.71        20.11887
385.15        20.06326
385.60        19.94813
386.05        19.76178
386.50        19.50968
386.95         19.2473
387.40        19.07664
387.85        19.02534
388.29        19.05982
388.74         19.1162
389.19        19.07611
389.64        18.92138
390.09        18.67765
390.54        18.42951
390.98        18.31914
391.43        18.38468
391.88        18.56797
392.33        18.75327
392.78        18.77143
393.23        18.60397
393.67        18.30926
394.12        18.02415
394.57        17.87591
395.02        17.89138
395.47        18.01895
395.91        18.19898
396.36        18.30083
396.81        18.28633
397.26        18.18468
397.71        18.03701
398.15        17.88571
398.60         17.7753
399.05        17.69711
399.50        17.62398
399.95        17.46839
400.39        17.30165
400.84        17.08555
401.29        16.90602
401.74        16.88102
402.18        17.04243
402.63        17.32825
403.08        17.63912
403.53         17.8144
403.97        17.81231
404.42        17.67706
404.87        17.47435
405.32        17.32337
405.76        17.25957
406.21        17.24716
406.66        17.25734
407.11        17.25472
407.55        17.23012
408.00        17.19622
408.45        17.14079
408.90        17.03109
409.34        16.87327
409.79        16.68606
410.24        16.52629
410.68        16.47096
411.13        16.53454
411.58        16.69618
412.03        16.90195
412.47        17.05482
412.92         17.1075
413.37        17.08294
413.81        17.02403
414.26        17.01816
414.71        17.07537
415.15        17.16944
415.60        17.24013
416.05        17.21234
416.49        17.07221
416.94        16.86371
417.39        16.63702
417.83        16.47461
418.28        16.41123
418.73        16.41147
419.17        16.46468
419.62        16.54748
420.07        16.64374
420.51        16.75957
420.96        16.84459
421.41        16.81251
421.85        16.64935
422.30         16.4052
422.74        16.15242
423.19         16.0311
423.64        16.05098
424.08         16.1839
424.53         16.3502
424.98        16.43925
425.42        16.42323
425.87        16.32841
426.31        16.20141
426.76        16.16195
427.21        16.20883
427.65        16.19671
428.10        16.17855
428.54          16.341
428.99        16.68046
429.44        17.10722
429.88        17.44924
430.33        17.49494
430.77        17.21786
431.22        16.69121
431.66        16.13048
432.11        15.93939
432.56         16.1546
433.00        16.53929
433.45        16.90089
433.89        17.21445
434.34        17.32151
434.78        16.90661
435.23        16.28329
435.67        16.20707
436.12        16.63256
436.57         16.8611
437.01        16.79604
437.46        16.75502
437.90        16.75846
438.35        16.71843
438.79        16.64361
439.24        16.59569
439.68        16.59392
440.13        16.55093
440.57        16.50823
441.02        16.75493
441.46        17.15952
441.91        17.11278
442.35        16.67925
442.80        16.46471
443.24        16.44631
443.69        16.38871
444.13        16.26228
444.58        16.02635
445.02        15.76304
445.47        15.80195
445.91         16.0634
446.36        16.12566
446.80        15.95179
447.24        15.77707
447.69        15.65969
448.13        15.58393
448.58        15.57288
449.02         15.6222
449.47        15.69639
449.91        15.73809
450.36        15.73307
450.80        15.69131
451.25        15.64437
451.69        15.62885
452.13         15.6568
452.58        15.70591
453.02        15.75249
453.47        15.75846
453.91        15.71926
454.36        15.65262
454.80        15.57634
455.24        15.51787
455.69         15.4945
456.13        15.48803
456.58         15.5129
457.02        15.56692
457.46        15.65237
457.91        15.76157
458.35        15.86483
458.79        15.90892
459.24        15.89387
459.68        15.82034
460.13        15.74143
460.57        15.70066
461.01        15.72615
461.46        15.79824
461.90        15.88566
462.34        15.92962
462.79        15.91158
463.23        15.83903
463.68        15.76164
464.12        15.76593
464.56        15.86812
465.01        16.04926
465.45        16.19571
465.89        16.19829
466.34        16.05558
466.78        15.72257
467.22        15.35415
467.67        15.35155
468.11        15.67902
468.55        15.85951
468.99        15.83479
469.44        15.83127
469.88        15.89362
470.32        16.07456
470.77         16.3097
471.21        16.37626
471.65        16.24925
472.10        16.09686
472.54        15.96943
472.98        15.89708
473.42        15.90478
473.87        15.99238
474.31        16.11738
474.75        16.20485
475.20        16.23986
475.64        16.23404
476.08        16.22239
476.52         16.2584
476.97        16.35278
477.41        16.48797
477.85        16.61823
478.29        16.70428
478.74        16.73758
479.18        16.65037
479.62        16.49503
480.06        16.63108
480.50         16.7277
480.95        16.82144
481.39        16.77864
481.83        16.73922
482.27        16.70482
482.72        16.53694
483.16        16.30298
483.60        16.36507
484.04        16.74821
484.48        16.88197
484.93        16.94638
485.37        17.52423
485.81        18.02898
486.25         18.0046
486.69        24.26366
487.14        19.30148
487.58        12.60717
488.02        15.39995
488.46        17.74215
488.90        17.51312
489.34        17.86695
489.79         17.6169
490.23        18.37893
490.67        18.94376
491.11        19.04389
491.55        18.95552
491.99         18.6455
492.43         18.4248
492.88        18.38067
493.32        18.45396
493.76          18.511
494.20        18.71854
494.64        19.01485
495.08         19.3525
495.52        19.70067
495.96        20.03716
496.41        20.29439
496.85        20.45447
497.29        20.51783
497.73        20.28598
498.17        20.00748
498.61        20.18173
499.05        20.81981
499.49        20.96714
499.93        21.12777
500.37        21.32254
500.82        21.46826
501.26        21.74132
501.70        22.02385
502.14        22.14615
502.58        22.09846
503.02        22.07818
503.46        22.10183
503.90        22.05108
504.34        21.95847
504.78        21.93069
505.22         21.9825
505.66        22.09439
506.10        22.22478
506.54        22.29837
506.98        22.29935
507.42        22.25389
507.86          22.218
508.30        22.27886
508.74        22.44952
509.18        22.69123
509.62        22.94836
510.06        23.13068
510.50        23.21287
510.94        23.23192
511.38         23.2065
511.82        23.16526
512.26        23.12725
512.70        23.07881
513.14        23.06107
513.58        23.14344
514.02        23.32018
514.46        23.56124
514.90        23.78385
515.34         23.8215
515.78         23.6185
516.22        23.37813
516.66        23.19162
517.10        22.77129
517.54         22.1538
517.98        22.89289
518.42        22.68925
518.86         23.0264
519.30        23.19603
519.74        23.41583
520.18        23.63119
520.62        23.72381
521.06        23.70085
521.50        23.57143
521.93        23.38604
522.37        23.24277
522.81        23.17106
523.25        23.14704
523.69        23.15789
524.13        23.18075
524.57        23.20167
525.01        23.22807
525.45        23.24268
525.89         23.2147
526.32        23.13702
526.76        23.01835
527.20        22.87688
527.64        22.75262
528.08        22.66134
528.52        22.57166
528.96        22.47352
529.40        22.41212
529.83        22.39674
530.27        22.19077
530.71        22.22137
531.15        22.11461
531.59        22.00296
532.03        21.87862
532.46         21.7865
532.90        21.80017
533.34        21.91677
533.78          22.103
534.22         22.2847
534.66        22.35368
535.09         22.2819
535.53          22.114
535.97        21.89275
536.41        21.69228
536.85        21.54621
537.28        21.44267
537.72        21.38601
538.16        21.38294
538.60        21.42949
539.04        21.50544
539.47        21.60235
539.91        21.76009
540.35        21.94615
540.79        22.06854
541.22        22.11783
541.66        22.17044
542.10        22.22953
542.54        22.24207
542.97        22.24611
543.41        22.34017
543.85        22.53325
544.29        22.80927
544.72        23.09514
545.16        23.28397
545.60        23.35228
546.04        23.32578
546.47        23.30088
546.91        23.44188
547.35        23.76585
547.79        24.22164
548.22        24.67106
548.66        24.87857
549.10        24.81638
549.53        24.60263
549.97        24.38165
550.41        24.31249
550.84        24.44824
551.28        24.74833
551.72        25.14746
552.15        25.52214
552.59        25.81733
553.03        26.06446
553.46        26.25236
553.90        26.38772
554.34        26.48615
554.77        26.51472
555.21        26.50497
555.65        26.59338
556.08        26.80798
556.52        26.78614
556.96        27.12364
557.39        27.26667
557.83        27.39599
558.27        27.49855
558.70         27.5982
559.14        27.71678
559.57        27.84675
560.01        27.99167
560.45        28.11017
560.88        28.13849
561.32        28.09384
561.75        27.98747
562.19        27.89382
562.63        27.88589
563.06        27.97519
563.50        28.14129
563.93         28.3415
564.37        28.52172
564.80        28.65242
565.24        28.76074
565.68        28.84342
566.11        28.89884
566.55        28.95343
566.98         28.9979
567.42         29.0711
567.85        29.22558
568.29        29.48532
568.72        29.75565
569.16        30.04254
569.60        30.41677
570.03        30.72561
570.47        30.73655
570.90        30.59455
571.34        30.07292
571.77        30.64631
572.21        30.82703
572.64        31.04177
573.08        30.56182
573.51        29.56791
573.95        30.76126
574.38        32.61082
574.82        32.11941
