SpectraSmart Spectrum 2.9.0.0
--------- Device Information -----------
Spectrum Name :  反射率_0
Saving Time :  2024/04/26 00:37:57
Spectro-Module Model Name : SE2030-DUVN
Spectro-Module Serial Number : OS361AC55029948
Wavelength Start : 200
Wavelength End : 1025
Wavelength Unit : Wavelength(nm)
Spectrum Unit : Reflectance(%)
-----------Spectrum Setting ------------
Integration Time : 20ms
Average : 10
Boxcar : 0
Background removal :  enabled
linearity correction :  enabled
SC :  disabled
Intensity correction :  disabled
DWT denoise :  enabled
savitzky-golay :  disabled
FFT :  disabled
Running average :  disabled
Kalman :  disabled
High pass :  disabled
---------------BEGIN--------------------
Wavelength(nm)             Reflectance(%)
200.29               0
200.75        94.79571
201.21        85.84476
201.67        74.92363
202.13         68.8098
202.58        68.40429
203.04        71.92494
203.50        76.90017
203.96        79.13599
204.42        77.73798
204.88        74.67928
205.34          71.716
205.80         70.3848
206.26        71.11157
206.72        74.29083
207.18        81.44221
207.64        88.88088
208.10        86.38261
208.55        78.68118
209.01        73.40443
209.47        71.44427
209.93        71.38424
210.39         72.5139
210.85        73.50581
211.31        71.83944
211.77        67.21081
212.23        60.91932
212.69        55.63708
213.14        55.51103
213.60        60.92958
214.06        70.60548
214.52        81.71746
214.98        89.93028
215.44        93.70384
215.90        94.08952
216.36        92.08231
216.81        88.99351
217.27        85.98493
217.73        82.96494
218.19        79.66231
218.65        75.45715
219.11        69.72914
219.57        61.53041
220.02        51.89223
220.48        47.01738
220.94        50.02716
221.40        59.44407
221.86        67.93755
222.32        67.97721
222.77        60.70765
223.23        50.47542
223.69        42.12782
224.15         40.7016
224.61        45.56028
225.06        54.19304
225.52        62.83087
225.98        66.57462
226.44        64.62008
226.90        59.06205
227.36        52.79288
227.81        49.73534
228.27        50.95893
228.73        54.80063
229.19        59.48088
229.65        62.40495
230.10        62.98261
230.56        62.39624
231.02        61.49615
231.48        61.20414
231.93        61.62253
232.39         62.3252
232.85        63.09211
233.31        63.73544
233.77        64.13383
234.22        64.43127
234.68        64.40601
235.14        63.60267
235.60        62.05505
236.05        60.02086
236.51        58.04179
236.97         56.7875
237.43        56.40886
237.88         56.8783
238.34        58.04691
238.80        59.57758
239.26        61.08613
239.71        62.69355
240.17        63.88655
240.63        64.45832
241.08        64.53123
241.54        64.08266
242.00        63.56805
242.46        63.64994
242.91        64.92841
243.37        68.29481
243.83        79.94978
244.28        123.4835
244.74        183.0509
245.20         162.993
245.66        138.4447
246.11        131.6052
246.57        135.8943
247.03        154.9682
247.48        208.4888
247.94        167.6713
248.40        106.9675
248.85        89.89624
249.31        85.59879
249.77         85.9193
250.22        88.99178
250.68        95.22923
251.14        104.1495
251.59        108.9842
252.05        103.8015
252.51        92.01701
252.96        80.37144
253.42        75.15919
253.88        75.63984
254.33        79.41716
254.79        84.90456
255.25        89.30164
255.70        91.62257
256.16        93.03637
256.62        93.24603
257.07        91.83608
257.53        89.45041
257.99        85.88909
258.44        81.99055
258.90        79.78538
259.35        78.50005
259.81        77.77258
260.27        76.25281
260.72        72.59061
261.18        67.55437
261.63        61.68533
262.09         56.4659
262.55        52.92403
263.00        50.96451
263.46        50.14509
263.91        49.55369
264.37        48.52074
264.83        46.86079
265.28        44.74066
265.74        42.72877
266.19        41.42068
266.65        41.01902
267.11        41.12589
267.56        41.25023
268.02        40.83899
268.47        39.77039
268.93        38.27479
269.38        36.58471
269.84        35.31702
270.30        34.66098
270.75        34.45158
271.21        34.46802
271.66        34.38027
272.12        34.06647
272.57        33.61918
273.03        33.14853
273.48        32.72334
273.94        32.39848
274.39         32.0975
274.85        31.76629
275.31        31.32049
275.76        30.74101
276.22         30.0944
276.67        29.45252
277.13         29.0151
277.58        28.75435
278.04        28.64223
278.49        28.50815
278.95        28.17725
279.40        27.59467
279.86        26.89039
280.31         26.1497
280.77        25.62043
281.22        25.30691
281.68        25.15332
282.13        25.07453
282.59        24.99092
283.04        24.86123
283.50           24.75
283.95          24.605
284.41        24.37017
284.86         24.0387
285.32        23.63086
285.77        23.26958
286.22        23.20745
286.68        23.44508
287.13        23.87255
287.59        24.25096
288.04        24.21047
288.50        23.72359
288.95        22.91332
289.41         22.0388
289.86        21.38148
290.32        21.06999
290.77        20.99063
291.22        21.08521
291.68        21.22708
292.13        21.37151
292.59        21.56058
293.04        21.79396
293.50        22.06799
293.95        22.36811
294.40        22.65763
294.86        22.92407
295.31        23.16794
295.77         23.3964
296.22         23.6219
296.68        23.83945
297.13        24.00902
297.58        24.15025
298.04        24.29451
298.49        24.50948
298.95        24.93402
299.40        25.57012
299.85        26.35765
300.31        27.17715
300.76        27.85329
301.21         28.3171
301.67        28.63925
302.12        28.83182
302.58        28.96902
303.03        29.07044
303.48        29.13765
303.94        29.25565
304.39        29.52187
304.84        29.94822
305.30        30.48689
305.75        31.01348
306.20        31.34265
306.66         31.4527
307.11        31.39518
307.57        31.25927
308.02        31.10568
308.47        31.00023
308.93        30.92072
309.38        30.91546
309.83        31.09361
310.29        31.44069
310.74        31.90309
311.19        32.34437
311.65        32.55048
312.10        32.47488
312.55        32.18808
313.00        31.77569
313.46        31.39685
313.91        31.10844
314.36        30.88333
314.82        30.75314
315.27        30.74805
315.72        30.86347
316.18        31.09032
316.63        31.34217
317.08        31.44708
317.53        31.35887
317.99         31.1045
318.44        30.78955
318.89        30.59388
319.35        30.55161
319.80        30.61883
320.25        30.67603
320.70        30.52618
321.16        30.13569
321.61        29.58496
322.06        29.01146
322.51        28.61738
322.97        28.44081
323.42        28.42385
323.87        28.46885
324.32        28.41489
324.78        28.20899
325.23        27.90778
325.68        27.55464
326.13        27.22362
326.59        26.93807
327.04        26.68905
327.49        26.47277
327.94        26.29186
328.39        26.14611
328.85        26.03452
329.30        25.97652
329.75        25.95786
330.20        25.97127
330.66        25.99631
331.11        26.03405
331.56         26.0427
332.01        26.00757
332.46        25.92147
332.92        25.79588
333.37        25.68823
333.82        25.60779
334.27        25.56231
334.72        25.50897
335.17        25.37427
335.63        25.14794
336.08        24.85457
336.53        24.60157
336.98        24.56309
337.43        24.76424
337.88         25.1549
338.34         25.5414
338.79        25.65346
339.24        25.40343
339.69        24.86608
340.14        24.26205
340.59        23.98006
341.05        24.10838
341.50        24.52509
341.95        25.00209
342.40        25.20296
342.85        25.05389
343.30        24.67493
343.75        24.20094
344.20        23.86747
344.66        23.75241
345.11        23.73953
345.56          23.795
346.01        23.86843
346.46        23.92243
346.91        23.99802
347.36        23.98865
347.81         23.7152
348.26        23.18278
348.72        22.48128
349.17        21.80819
349.62        21.57261
350.07        21.85726
350.52        22.51948
350.97        23.32214
351.42        23.89836
351.87        24.13793
352.32        24.14074
352.77        23.98021
353.22        23.78178
353.67        23.59881
354.13        23.39059
354.58        23.17182
355.03         23.0105
355.48         22.9179
355.93        22.90319
356.38        22.90587
356.83        22.81222
357.28          22.599
357.73         22.2934
358.18        21.97662
358.63        21.77851
359.08        21.72721
359.53        21.78793
359.98        21.86449
360.43        21.80735
360.88        21.58882
361.33        21.25485
361.78        20.92144
362.23        20.77661
362.68        20.85095
363.13        21.06622
363.58        21.29162
364.03        21.32614
364.48        21.12405
364.93        20.76376
365.38        20.32628
365.83        19.93968
366.28        19.65717
366.73        19.44025
367.18        19.30725
367.63        19.28867
368.08        19.36879
368.53        19.53429
368.98        19.70279
369.43         19.7386
369.88        19.61677
370.33        19.37959
370.78        19.08936
371.23        18.86132
371.68        18.73562
372.13        18.67062
372.58         18.6759
373.03        18.76275
373.48        18.91155
373.93        19.12123
374.38        19.29457
374.83        19.27921
375.28        19.05454
375.72        18.65175
376.17        18.22807
376.62        18.00351
377.07        18.03466
377.52        18.25532
377.97        18.54017
378.42        18.68349
378.87        18.63115
379.32        18.45156
379.77        18.23302
380.22        18.10169
380.67         18.0856
381.11        18.13779
381.56        18.19868
382.01        18.18442
382.46        18.07158
382.91        17.89284
383.36        17.69235
383.81        17.53511
384.26        17.44263
384.71        17.39868
385.15        17.36504
385.60         17.2972
386.05        17.17763
386.50          17.016
386.95        16.85837
387.40        16.78158
387.85        16.80237
388.29         16.8927
388.74        16.98486
389.19        16.96889
389.64        16.83171
390.09         16.5942
390.54        16.35812
390.98        16.29394
391.43        16.43822
391.88        16.72097
392.33         16.9874
392.78        17.01081
393.23        16.76996
393.67        16.35183
394.12        15.93338
394.57        15.70019
395.02        15.69136
395.47        15.83957
395.91        16.06507
396.36        16.20304
396.81        16.20039
397.26        16.09628
397.71        15.94272
398.15        15.79915
398.60        15.71087
399.05        15.66219
399.50        15.61385
399.95        15.46924
400.39        15.28989
400.84         15.0489
401.29        14.84725
401.74        14.83343
402.18        15.04389
402.63        15.40474
403.08        15.78907
403.53        15.99507
403.97        15.97169
404.42        15.77787
404.87        15.49949
405.32        15.29049
405.76        15.20251
406.21        15.19258
406.66        15.22666
407.11        15.26127
407.55        15.28305
408.00        15.30652
408.45        15.32161
408.90        15.29451
409.34        15.22205
409.79        15.11466
410.24        15.00944
410.68        14.96112
411.13        14.98291
411.58        15.06038
412.03        15.16614
412.47        15.25183
412.92        15.28796
413.37        15.28722
413.81        15.26619
414.26        15.26791
414.71         15.2923
415.15        15.32662
415.60        15.33397
416.05        15.27615
416.49        15.14733
416.94        14.97876
417.39        14.79706
417.83        14.64689
418.28        14.55484
418.73        14.50117
419.17        14.49753
419.62        14.55114
420.07        14.65305
420.51        14.79594
420.96        14.92087
421.41        14.92593
421.85        14.79046
422.30        14.57069
422.74        14.33272
423.19        14.20338
423.64        14.19483
424.08        14.27921
424.53        14.40116
424.98        14.49259
425.42         14.5321
425.87        14.53167
426.31        14.50054
426.76        14.49679
427.21        14.50685
427.65        14.41478
428.10        14.29429
428.54        14.35465
428.99        14.60983
429.44        14.97233
429.88        15.28136
430.33        15.33302
430.77        15.09656
431.22        14.63939
431.66        14.15664
432.11        14.00346
432.56        14.21051
433.00        14.59249
433.45        14.95977
433.89        15.19187
434.34        15.17265
434.78        14.78196
435.23        14.28947
435.67        14.23493
436.12        14.57958
436.57        14.78418
437.01        14.76015
437.46        14.74108
437.90        14.73837
438.35        14.68169
438.79        14.58973
439.24        14.53485
439.68        14.53619
440.13        14.51333
440.57        14.47614
441.02        14.63647
441.46        14.87469
441.91        14.68176
442.35         14.1728
442.80        13.93585
443.24        13.95531
443.69        14.01138
444.13        14.02933
444.58        13.89102
445.02        13.64495
445.47         13.6028
445.91        13.73292
446.36        13.73661
446.80        13.59925
447.24        13.49795
447.69        13.45558
448.13        13.41676
448.58        13.39044
449.02         13.3893
449.47        13.39956
449.91        13.39585
450.36        13.37607
450.80         13.3423
451.25        13.31546
451.69        13.31815
452.13        13.35637
452.58        13.40889
453.02        13.46373
453.47        13.49755
453.91        13.50744
454.36        13.50768
454.80        13.48859
455.24        13.43407
455.69        13.35656
456.13        13.25613
456.58        13.19335
457.02        13.23691
457.46        13.39829
457.91        13.64445
458.35        13.89989
458.79        14.03723
459.24        14.03699
459.68        13.92454
460.13        13.78307
460.57        13.70497
461.01        13.73127
461.46        13.82588
461.90         13.9448
462.34        14.00834
462.79        13.99471
463.23        13.92423
463.68         13.8527
464.12        13.87111
464.56        13.99781
465.01        14.20416
465.45        14.38596
465.89        14.44401
466.34        14.37364
466.78         14.1336
467.22        13.85069
467.67        13.86843
468.11        14.15071
468.55        14.27112
468.99        14.19551
469.44        14.15611
469.88        14.20299
470.32         14.3815
470.77        14.62132
471.21        14.70043
471.65        14.59155
472.10        14.45275
472.54        14.34901
472.98        14.34035
473.42        14.44903
473.87        14.65519
474.31        14.88755
474.75        15.02857
475.20        15.05469
475.64        14.99573
476.08        14.90601
476.52        14.86853
476.97         14.9075
477.41        15.00068
477.85        15.11057
478.29        15.20746
478.74        15.28001
479.18        15.26143
479.62        15.18624
480.06        15.36406
480.50        15.48433
480.95        15.58766
481.39        15.54736
481.83        15.49096
482.27        15.42348
482.72         15.2208
483.16        14.98015
483.60        15.05076
484.04        15.44386
484.48        15.71626
484.93        16.00472
485.37        16.41086
485.81        16.86319
486.25        16.96858
486.69        22.32662
487.14        17.85746
487.58        11.62355
488.02        14.17533
488.46        16.20086
488.90        16.37591
489.34        16.47768
489.79        16.36249
490.23        17.16587
490.67        17.67017
491.11        17.65738
491.55         17.6082
491.99        17.48233
492.43        17.33485
492.88        17.23497
493.32        17.25698
493.76        17.29734
494.20        17.48746
494.64        17.77668
495.08         18.1298
495.52        18.50063
495.96        18.84047
496.41        19.08065
496.85        19.20992
497.29        19.25096
497.73        19.05518
498.17         18.8591
498.61        19.11849
499.05        19.81975
499.49        20.00402
499.93        20.13588
500.37        20.25523
500.82        20.30963
501.26        20.50629
501.70        20.74666
502.14        20.85932
502.58        20.83374
503.02        20.85246
503.46        20.92587
503.90        20.94421
504.34        20.92161
504.78        20.93238
505.22        20.98481
505.66        21.06349
506.10        21.14885
506.54        21.20614
506.98        21.22932
507.42        21.23333
507.86        21.24868
508.30        21.32174
508.74        21.45835
509.18        21.63568
509.62        21.82324
510.06        21.97168
510.50        22.06523
510.94        22.12308
511.38        22.14683
511.82        22.13927
512.26        22.10893
512.70         22.0513
513.14        22.00287
513.58        22.02512
514.02        22.11823
514.46        22.25947
514.90        22.39052
515.34        22.38194
515.78        22.18623
516.22        21.99973
516.66        21.89643
517.10        21.55042
517.54        20.98471
517.98           21.78
518.42        21.60327
518.86        21.96243
519.30         22.1415
519.74         22.3595
520.18        22.56215
520.62        22.63371
521.06        22.58481
521.50        22.42611
521.93        22.21772
522.37        22.07142
522.81        22.01813
523.25        22.02988
523.69         22.0784
524.13         22.1165
524.57        22.12543
525.01        22.11996
525.45        22.09798
525.89        22.05362
526.32        21.98728
526.76        21.90112
527.20        21.80185
527.64        21.71126
528.08        21.63945
528.52        21.56003
528.96        21.47329
529.40        21.43734
529.83        21.46314
530.27        21.31797
530.71        21.39581
531.15        21.31384
531.59        21.19593
532.03        21.04251
532.46        20.91797
532.90        20.92758
533.34        21.07656
533.78        21.32262
534.22        21.57112
534.66        21.68337
535.09        21.62422
535.53        21.44501
535.97        21.20757
536.41        21.01645
536.85        20.90942
537.28        20.86268
537.72        20.85502
538.16        20.85238
538.60        20.84561
539.04        20.83558
539.47        20.84174
539.91        20.94165
540.35        21.11481
540.79        21.25944
541.22        21.35859
541.66        21.47289
542.10        21.59637
542.54        21.67925
542.97        21.74411
543.41        21.86463
543.85        22.04555
544.29        22.27608
544.72        22.50328
545.16        22.64969
545.60        22.69941
546.04        22.68404
546.47        22.68433
546.91        22.80534
547.35        23.07482
547.79        23.52532
548.22        24.01068
548.66        24.21835
549.10        24.11831
549.53        23.86968
549.97        23.62999
550.41        23.55901
550.84        23.70831
551.28        24.05303
551.72        24.51482
552.15        24.89589
552.59        25.12275
553.03        25.44015
553.46        25.50212
553.90        25.63639
554.34        25.75767
554.77        25.83143
555.21        25.85462
555.65        25.91325
556.08        26.03087
556.52        25.87382
556.96        26.06117
557.39        26.11947
557.83        26.23678
558.27        26.38255
558.70        26.54771
559.14        26.70154
559.57        26.82124
560.01        26.92359
560.45        26.99117
560.88        26.99777
561.32        26.96717
561.75        26.89621
562.19        26.83307
562.63        26.81616
563.06        26.85241
563.50        26.93161
563.93        27.03897
564.37        27.17449
564.80        27.31361
565.24        27.44252
565.68        27.54554
566.11        27.62296
566.55        27.69516
566.98        27.74875
567.42        27.82121
567.85        27.97145
568.29        28.22033
568.72        28.46416
569.16        28.72778
569.60        29.09333
570.03         29.4185
570.47        29.50272
570.90        29.46322
571.34        28.85801
571.77         29.3819
572.21        29.35201
572.64        29.30316
573.08        29.18781
573.51        28.19625
573.95         29.5302
574.38        31.41277
574.82        30.81507
