SpectraSmart Spectrum 2.9.0.0
--------- Device Information -----------
Spectrum Name :  反射率_0
Saving Time :  2024/04/26 00:48:30
Spectro-Module Model Name : SE2030-DUVN
Spectro-Module Serial Number : OS361AC55029948
Wavelength Start : 200
Wavelength End : 1025
Wavelength Unit : Wavelength(nm)
Spectrum Unit : Reflectance(%)
-----------Spectrum Setting ------------
Integration Time : 20ms
Average : 10
Boxcar : 0
Background removal :  enabled
linearity correction :  enabled
SC :  disabled
Intensity correction :  disabled
DWT denoise :  enabled
savitzky-golay :  disabled
FFT :  disabled
Running average :  disabled
Kalman :  disabled
High pass :  disabled
---------------BEGIN--------------------
Wavelength(nm)             Reflectance(%)
200.29               0
200.75        87.67912
201.21        84.21867
201.67        79.11084
202.13        75.39771
202.58        73.69324
203.04        73.56145
203.50        74.30498
203.96        74.87234
204.42        74.89992
204.88        74.65892
205.34        74.76485
205.80        76.01563
206.26        79.09921
206.72        85.88928
207.18        98.42858
207.64        107.0823
208.10        95.81815
208.55        78.07616
209.01        68.12659
209.47        66.39974
209.93         69.6446
210.39        76.56191
210.85        84.16295
211.31        85.60243
211.77        78.89512
212.23        66.91869
212.69        54.80055
213.14        50.41534
213.60        55.15035
214.06        66.57318
214.52        80.64304
214.98        91.03638
215.44        95.57378
215.90        96.13639
216.36        93.86662
216.81        90.17377
217.27        86.43473
217.73        82.42519
218.19         78.3662
218.65        74.40786
219.11        70.14802
219.57        64.86462
220.02        59.17161
220.48        56.92756
220.94        59.63476
221.40        66.39341
221.86        71.84256
222.32        70.57592
222.77        63.73582
223.23        54.83855
223.69        47.79977
224.15        46.78091
224.61        51.16149
225.06        58.75721
225.52        66.46098
225.98         70.2891
226.44        69.47446
226.90        65.69647
227.36        60.94208
227.81        57.84986
228.27        57.40877
228.73        58.57823
229.19        60.58462
229.65        62.30612
230.10        63.33928
230.56         64.1259
231.02         64.9138
231.48        65.99721
231.93         67.3358
232.39        68.74753
232.85        69.96326
233.31        70.67889
233.77        70.80105
234.22         70.4768
234.68        69.71598
235.14        68.59122
235.60        67.29518
236.05        65.93385
236.51        64.80608
236.97        64.22929
237.43        64.25452
237.88        64.96182
238.34        66.12143
238.80        67.31547
239.26        68.15369
239.71        68.75504
240.17        68.78725
240.63        68.43694
241.08        67.96573
241.54        67.34227
242.00        66.83929
242.46        66.73711
242.91        67.39323
243.37        69.20337
243.83         76.4965
244.28        108.6264
244.74        159.7424
245.20        149.5171
245.66        131.3392
246.11        125.8264
246.57        128.4379
247.03        141.3582
247.48        173.9882
247.94        132.9786
248.40        92.04858
248.85        82.14845
249.31        80.64344
249.77        82.49146
250.22        86.79179
250.68        94.41443
251.14        104.9182
251.59        110.4557
252.05        104.2289
252.51        90.55296
252.96        76.89619
253.42        69.93566
253.88        69.05139
254.33         71.7086
254.79         77.3605
255.25          84.483
255.70        91.29977
256.16        97.71276
256.62         101.727
257.07        101.3229
257.53        97.66489
257.99        91.66238
258.44        85.37617
258.90         82.2226
259.35        81.36675
259.81        81.70265
260.27        81.35241
260.72        78.50565
261.18        73.93802
261.63         68.3778
262.09        63.35266
262.55        59.86499
263.00        57.84089
263.46        56.86592
263.91        56.11295
264.37        55.07685
264.83        53.53283
265.28        51.58017
265.74        49.66288
266.19        48.15401
266.65        47.30298
267.11        46.86434
267.56        46.45856
268.02        45.65753
268.47        44.33171
268.93        42.64447
269.38        40.86831
269.84        39.69595
270.30        39.30234
270.75        39.49537
271.21        39.85727
271.66        39.75596
272.12        39.04087
272.57        37.90604
273.03        36.72536
273.48        35.96858
273.94        35.76799
274.39        35.89977
274.85        36.09604
275.31         35.9465
275.76        35.35519
276.22        34.51176
276.67        33.59613
277.13        32.97424
277.58         32.6553
278.04        32.54345
278.49        32.43258
278.95        32.12237
279.40        31.53364
279.86        30.81681
280.31        30.02798
280.77         29.3742
281.22        28.86021
281.68        28.45692
282.13        28.12139
282.59        27.84257
283.04        27.59111
283.50        27.41873
283.95        27.24807
284.41        26.98801
284.86        26.61854
285.32        26.17026
285.77        25.77789
286.22          25.714
286.68         25.9812
287.13        26.45774
287.59        26.88128
288.04        26.84581
288.50        26.32102
288.95        25.43711
289.41        24.48955
289.86        23.80867
290.32        23.53138
290.77        23.52536
291.22        23.69029
291.68        23.83473
292.13        23.90291
292.59        23.96236
293.04         24.0599
293.50        24.26697
293.95        24.58716
294.40        24.96118
294.86        25.33741
295.31        25.65523
295.77        25.90551
296.22        26.11726
296.68        26.31543
297.13        26.50664
297.58        26.72227
298.04         26.9806
298.49        27.31588
298.95        27.81935
299.40        28.48546
299.85        29.27226
300.31        30.10534
300.76        30.87602
301.21        31.52537
301.67        32.09867
302.12        32.55014
302.58        32.88086
303.03        33.08998
303.48        33.19871
303.94        33.34299
304.39        33.69182
304.84        34.27652
305.30        35.03763
305.75        35.78486
306.20        36.23568
306.66        36.35671
307.11         36.2248
307.57        36.03832
308.02        36.01131
308.47        36.22977
308.93        36.61917
309.38        37.08042
309.83        37.49479
310.29         37.8065
310.74        38.03651
311.19        38.20771
311.65         38.3513
312.10        38.47173
312.55        38.55703
313.00         38.5597
313.46         38.4201
313.91         38.1324
314.36        37.74603
314.82        37.38214
315.27        37.19869
315.72        37.23407
316.18        37.43456
316.63        37.68994
317.08        37.79242
317.53        37.68188
317.99        37.40849
318.44        37.07584
318.89        36.85214
319.35        36.77052
319.80         36.7861
320.25         36.7929
320.70        36.62419
321.16        36.24908
321.61         35.7318
322.06        35.18752
322.51        34.78554
322.97        34.55091
323.42        34.43713
323.87        34.34741
324.32        34.12547
324.78        33.73032
325.23        33.22875
325.68        32.68655
326.13         32.2128
326.59        31.83939
327.04         31.5534
327.49        31.33861
327.94        31.17331
328.39        31.04468
328.85        30.95283
329.30        30.91019
329.75         30.8845
330.20        30.86728
330.66        30.84118
331.11        30.82498
331.56         30.8066
332.01        30.77805
332.46        30.71854
332.92        30.62907
333.37        30.55965
333.82        30.50233
334.27        30.46345
334.72        30.37545
335.17        30.12416
335.63        29.70144
336.08        29.16175
336.53        28.65226
336.98        28.41022
337.43        28.48142
337.88        28.79515
338.34        29.16748
338.79        29.34172
339.24        29.21894
339.69        28.87291
340.14        28.44458
340.59        28.18722
341.05        28.16539
341.50        28.29461
341.95        28.46967
342.40        28.53847
342.85        28.46191
343.30        28.30882
343.75        28.10297
344.20        27.88487
344.66        27.68145
345.11        27.44283
345.56        27.23902
346.01        27.17545
346.46        27.25008
346.91        27.44562
347.36        27.58736
347.81        27.39423
348.26        26.84158
348.72         26.0564
349.17        25.26768
349.62        24.93191
350.07        25.15093
350.52        25.76374
350.97        26.52982
351.42        27.08033
351.87        27.30041
352.32        27.29355
352.77         27.1238
353.22        26.89811
353.67        26.66708
354.13         26.3959
354.58        26.10968
355.03         25.8943
355.48        25.76872
355.93        25.74035
356.38         25.7449
356.83        25.66318
357.28        25.46592
357.73        25.17333
358.18        24.87158
358.63        24.69806
359.08        24.67865
359.53        24.77869
359.98        24.86901
360.43        24.75042
360.88        24.39255
361.33        23.85732
361.78        23.32897
362.23        23.10483
362.68        23.23707
363.13         23.6162
363.58        24.02688
364.03        24.13351
364.48        23.86089
364.93        23.32765
365.38        22.69509
365.83        22.22222
366.28        21.99381
366.73         21.9263
367.18        21.96727
367.63        22.03344
368.08        22.07754
368.53        22.12622
368.98        22.14709
369.43        22.07815
369.88        21.91694
370.33        21.68287
370.78        21.41531
371.23        21.19359
371.68        21.04729
372.13        20.95001
372.58         20.9266
373.03         21.0113
373.48        21.18628
373.93        21.43229
374.38        21.63856
374.83        21.63457
375.28         21.3955
375.72         20.9665
376.17        20.49525
376.62        20.18719
377.07        20.10392
377.52        20.18134
377.97        20.34583
378.42        20.47367
378.87        20.51587
379.32        20.50877
379.77        20.45512
380.22        20.35498
380.67        20.21596
381.11        20.03331
381.56        19.82527
382.01        19.63873
382.46        19.48977
382.91        19.37255
383.36        19.28047
383.81         19.1959
384.26         19.1125
384.71        19.03914
385.15        18.96057
385.60        18.86502
386.05        18.74268
386.50         18.5897
386.95        18.43314
387.40        18.32509
387.85        18.28109
388.29        18.28596
388.74         18.3038
389.19        18.25654
389.64        18.13404
390.09        17.94914
390.54        17.77262
390.98        17.72202
391.43        17.82496
391.88        18.03023
392.33         18.2256
392.78        18.24748
393.23        18.07897
393.67        17.77449
394.12        17.47246
394.57         17.3039
395.02        17.29726
395.47        17.40558
395.91        17.56469
396.36        17.63586
396.81        17.58411
397.26        17.44416
397.71        17.27757
398.15        17.15686
398.60        17.12286
399.05         17.1474
399.50        17.17501
399.95        17.08238
400.39        16.93158
400.84        16.69802
401.29        16.47489
401.74        16.39601
402.18        16.50429
402.63        16.73612
403.08        17.00395
403.53        17.16426
403.97        17.17672
404.42         17.0826
404.87        16.93304
405.32        16.81835
405.76        16.76693
406.21        16.75348
406.66        16.75669
407.11        16.75343
407.55        16.73919
408.00        16.71934
408.45        16.69178
408.90         16.6411
409.34        16.56819
409.79        16.48012
410.24        16.40023
410.68        16.36025
411.13        16.36788
411.58        16.41401
412.03        16.47554
412.47        16.51461
412.92        16.50766
413.37        16.46662
413.81        16.41262
414.26        16.39484
414.71        16.41475
415.15        16.46149
415.60        16.49236
416.05        16.45848
416.49        16.35036
416.94         16.1969
417.39        16.03251
417.83        15.91624
418.28        15.87229
418.73        15.87123
419.17        15.90368
419.62        15.94757
420.07        15.99184
420.51        16.04545
420.96        16.07071
421.41        16.00282
421.85        15.83551
422.30        15.61384
422.74        15.40136
423.19        15.32423
423.64        15.38678
424.08        15.55932
424.53        15.76174
424.98        15.88161
425.42        15.88602
425.87         15.7985
426.31        15.65506
426.76        15.55935
427.21        15.51169
427.65        15.38238
428.10        15.24873
428.54        15.32774
428.99        15.62902
429.44        16.05997
429.88        16.44066
430.33        16.54074
430.77        16.32138
431.22        15.85395
431.66        15.34867
432.11        15.18877
432.56        15.40911
433.00        15.81746
433.45        16.21147
433.89        16.44716
434.34        16.40904
434.78        16.00454
435.23        15.51418
435.67        15.47615
436.12        15.84381
436.57         16.0574
437.01        16.00985
437.46        15.92543
437.90        15.81938
438.35        15.63093
438.79         15.4135
439.24        15.29218
439.68        15.29752
440.13        15.33057
440.57        15.37707
441.02        15.62274
441.46        15.92735
441.91        15.75336
442.35        15.22823
442.80        14.99361
443.24        15.03722
443.69        15.11455
444.13        15.14538
444.58        15.00406
445.02        14.74279
445.47        14.69996
445.91        14.83622
446.36        14.81871
446.80        14.63255
447.24        14.47404
447.69        14.37936
448.13        14.30784
448.58        14.27354
449.02        14.28574
449.47        14.31877
449.91        14.32722
450.36        14.30359
450.80        14.25469
451.25        14.21201
451.69        14.21488
452.13         14.2716
452.58        14.35298
453.02        14.43431
453.47        14.47477
453.91        14.46705
454.36        14.43135
454.80        14.36687
455.24        14.27248
455.69        14.16643
456.13        14.04452
456.58        13.96434
457.02        13.98791
457.46        14.12566
457.91        14.34883
458.35        14.58162
458.79        14.69618
459.24         14.6738
459.68        14.53769
460.13        14.37646
460.57        14.29076
461.01        14.32131
461.46         14.4286
461.90        14.55589
462.34        14.60442
462.79        14.54819
463.23        14.41299
463.68         14.2706
464.12        14.24099
464.56        14.35268
465.01        14.57174
465.45        14.77712
465.89        14.84688
466.34        14.77106
466.78        14.51014
467.22         14.2083
467.67        14.23963
468.11        14.57106
468.55        14.75798
468.99        14.73492
469.44        14.69732
469.88        14.69078
470.32        14.77634
470.77        14.91931
471.21        14.95552
471.65        14.87146
472.10        14.80623
472.54        14.78936
472.98        14.82213
473.42        14.91211
473.87        15.06098
474.31        15.21833
474.75        15.29889
475.20        15.29009
475.64        15.20968
476.08         15.1101
476.52        15.07263
476.97         15.1181
477.41        15.22709
477.85        15.35247
478.29         15.4464
478.74        15.49621
479.18        15.44164
479.62        15.33092
480.06        15.49764
480.50        15.63184
480.95        15.76403
481.39         15.7617
481.83        15.74487
482.27        15.71332
482.72        15.55087
483.16         15.3398
483.60        15.38401
484.04        15.67075
484.48        15.86504
484.93        16.17308
485.37        16.47469
485.81        16.74324
486.25        17.52116
486.69         23.2293
487.14        18.63224
487.58        12.13288
488.02        14.66765
488.46        16.84193
488.90        16.73623
489.34        16.71047
489.79        16.66171
490.23        17.79313
490.67        18.40297
491.11        18.23838
491.55        18.08536
491.99        17.93523
492.43        17.75938
492.88         17.6428
493.32        17.70712
493.76        17.82191
494.20        18.06376
494.64        18.36987
495.08         18.7183
495.52        19.08613
495.96        19.46353
496.41        19.78517
496.85         20.0197
497.29        20.15828
497.73        19.99588
498.17        19.77062
498.61        19.97948
499.05        20.62792
499.49         20.7581
499.93        20.87151
500.37        20.99589
500.82        21.07358
501.26        21.31366
501.70        21.60785
502.14        21.78091
502.58        21.80165
503.02        21.82816
503.46        21.86655
503.90        21.81013
504.34        21.70385
504.78        21.67389
505.22        21.74184
505.66        21.88181
506.10        22.04574
506.54        22.14917
506.98         22.1713
507.42        22.13833
507.86        22.11275
508.30        22.19095
508.74         22.3876
509.18        22.66367
509.62        22.94585
510.06        23.11578
510.50         23.1455
510.94        23.08086
511.38        22.97716
511.82        22.92026
512.26        22.93962
512.70        23.00513
513.14        23.11125
513.58        23.24924
514.02        23.39466
514.46        23.54214
514.90        23.65644
515.34        23.64532
515.78        23.47283
516.22         23.3207
516.66        23.24319
517.10        22.89378
517.54        22.28979
517.98        22.99584
518.42        22.74636
518.86        23.06892
519.30        23.26543
519.74        23.53982
520.18        23.79831
520.62        23.86207
521.06        23.73035
521.50        23.43629
521.93        23.08898
522.37        22.87988
522.81         22.8585
523.25        22.96857
523.69        23.13803
524.13        23.25294
524.57        23.27545
525.01        23.24012
525.45        23.16469
525.89        23.07619
526.32        22.98516
526.76        22.87931
527.20        22.75979
527.64        22.64186
528.08        22.53403
528.52        22.41804
528.96        22.29022
529.40        22.20158
529.83        22.16526
530.27        21.94465
530.71        21.96517
531.15        21.86251
531.59        21.76797
532.03        21.67265
532.46        21.61608
532.90        21.66163
533.34        21.80313
533.78        22.00927
534.22        22.20809
534.66        22.29653
535.09        22.24686
535.53        22.09858
535.97        21.89456
536.41        21.71026
536.85        21.57726
537.28        21.48362
537.72        21.42533
538.16        21.39466
538.60        21.39026
539.04        21.40429
539.47        21.44422
539.91        21.57187
540.35        21.76085
540.79        21.91057
541.22        22.01123
541.66        22.13791
542.10        22.28529
542.54        22.39505
542.97         22.4801
543.41        22.60134
543.85        22.76305
544.29        22.96343
544.72        23.15743
545.16        23.28342
545.60        23.33263
546.04        23.32055
546.47        23.33553
546.91        23.52649
547.35         23.9033
547.79        24.41984
548.22        24.93188
548.66        25.19352
549.10        25.17345
549.53        24.98774
549.97        24.78897
550.41        24.75066
550.84         24.9299
551.28        25.28565
551.72        25.73814
552.15        26.13905
552.59        26.42864
553.03        26.64383
553.46        26.80091
553.90        26.94822
554.34        27.10607
554.77         27.2281
555.21        27.30559
555.65        27.41216
556.08        27.56538
556.52        27.41874
556.96        27.63237
557.39        27.71358
557.83        27.86465
558.27         28.0477
558.70        28.25257
559.14        28.45187
559.57        28.62054
560.01        28.76082
560.45        28.84669
560.88        28.87624
561.32        28.85548
561.75        28.70304
562.19        28.51176
562.63        28.45379
563.06        28.54711
563.50        28.72348
563.93        28.93116
564.37        29.12085
564.80        29.25917
565.24        29.37233
565.68        29.46328
566.11        29.53986
566.55        29.63077
566.98        29.72422
567.42        29.85052
567.85        30.04957
568.29        30.34328
568.72        30.63499
569.16        30.94293
569.60        31.36533
570.03         31.7424
570.47        31.81568
570.90        31.75068
571.34        31.26063
571.77         31.7765
572.21        32.10942
572.64        32.08833
573.08         31.8161
573.51        30.68699
573.95        32.03614
574.38        34.07655
574.82        33.53183
