SpectraSmart Spectrum 2.9.0.0
--------- Device Information -----------
Spectrum Name :  反射率_0
Saving Time :  2024/04/25 22:59:36
Spectro-Module Model Name : SE2030-DUVN
Spectro-Module Serial Number : OS361AC55029948
Wavelength Start : 200
Wavelength End : 1025
Wavelength Unit : Wavelength(nm)
Spectrum Unit : Reflectance(%)
-----------Spectrum Setting ------------
Integration Time : 20ms
Average : 10
Boxcar : 0
Background removal :  enabled
linearity correction :  enabled
SC :  disabled
Intensity correction :  disabled
DWT denoise :  enabled
savitzky-golay :  disabled
FFT :  disabled
Running average :  disabled
Kalman :  disabled
High pass :  disabled
---------------BEGIN--------------------
Wavelength(nm)             Reflectance(%)
200.29               0
200.75        97.59439
201.21        90.34895
201.67        82.13802
202.13        78.36044
202.58        79.60165
203.04         84.5327
203.50        90.34836
203.96         92.3165
204.42        89.65671
204.88        84.54966
205.34        79.64114
205.80         77.3073
206.26        78.07339
206.72        82.88971
207.18        93.43448
207.64        100.8807
208.10        91.05547
208.55        76.33628
209.01        68.64886
209.47        68.39398
209.93        72.96102
210.39        81.21754
210.85        90.50557
211.31        94.39855
211.77        90.59672
212.23        81.52026
212.69        71.86329
213.14        68.88845
213.60        73.84512
214.06        84.56741
214.52        96.77215
214.98        103.9215
215.44        104.2777
215.90        100.0657
216.36        94.05635
216.81        89.91217
217.27        88.94363
217.73        89.93508
218.19        91.00446
218.65        89.73482
219.11        85.24146
219.57        76.91131
220.02        66.72889
220.48        63.30385
220.94        70.46027
221.40        84.91237
221.86        96.68441
222.32        96.14383
222.77        85.22484
223.23        70.18162
223.69        57.37317
224.15        53.21851
224.61        57.04172
225.06         65.6538
225.52        74.72467
225.98        78.60112
226.44        76.28669
226.90        70.10889
227.36        63.28186
227.81        60.14498
228.27        61.81363
228.73        66.41682
229.19        71.73534
229.65        74.58242
230.10        74.37991
230.56        72.69781
231.02        70.86091
231.48         70.3342
231.93        71.22709
232.39        72.90022
232.85        74.79714
233.31        76.24616
233.77        76.98116
234.22        77.25835
234.68        77.02494
235.14        76.18687
235.60        74.86322
236.05        73.15561
236.51        71.35705
236.97        69.77037
237.43        68.42478
237.88        67.35244
238.34        66.53965
238.80        66.34892
239.26        66.93961
239.71        68.43333
240.17        70.19977
240.63        71.65917
241.08        72.64825
241.54        73.12305
242.00        73.39938
242.46        74.04524
242.91        75.70654
243.37        79.06174
243.83        89.04471
244.28        122.4351
244.74        161.2435
245.20        141.6706
245.66        122.5072
246.11        116.2083
246.57        116.6626
247.03        123.8766
247.48        144.3818
247.94        122.6249
248.40        97.78971
248.85        91.56845
249.31        90.71664
249.77        91.86857
250.22        94.51411
250.68        98.92854
251.14        105.1013
251.59        109.1834
252.05        107.1479
252.51        100.9022
252.96        93.20506
253.42        87.01502
253.88        82.08639
254.33        77.69952
254.79        75.44845
255.25        76.84596
255.70        81.03742
256.16        86.71825
256.62        91.18632
257.07         91.8287
257.53        89.39191
257.99        84.75156
258.44        79.78716
258.90        77.60936
259.35        77.33968
259.81        77.94037
260.27         77.5237
260.72         74.2813
261.18        69.11476
261.63        62.90968
262.09        57.41918
262.55        53.93579
263.00        52.34878
263.46        52.04039
263.91        52.00792
264.37        51.54779
264.83        50.44925
265.28         48.8861
265.74        47.36189
266.19        46.31592
266.65        45.95881
267.11         45.9807
267.56        45.96485
268.02        45.46882
268.47        44.38372
268.93        42.89537
269.38        41.29134
269.84        40.27553
270.30        40.01805
270.75        40.31606
271.21        40.74905
271.66        40.68174
272.12        39.96928
272.57        38.82108
273.03         37.6063
273.48        36.78299
273.94         36.4938
274.39        36.52307
274.85        36.64978
275.31         36.5312
275.76        36.06872
276.22        35.41636
276.67        34.68506
277.13        34.14195
277.58        33.78143
278.04        33.55552
278.49         33.3027
278.95        32.88633
279.40        32.24948
279.86        31.52764
280.31        30.78565
280.77        30.24395
281.22        29.89656
281.68        29.70329
282.13        29.58213
282.59         29.4723
283.04        29.32696
283.50        29.20039
283.95        29.03308
284.41        28.76987
284.86        28.39503
285.32        27.93162
285.77        27.48466
286.22        27.28443
286.68        27.33872
287.13        27.55557
287.59        27.72911
288.04        27.52998
288.50        26.94553
288.95        26.08133
289.41        25.19419
289.86        24.55416
290.32        24.28067
290.77        24.25565
291.22        24.39607
291.68        24.53671
292.13        24.62746
292.59        24.72506
293.04        24.85915
293.50        25.07833
293.95        25.38085
294.40        25.71322
294.86        26.04616
295.31        26.35248
295.77         26.6263
296.22        26.88269
296.68        27.11132
297.13        27.26391
297.58        27.35972
298.04        27.43465
298.49        27.56047
298.95        27.88499
299.40        28.41853
299.85         29.1077
300.31        29.85048
300.76        30.49475
301.21        30.97515
301.67        31.35345
302.12        31.62031
302.58        31.82506
303.03        31.97172
303.48        32.06108
303.94        32.18238
304.39        32.43749
304.84        32.84451
305.30        33.36432
305.75        33.85754
306.20        34.11993
306.66        34.13527
307.11        33.95916
307.57        33.73792
308.02          33.611
308.47        33.64857
308.93        33.79996
309.38        34.01993
309.83        34.27158
310.29         34.5165
310.74        34.75156
311.19        34.94214
311.65        35.03146
312.10        35.00837
312.55        34.89155
313.00        34.69558
313.46        34.46139
313.91        34.20765
314.36        33.94768
314.82        33.74502
315.27        33.67445
315.72        33.75029
316.18         33.9448
316.63        34.17776
317.08        34.29071
317.53        34.23885
317.99        34.05406
318.44        33.82352
318.89        33.69249
319.35        33.68953
319.80        33.78078
320.25         33.8704
320.70        33.80399
321.16        33.55138
321.61         33.1665
322.06        32.76066
322.51        32.50084
322.97        32.41309
323.42        32.45642
323.87        32.52499
324.32        32.44328
324.78        32.16822
325.23        31.77089
325.68        31.34517
326.13        31.04734
326.59        30.91723
327.04        30.92255
327.49        31.00904
327.94        31.09253
328.39        31.13807
328.85        31.15861
329.30          31.184
329.75        31.21408
330.20        31.25509
330.66        31.28424
331.11        31.32007
331.56         31.3504
332.01        31.37189
332.46        31.37364
332.92        31.37077
333.37        31.42995
333.82        31.54654
334.27        31.72302
334.72        31.86603
335.17         31.8205
335.63        31.55898
336.08        31.12926
336.53        30.70657
336.98        30.58066
337.43        30.80742
337.88        31.30783
338.34        31.83698
338.79        32.03921
339.24        31.80009
339.69        31.22567
340.14         30.5652
340.59        30.25553
341.05        30.40385
341.50        30.86538
341.95        31.40648
342.40        31.68856
342.85        31.63404
343.30        31.36772
343.75        31.00588
344.20        30.74769
344.66        30.66432
345.11        30.64725
345.56        30.68987
346.01        30.78748
346.46        30.91048
346.91        31.08142
347.36         31.1721
347.81        30.96909
348.26        30.46796
348.72         29.7732
349.17        29.08539
349.62        28.81615
350.07        29.05555
350.52         29.6602
350.97        30.41698
351.42        30.99638
351.87        31.29085
352.32        31.38756
352.77        31.32386
353.22         31.1664
353.67        30.95532
354.13        30.66888
354.58        30.35067
355.03        30.11791
355.48        29.99691
355.93        29.98289
356.38        30.00219
356.83        29.91942
357.28        29.70473
357.73        29.39508
358.18        29.07467
358.63        28.87645
359.08        28.82855
359.53        28.88885
359.98         28.9623
360.43        28.90453
360.88         28.6846
361.33        28.34449
361.78        27.98817
362.23        27.78351
362.68         27.7628
363.13        27.86408
363.58        27.97055
364.03        27.90216
364.48        27.62064
364.93        27.19389
365.38        26.71775
365.83        26.34271
366.28        26.11784
366.73        25.99731
367.18        25.94426
367.63        25.89996
368.08        25.83531
368.53        25.76627
368.98        25.68681
369.43        25.58017
369.88        25.44735
370.33        25.29609
370.78        25.12601
371.23        24.94524
371.68         24.7642
372.13        24.57746
372.58        24.43909
373.03        24.43574
373.48        24.57105
373.93        24.81219
374.38        25.04314
374.83        25.08566
375.28        24.90688
375.72        24.55124
376.17        24.15633
376.62        23.90984
377.07        23.86528
377.52        23.95935
377.97        24.11218
378.42          24.195
378.87          24.164
379.32        24.06144
379.77         23.9134
380.22        23.75199
380.67        23.59038
381.11        23.41785
381.56        23.23154
382.01         23.0408
382.46        22.85481
382.91        22.68213
383.36        22.53819
383.81        22.44063
384.26        22.39006
384.71        22.37772
385.15        22.37117
385.60        22.34058
386.05        22.26487
386.50        22.14226
386.95        21.99222
387.40        21.85554
387.85        21.75166
388.29        21.67354
388.74         21.6048
389.19        21.47764
389.64        21.28612
390.09        21.04235
390.54        20.82675
390.98        20.77127
391.43        20.90597
391.88        21.17494
392.33        21.44856
392.78        21.53646
393.23        21.41594
393.67        21.14527
394.12        20.88022
394.57        20.77055
395.02        20.84914
395.47        21.05939
395.91        21.32708
396.36         21.4891
396.81        21.49742
397.26        21.38759
397.71         21.2198
398.15        21.06304
398.60        20.97034
399.05        20.92448
399.50        20.88019
399.95        20.71465
400.39        20.51276
400.84        20.23954
401.29        20.00617
401.74        19.96851
402.18         20.1689
402.63        20.52489
403.08        20.92565
403.53        21.19422
403.97        21.27793
404.42        21.22487
404.87        21.07468
405.32        20.90233
405.76        20.74554
406.21         20.5958
406.66        20.47737
407.11        20.43185
407.55          20.467
408.00        20.57151
408.45        20.70684
408.90         20.7784
409.34        20.75534
409.79         20.6655
410.24        20.55848
410.68        20.50627
411.13        20.53223
411.58        20.61525
412.03        20.72878
412.47        20.83093
412.92        20.89014
413.37        20.92044
413.81         20.9435
414.26        21.01076
414.71        21.11976
415.15         21.2541
415.60        21.35696
416.05        21.35873
416.49        21.24929
416.94        21.06789
417.39        20.86583
417.83         20.7296
418.28        20.69341
418.73        20.71906
419.17        20.79852
419.62         20.9157
420.07        21.05377
420.51        21.22069
420.96        21.35057
421.41        21.33097
421.85        21.14585
422.30        20.86128
422.74        20.57615
423.19         20.4773
423.64        20.57972
424.08        20.84327
424.53        21.16186
424.98        21.38053
425.42        21.45235
425.87        21.40532
426.31        21.29774
426.76        21.28385
427.21        21.36558
427.65        21.35633
428.10        21.31917
428.54        21.50146
428.99        21.90792
429.44        22.40435
429.88        22.79393
430.33        22.90171
430.77        22.66068
431.22        22.02177
431.66        21.27813
432.11        21.06293
432.56        21.42423
433.00        22.03098
433.45        22.60647
433.89        22.99254
434.34         23.0274
434.78        22.55176
435.23        21.94284
435.67        21.96556
436.12         22.5563
436.57        22.91299
437.01         22.9069
437.46        22.90036
437.90        22.91895
438.35         22.8599
438.79        22.73918
439.24        22.64506
439.68        22.60976
440.13        22.51788
440.57        22.43098
441.02         22.7501
441.46        23.29946
441.91        23.25423
442.35        22.70477
442.80        22.46004
443.24          22.498
443.69        22.52309
444.13        22.47348
444.58        22.22222
445.02        21.87364
445.47        21.91257
445.91        22.25432
446.36        22.34758
446.80        22.15271
447.24        21.98679
447.69        21.90999
448.13        21.87146
448.58        21.89326
449.02        21.97768
449.47        22.09443
449.91        22.19261
450.36        22.25881
450.80        22.30139
451.25        22.33338
451.69        22.36167
452.13        22.39478
452.58        22.41531
453.02        22.43536
453.47        22.47916
453.91        22.54895
454.36        22.64532
454.80        22.72647
455.24        22.71524
455.69        22.61396
456.13        22.44417
456.58         22.2996
457.02        22.28414
457.46        22.42524
457.91        22.67452
458.35        22.95365
458.79        23.13783
459.24        23.20289
459.68        23.16909
460.13        23.09693
460.57        23.03036
461.01        23.00963
461.46        23.01498
461.90         23.0358
462.34        23.05581
462.79        23.06096
463.23        23.05004
463.68         23.0529
464.12          23.123
464.56        23.26371
465.01        23.47926
465.45        23.64131
465.89        23.64892
466.34        23.50948
466.78        23.12751
467.22        22.71124
467.67        22.82641
468.11        23.41052
468.55        23.76323
468.99         23.7758
469.44         23.7589
469.88        23.78277
470.32        23.93707
470.77        24.17404
471.21        24.24014
471.65        24.11841
472.10        24.03052
472.54        24.00965
472.98        24.02134
473.42         24.0778
473.87        24.20191
474.31        24.34963
474.75        24.44739
475.20        24.48517
475.64        24.46925
476.08        24.44346
476.52        24.47519
476.97        24.58061
477.41        24.74106
477.85        24.90383
478.29        25.03226
478.74        25.11534
479.18        25.04486
479.62        24.88659
480.06        25.13238
480.50        25.27311
480.95        25.43638
481.39        25.44488
481.83        25.26049
482.27        25.35745
482.72        25.13023
483.16        24.84296
483.60        25.01494
484.04        25.64783
484.48        26.00416
484.93        26.34369
485.37        26.87584
485.81        27.40945
486.25        27.54027
486.69        35.94255
487.14        28.68138
487.58        18.48907
488.02        23.15415
488.46        26.25403
488.90        26.18706
489.34        26.78654
489.79        26.57544
490.23        27.82848
490.67        28.41518
491.11        28.13429
491.55        28.15203
491.99        28.33689
492.43          28.291
492.88        28.06886
493.32        28.08897
493.76        28.18746
494.20         28.4364
494.64         28.7503
495.08        29.16046
495.52        29.60851
495.96         29.9155
496.41        30.03955
496.85        30.24309
497.29        30.49545
497.73        30.17458
498.17         29.6511
498.61        29.89703
499.05        30.91424
499.49        31.13822
499.93        31.28903
500.37        31.40043
500.82        31.40117
501.26        31.66906
501.70        32.05114
502.14        32.23909
502.58        32.19762
503.02        32.20111
503.46        32.26218
503.90        32.21501
504.34        32.10143
504.78        32.06953
505.22        32.14042
505.66        32.27867
506.10        32.44754
506.54        32.58117
506.98        32.65974
507.42         32.7063
507.86        32.75311
508.30        32.84867
508.74        33.00175
509.18        33.18802
509.62        33.37953
510.06          33.534
510.50        33.63814
510.94        33.71011
511.38        33.75596
511.82        33.78291
512.26        33.80014
512.70        33.80523
513.14        33.82042
513.58        33.88374
514.02         33.9915
514.46        34.12391
514.90        34.24886
515.34        34.28535
515.78        34.19553
516.22         34.1359
516.66        34.13487
517.10        33.86214
517.54        33.32851
517.98        33.89121
518.42        33.62355
518.86        33.86649
519.30         34.0312
519.74         34.2818
520.18        34.54789
520.62        34.69184
521.06         34.7064
521.50        34.61121
521.93        34.45742
522.37        34.33761
522.81        34.28381
523.25        34.27596
523.69        34.29828
524.13        34.32584
524.57        34.34767
525.01        34.36977
525.45        34.39793
525.89        34.43838
526.32        34.48219
526.76        34.52031
527.20        34.52174
527.64        34.45214
528.08         34.3173
528.52        34.10487
528.96        33.84573
529.40        33.68274
529.83        33.65269
530.27        33.37514
530.71        33.48886
531.15        33.42779
531.59        33.37961
532.03        33.33481
532.46        33.32395
532.90        33.38596
533.34        33.51144
533.78        33.67913
534.22        33.82931
534.66        33.88068
535.09        33.81123
535.53        33.65745
535.97        33.46685
536.41        33.32435
536.85        33.25911
537.28        33.25634
537.72        33.28432
538.16        33.29334
538.60        33.27406
539.04         33.2208
539.47        33.17495
539.91        33.28387
540.35        33.51867
540.79        33.71259
541.22        33.83311
541.66        33.96735
542.10         34.1006
542.54        34.15967
542.97         34.1764
543.41         34.2573
543.85        34.41485
544.29        34.63725
544.72         34.8587
545.16        34.99186
545.60        35.01889
546.04        34.96033
546.47        34.93142
546.91        35.12467
547.35         35.5544
547.79        36.16612
548.22        36.76463
548.66        37.02135
549.10        36.89717
549.53         36.5503
549.97        36.20107
550.41        36.10434
550.84        36.33673
551.28         36.8348
551.72        37.45307
552.15        37.92447
552.59         38.1632
553.03        38.24969
553.46        38.25546
553.90        38.31668
554.34        38.48484
554.77        38.65903
555.21        38.80434
555.65        38.98365
556.08        39.20395
556.52        38.98855
556.96         39.2668
557.39        39.30709
557.83        39.39719
558.27        39.54734
558.70        39.68148
559.14        39.89686
559.57        40.14009
560.01        40.42199
560.45        40.66497
560.88        40.74841
561.32        40.68541
561.75        40.49561
562.19        40.29971
562.63        40.21704
563.06        40.27762
563.50        40.47818
563.93        40.73403
564.37        40.90876
564.80        40.96181
565.24         40.9648
565.68        40.95853
566.11        41.01578
566.55        41.18193
566.98        41.37069
567.42        41.58289
567.85        41.91034
568.29        42.31709
568.72        42.47568
569.16        42.48732
569.60        42.77237
570.03        43.14899
570.47          43.102
570.90        42.84809
571.34        42.06324
571.77        42.83046
572.21        42.96587
572.64        43.06177
573.08        42.57209
573.51        40.82565
573.95        42.46548
574.38        45.17558
574.82        44.14298
