SpectraSmart Spectrum 2.9.0.0
--------- Device Information -----------
Spectrum Name :  反射率_0
Saving Time :  2024/04/25 22:44:34
Spectro-Module Model Name : SE2030-DUVN
Spectro-Module Serial Number : OS361AC55029948
Wavelength Start : 200
Wavelength End : 1025
Wavelength Unit : Wavelength(nm)
Spectrum Unit : Reflectance(%)
-----------Spectrum Setting ------------
Integration Time : 20ms
Average : 10
Boxcar : 0
Background removal :  enabled
linearity correction :  enabled
SC :  disabled
Intensity correction :  disabled
DWT denoise :  enabled
savitzky-golay :  disabled
FFT :  disabled
Running average :  disabled
Kalman :  disabled
High pass :  disabled
---------------BEGIN--------------------
Wavelength(nm)             Reflectance(%)
200.29               0
200.75        82.67094
201.21        77.12389
201.67        70.57128
202.13        66.21852
202.58         64.4464
203.04        64.64253
203.50        65.86345
203.96        66.53749
204.42        66.20924
204.88        65.48455
205.34        64.76086
205.80        64.32405
206.26        64.27648
206.72         64.6972
207.18        65.67853
207.64        66.49268
208.10        65.58645
208.55          63.654
209.01         62.8119
209.47        63.76217
209.93        66.05506
210.39        69.80477
210.85        73.19833
211.31        72.17552
211.77        65.93282
212.23         56.1611
212.69        47.16417
213.14        45.60083
213.60        52.37905
214.06        65.64895
214.52        80.58077
214.98        89.65565
215.44         90.8728
215.90        86.51991
216.36        79.80151
216.81        75.18024
217.27        74.04875
217.73        74.90959
218.19        75.59921
218.65        73.21501
219.11        66.59123
219.57        55.00355
220.02        40.13084
220.48        31.49461
220.94         34.4595
221.40        46.44639
221.86         57.9203
222.32        58.96802
222.77        50.81556
223.23        39.01582
223.69        29.06408
224.15        26.49703
224.61        30.72577
225.06        38.89835
225.52        47.31989
225.98        51.35708
226.44        50.12941
226.90        45.62873
227.36        40.27072
227.81        37.27068
228.27        37.62992
228.73        39.99154
229.19        43.11625
229.65        45.23753
230.10        45.90548
230.56        45.85908
231.02        45.66324
231.48        45.89326
231.93        46.60953
232.39        47.54136
232.85        48.43168
233.31        48.99263
233.77        49.11507
234.22        48.88024
234.68        48.39891
235.14        47.83171
235.60          47.298
236.05        46.83463
236.51        46.35755
236.97        45.64166
237.43         44.6414
237.88        43.43464
238.34        42.32735
238.80        42.31226
239.26        43.82496
239.71        46.66089
240.17        49.98521
240.63        52.72799
241.08        54.51633
241.54        55.53545
242.00        55.91721
242.46        55.85749
242.91        55.54586
243.37        54.22697
243.83        52.92157
244.28        67.36685
244.74        118.8144
245.20         133.937
245.66        127.4012
246.11        126.5528
246.57        132.7704
247.03        151.5399
247.48        198.2631
247.94        150.8629
248.40        95.45303
248.85        81.05384
249.31        77.74173
249.77        78.27735
250.22        81.04553
250.68        86.46266
251.14        93.99971
251.59        97.35603
252.05        91.44566
252.51        79.77783
252.96        67.99964
253.42        61.04743
253.88        58.22971
254.33        57.71455
254.79        59.58685
255.25        63.32374
255.70        67.75593
256.16        72.53911
256.62        75.55217
257.07        74.65871
257.53        70.80219
257.99         64.9224
258.44        59.27588
258.90        57.25398
259.35        57.91884
259.81        59.75843
260.27        60.59173
260.72        58.36723
261.18        53.84562
261.63        48.03729
262.09        42.70751
262.55        39.25871
263.00        37.65405
263.46        37.26073
263.91        37.05762
264.37         36.1709
264.83          34.467
265.28        32.19804
265.74         30.1115
266.19        29.10051
266.65        29.30861
267.11        30.19151
267.56        31.01517
268.02        30.92631
268.47        29.82438
268.93        28.02538
269.38        25.97044
269.84        24.64392
270.30        24.32207
270.75        24.71868
271.21        25.36365
271.66        25.56099
272.12        25.11593
272.57        24.26231
273.03        23.32561
273.48        22.70725
273.94        22.52976
274.39         22.6094
274.85        22.72848
275.31        22.58318
275.76        22.10559
276.22        21.43539
276.67        20.74918
277.13        20.36879
277.58        20.30158
278.04        20.45101
278.49        20.58755
278.95          20.438
279.40        19.94325
279.86        19.25837
280.31        18.53176
280.77         18.0815
281.22        17.92817
281.68        17.97277
282.13        18.08216
282.59         18.0912
283.04        17.95793
283.50        17.77641
283.95        17.54833
284.41         17.2844
284.86        17.00048
285.32         16.6862
285.77        16.44604
286.22        16.49569
286.68        16.82045
287.13        17.32742
287.59        17.77055
288.04        17.77998
288.50         17.3267
288.95        16.54177
289.41        15.69318
289.86        15.08999
290.32        14.86094
290.77        14.89054
291.22         15.1073
291.68        15.36663
292.13        15.61678
292.59        15.89302
293.04        16.19721
293.50        16.52711
293.95        16.86503
294.40        17.16889
294.86         17.4044
295.31        17.54437
295.77        17.59327
296.22        17.57506
296.68        17.52475
297.13        17.46703
297.58        17.44197
298.04        17.47116
298.49        17.58485
298.95        17.85239
299.40        18.26636
299.85         18.7913
300.31        19.35813
300.76        19.87452
301.21        20.28492
301.67        20.61731
302.12        20.83686
302.58        20.93766
303.03        20.92112
303.48        20.80327
303.94        20.68758
304.39        20.70641
304.84         20.8877
305.30         21.1877
305.75        21.48045
306.20        21.57235
306.66        21.44561
307.11        21.16274
307.57        20.85345
308.02        20.65053
308.47        20.61162
308.93        20.68461
309.38        20.82563
309.83        20.99295
310.29        21.14572
310.74        21.28429
311.19        21.37659
311.65        21.37349
312.10        21.26766
312.55        21.07352
313.00        20.80167
313.46         20.4836
313.91        20.14038
314.36        19.79457
314.82        19.51178
315.27        19.37898
315.72        19.40701
316.18        19.56155
316.63        19.76696
317.08        19.87656
317.53        19.84242
317.99        19.69105
318.44        19.47859
318.89        19.29938
319.35        19.17883
319.80        19.09635
320.25        19.00523
320.70        18.83419
321.16        18.57546
321.61        18.25861
322.06        17.95669
322.51        17.77301
322.97        17.71699
323.42        17.75922
323.87         17.8054
324.32        17.70088
324.78        17.40915
325.23        16.97871
325.68        16.50744
326.13        16.15606
326.59        15.96988
327.04          15.923
327.49        15.94455
327.94        15.91239
328.39        15.79293
328.85        15.61734
329.30        15.46943
329.75        15.46855
330.20         15.6368
330.66        15.90376
331.11        16.18928
331.56        16.33216
332.01          16.283
332.46        16.07449
332.92         15.7689
333.37        15.49191
333.82        15.29774
334.27         15.1746
334.72        15.08271
335.17        14.95027
335.63        14.76073
336.08        14.53971
336.53        14.36738
336.98        14.36523
337.43        14.54427
337.88        14.86095
338.34        15.15085
338.79         15.1888
339.24        14.90703
339.69        14.37513
340.14        13.79371
340.59        13.51488
341.05        13.61666
341.50        13.98907
341.95        14.44333
342.40        14.69871
342.85        14.68586
343.30         14.5067
343.75         14.2302
344.20        13.97838
344.66        13.80168
345.11        13.62195
345.56         13.4898
346.01        13.48398
346.46        13.59375
346.91        13.81797
347.36        13.98266
347.81        13.80231
348.26        13.25649
348.72        12.47576
349.17        11.70066
349.62        11.41111
350.07        11.71284
350.52        12.43535
350.97        13.32437
351.42        13.99103
351.87        14.31204
352.32         14.3926
352.77         14.2957
353.22        14.12772
353.67        13.94051
354.13        13.69968
354.58        13.43489
355.03        13.23645
355.48        13.12732
355.93         13.1167
356.38        13.14901
356.83        13.11534
357.28        12.99007
357.73        12.79519
358.18        12.60211
358.63        12.52534
359.08        12.58325
359.53        12.73811
359.98        12.88672
360.43        12.87195
360.88        12.66762
361.33         12.3254
361.78        11.97057
362.23        11.80672
362.68        11.87145
363.13        12.08376
363.58        12.31921
364.03        12.38477
364.48        12.23301
364.93        11.94021
365.38         11.5682
365.83        11.21265
366.28        10.92241
366.73         10.6716
367.18         10.5014
367.63         10.4813
368.08        10.60496
368.53        10.84224
368.98        11.10183
369.43         11.2347
369.88        11.20831
370.33        11.07174
370.78        10.86809
371.23        10.67969
371.68        10.54397
372.13        10.42756
372.58        10.38061
373.03        10.48524
373.48        10.73434
373.93        11.09916
374.38        11.43661
374.83        11.52463
375.28        11.32424
375.72        10.88958
376.17        10.39746
376.62         10.0985
377.07        10.06658
377.52        10.23022
377.97        10.47715
378.42        10.62234
378.87        10.61249
379.32        10.50967
379.77        10.38398
380.22        10.33247
380.67        10.37632
381.11        10.47624
381.56        10.57534
382.01        10.59608
382.46        10.51697
382.91        10.36363
383.36        10.19056
383.81        10.08059
384.26        10.05512
384.71        10.09314
385.15        10.13278
385.60        10.08621
386.05        9.935041
386.50        9.702827
386.95        9.469004
387.40        9.368677
387.85        9.428369
388.29        9.599284
388.74        9.771592
389.19        9.805528
389.64        9.683035
390.09        9.445807
390.54        9.195145
390.98        9.099619
391.43        9.205144
391.88        9.443902
392.33        9.698219
392.78        9.797232
393.23        9.714132
393.67        9.507185
394.12        9.290416
394.57        9.184475
395.02        9.216323
395.47        9.344218
395.91        9.505626
396.36        9.577731
396.81        9.526072
397.26         9.38089
397.71        9.211376
398.15        9.106786
398.60        9.101538
399.05        9.169866
399.50        9.235865
399.95        9.168574
400.39         8.99223
400.84        8.711197
401.29         8.44747
401.74        8.402773
402.18        8.630452
402.63        9.050237
403.08        9.498618
403.53        9.717577
403.97        9.646396
404.42        9.362401
404.87        9.007616
405.32        8.827731
405.76        8.888757
406.21         9.10629
406.66        9.367984
407.11        9.520619
407.55        9.528716
408.00        9.438369
408.45        9.300868
408.90        9.203293
409.34        9.177303
409.79        9.187509
410.24        9.207833
410.68        9.204348
411.13        9.171192
411.58        9.133707
412.03        9.092304
412.47        9.046161
412.92        8.996206
413.37        8.934939
413.81         8.89974
414.26         8.96258
414.71        9.119226
415.15        9.350238
415.60        9.554449
416.05        9.587901
416.49        9.422553
416.94        9.116812
417.39        8.773858
417.83        8.573951
418.28        8.575303
418.73        8.710646
419.17         8.91614
419.62        9.082905
420.07        9.178441
420.51        9.236644
420.96        9.242739
421.41        9.166706
421.85        9.015016
422.30        8.811395
422.74        8.613019
423.19        8.526767
423.64        8.558619
424.08        8.686554
424.53        8.842665
424.98        8.922872
425.42        8.897003
425.87        8.793573
426.31        8.648544
426.76        8.549289
427.21        8.503162
427.65        8.427385
428.10        8.368531
428.54         8.44671
428.99         8.66296
429.44        8.967531
429.88        9.243042
430.33        9.328219
430.77        9.200889
431.22        8.908287
431.66        8.595847
432.11        8.521378
432.56        8.712273
433.00        9.051957
433.45        9.392102
433.89         9.58863
434.34        9.551772
434.78        9.248012
435.23        8.877496
435.67        8.790031
436.12        8.968943
436.57        9.083884
437.01        9.062905
437.46        9.013469
437.90        8.937127
438.35        8.809521
438.79        8.665975
439.24        8.586145
439.68        8.586877
440.13        8.603192
440.57         8.62316
441.02        8.743438
441.46        8.882463
441.91        8.747485
442.35        8.405663
442.80        8.210253
443.24        8.150047
443.69         8.09647
444.13        8.022739
444.58        7.897734
445.02        7.754469
445.47        7.763141
445.91        7.878461
446.36        7.884915
446.80        7.762784
447.24        7.625536
447.69        7.517007
448.13        7.450392
448.58        7.443275
449.02         7.49011
449.47        7.550268
449.91         7.55647
450.36        7.497609
450.80        7.390585
451.25         7.29168
451.69        7.279509
452.13        7.369383
452.58        7.521181
453.02        7.680743
453.47        7.756015
453.91        7.731072
454.36        7.639463
454.80        7.516823
455.24        7.425671
455.69        7.394258
456.13        7.397542
456.58        7.442937
457.02        7.530317
457.46        7.655151
457.91         7.81063
458.35        7.963947
458.79        8.048939
459.24        8.059781
459.68        8.002429
460.13        7.929408
460.57        7.895599
461.01        7.928626
461.46        8.005228
461.90        8.097926
462.34        8.145312
462.79        8.135008
463.23          8.0809
463.68        8.030553
464.12         8.05555
464.56         8.17186
465.01         8.35134
465.45        8.516945
465.89        8.585142
466.34        8.550194
466.78        8.397489
467.22        8.214436
467.67        8.224984
468.11         8.41299
468.55        8.518142
468.99        8.513323
469.44        8.526532
469.88        8.584316
470.32        8.717794
470.77        8.878119
471.21        8.924165
471.65        8.837435
472.10        8.717739
472.54        8.615859
472.98        8.594135
473.42        8.671803
473.87        8.830383
474.31        9.009807
474.75        9.106093
475.20        9.100297
475.64        9.020518
476.08        8.924057
476.52        8.900159
476.97        8.968471
477.41        9.101058
477.85        9.246597
478.29        9.341005
478.74        9.365639
479.18        9.294146
479.62        9.169213
480.06        9.211951
480.50         9.24439
480.95        9.278093
481.39        9.232593
481.83        9.177807
482.27        9.114923
482.72        8.976687
483.16        8.819679
483.60        8.859584
484.04        9.091169
484.48        9.268047
484.93        9.521982
485.37        9.844444
485.81        10.02557
486.25        10.53485
486.69        13.21147
487.14        10.26153
487.58        7.207956
488.02          8.9156
488.46        10.06784
488.90        10.01899
489.34        10.04157
489.79          10.027
490.23        10.63743
490.67        10.98534
491.11        10.90615
491.55        10.80146
491.99        10.65804
492.43        10.49258
492.88        10.35919
493.32         10.2925
493.76        10.25636
494.20        10.38095
494.64        10.64058
495.08        10.99005
495.52        11.36421
495.96        11.67951
496.41        11.87584
496.85        11.95903
497.29        11.95688
497.73        11.80421
498.17        11.66119
498.61        11.80577
499.05        12.23064
499.49        12.34777
499.93        12.44518
500.37         12.5473
500.82        12.62538
501.26        12.81566
501.70        13.05235
502.14        13.22132
502.58         13.2894
503.02         13.3341
503.46        13.35516
503.90        13.29396
504.34        13.18956
504.78        13.13705
505.22        13.15642
505.66        13.22936
506.10        13.32454
506.54        13.38509
506.98        13.39814
507.42         13.3849
507.86        13.38436
508.30        13.45598
508.74        13.60685
509.18         13.8067
509.62        14.01397
510.06        14.16217
510.50        14.23348
510.94        14.25737
511.38        14.24536
511.82        14.21539
512.26        14.18187
512.70        14.13393
513.14        14.11368
513.58        14.19086
514.02        14.36024
514.46        14.59283
514.90        14.80463
515.34         14.8236
515.78        14.59244
516.22        14.33433
516.66        14.15224
517.10        13.72611
517.54        13.09069
517.98        13.97224
518.42        13.79024
518.86         14.1788
519.30        14.34432
519.74        14.54024
520.18        14.70918
520.62        14.72551
521.06        14.60694
521.50        14.36589
521.93        14.08688
522.37        13.92371
522.81        13.91348
523.25        14.01429
523.69         14.1681
524.13        14.28133
524.57        14.32208
525.01        14.31623
525.45        14.27679
525.89         14.2243
526.32        14.16724
526.76        14.09728
527.20        14.01385
527.64        13.92687
528.08        13.84228
528.52        13.74845
528.96        13.65232
529.40        13.59733
529.83        13.59448
530.27        13.49704
530.71        13.54659
531.15        13.48804
531.59        13.39712
532.03        13.27359
532.46        13.17547
532.90        13.20219
533.34        13.35662
533.78        13.59894
534.22        13.83085
534.66        13.90801
535.09        13.80001
535.53        13.56027
535.97        13.27161
536.41        13.06853
536.85        12.99368
537.28        13.01389
537.72        13.08546
538.16        13.13435
538.60        13.14019
539.04        13.11989
539.47        13.10836
539.91        13.18715
540.35        13.34942
540.79        13.51449
541.22         13.6509
541.66         13.7666
542.10        13.85059
542.54        13.88177
542.97        13.88788
543.41        13.93759
543.85        14.04241
544.29        14.19298
544.72        14.35196
545.16        14.46589
545.60        14.52487
546.04         14.5431
546.47        14.57939
546.91        14.73391
547.35        15.01159
547.79        15.37752
548.22        15.73688
548.66        15.92572
549.10          15.925
549.53        15.81298
549.97        15.68918
550.41        15.66287
550.84         15.7721
551.28        15.99222
551.72        16.28567
552.15        16.58147
552.59         16.8399
553.03        17.07387
553.46          17.267
553.90        17.40684
554.34        17.50209
554.77        17.53703
555.21        17.53135
555.65        17.57096
556.08        17.67879
556.52        17.62223
556.96        17.81327
557.39        17.91859
557.83        18.05976
558.27        18.21508
558.70        18.37773
559.14        18.52193
559.57        18.63082
560.01        18.71879
560.45        18.76545
560.88        18.74036
561.32        18.66622
561.75        18.54935
562.19        18.45094
562.63        18.43637
563.06         18.5157
563.50        18.67032
563.93        18.86352
564.37        19.04238
564.80         19.1819
565.24        19.30342
565.68         19.4016
566.11        19.47613
566.55        19.54794
566.98        19.59503
567.42        19.65733
567.85        19.82645
568.29         20.1018
568.72        20.33018
569.16        20.51902
569.60        20.80695
570.03        21.09701
570.47        21.15408
570.90        21.07631
571.34        20.80225
571.77        21.15198
572.21        21.24939
572.64        21.29409
573.08        21.09689
573.51        20.70073
573.95        21.57644
574.38         22.6772
574.82        22.32343
