SpectraSmart Spectrum 2.9.0.0
--------- Device Information -----------
Spectrum Name :  反射率_0
Saving Time :  2024/04/26 00:47:54
Spectro-Module Model Name : SE2030-DUVN
Spectro-Module Serial Number : OS361AC55029948
Wavelength Start : 200
Wavelength End : 1025
Wavelength Unit : Wavelength(nm)
Spectrum Unit : Reflectance(%)
-----------Spectrum Setting ------------
Integration Time : 20ms
Average : 10
Boxcar : 0
Background removal :  enabled
linearity correction :  enabled
SC :  disabled
Intensity correction :  disabled
DWT denoise :  enabled
savitzky-golay :  disabled
FFT :  disabled
Running average :  disabled
Kalman :  disabled
High pass :  disabled
---------------BEGIN--------------------
Wavelength(nm)             Reflectance(%)
200.29               0
200.75         67.4674
201.21        55.23738
201.67        43.25054
202.13        36.96913
202.58        36.71843
203.04        41.26867
203.50        48.54993
203.96        54.38169
204.42        57.04031
204.88        57.59809
205.34        57.25816
205.80        57.41555
206.26        58.66246
206.72         61.3716
207.18         65.4444
207.64        64.81438
208.10        54.83974
208.55        45.23407
209.01        41.08707
209.47        41.44406
209.93        44.56061
210.39        50.29561
210.85        56.17949
211.31        56.55498
211.77        49.93565
212.23        38.43644
212.69         27.2608
213.14        24.50343
213.60        31.45363
214.06        45.85994
214.52        62.21352
214.98         71.9522
215.44         72.8353
215.90        67.51879
216.36         59.7826
216.81        54.90593
217.27        54.27035
217.73        55.99396
218.19        57.37463
218.65        54.78979
219.11        46.88492
219.57        33.04325
220.02        15.11245
220.48        4.147464
220.94        6.802577
221.40        20.27852
221.86        34.50098
222.32        38.88711
222.77        34.09283
223.23        25.25229
223.69        17.56572
224.15         16.2749
224.61        20.90345
225.06        28.87792
225.52         36.6064
225.98        39.60682
226.44        37.17136
226.90        31.40001
227.36        24.93411
227.81        21.28699
228.27        21.50097
228.73        24.12772
229.19        27.86598
229.65        30.80394
230.10         32.3253
230.56        33.04677
231.02        33.36317
231.48         33.6439
231.93        34.00224
232.39        34.26522
232.85        34.36771
233.31        34.30951
233.77        34.06308
234.22         33.6031
234.68        33.06116
235.14        32.57901
235.60        32.23421
236.05        32.10155
236.51        31.90549
236.97         31.1173
237.43        29.63503
237.88        27.50667
238.34        25.35426
238.80        24.94075
239.26        27.10978
239.71        31.43847
240.17        36.68958
240.63        40.91455
241.08        43.35446
241.54        44.34178
242.00        44.07328
242.46        42.76271
242.91        40.06295
243.37         33.2868
243.83        16.66441
244.28       -11.53733
244.74        4.234319
245.20        56.29825
245.66        74.41448
246.11        77.52184
246.57        74.25875
247.03        59.69633
247.48        4.083601
247.94       -10.06373
248.40        38.90358
248.85         58.3214
249.31         66.4046
249.77        70.46783
250.22        73.19771
250.68        76.05286
251.14        78.05255
251.59        74.30309
252.05        63.41667
252.51        49.72513
252.96        38.61884
253.42        33.70463
253.88        33.77199
254.33        37.19915
254.79        43.39006
255.25        50.63722
255.70        57.36243
256.16        63.46149
256.62         66.9743
257.07        65.99678
257.53        61.69131
257.99         55.1282
258.44        49.04665
258.90        47.28337
259.35        48.83707
259.81        51.85324
260.27        53.75431
260.72        52.11592
261.18        47.75038
261.63        41.91427
262.09        36.60913
262.55        33.53788
263.00        32.60793
263.46        32.95715
263.91        33.41397
264.37        32.93725
264.83        31.41709
265.28        29.20131
265.74         27.0799
266.19        26.01391
266.65        26.17178
267.11        26.99601
267.56        27.78611
268.02        27.71703
268.47         26.6921
268.93        25.02065
269.38        23.09807
269.84        21.81993
270.30        21.43861
270.75        21.69528
271.21         22.1825
271.66        22.30085
272.12         21.8793
272.57        21.13259
273.03        20.33184
273.48        19.79997
273.94        19.64109
274.39        19.69553
274.85        19.80374
275.31        19.75252
275.76        19.47767
276.22        19.07111
276.67        18.62361
277.13        18.33008
277.58        18.18642
278.04         18.1486
278.49        18.07329
278.95         17.7973
279.40        17.28954
279.86        16.66698
280.31        16.03947
280.77        15.65928
281.22        15.53535
281.68         15.5926
282.13        15.72105
282.59        15.78073
283.04        15.73479
283.50        15.65386
283.95        15.53462
284.41        15.37843
284.86        15.19753
285.32        14.99013
285.77        14.84075
286.22        14.93172
286.68        15.25081
287.13        15.71729
287.59        16.13935
288.04        16.23223
288.50         15.9709
288.95        15.45193
289.41        14.86781
289.86        14.41856
290.32        14.21141
290.77        14.16885
291.22        14.27951
291.68        14.48965
292.13        14.77451
292.59        15.14697
293.04        15.57431
293.50        15.99768
293.95         16.3878
294.40        16.72513
294.86        17.01256
295.31        17.27762
295.77        17.53292
296.22        17.77712
296.68         18.0003
297.13        18.15756
297.58        18.26597
298.04        18.36299
298.49        18.51088
298.95        18.83162
299.40        19.33447
299.85        19.97373
300.31        20.65566
300.76        21.24745
301.21        21.68904
301.67        22.02797
302.12        22.26879
302.58         22.4634
303.03         22.6192
303.48        22.73051
303.94        22.85612
304.39        23.05874
304.84        23.35252
305.30        23.71726
305.75        24.06108
306.20        24.24529
306.66        24.26455
307.11        24.15621
307.57        24.02882
308.02        23.98266
308.47        24.06688
308.93        24.23976
309.38        24.46226
309.83        24.69981
310.29         24.9173
310.74        25.11558
311.19        25.26245
311.65        25.30874
312.10        25.25021
312.55        25.10407
313.00        24.89597
313.46        24.68068
313.91        24.47531
314.36        24.28517
314.82          24.148
315.27        24.10681
315.72        24.16627
316.18        24.31053
316.63        24.47594
317.08        24.53529
317.53        24.45545
317.99        24.25989
318.44        24.03123
318.89        23.90607
319.35        23.90923
319.80        24.00443
320.25        24.09417
320.70        24.01836
321.16        23.74526
321.61         23.3328
322.06        22.88788
322.51        22.56998
322.97        22.40866
323.42        22.35942
323.87        22.34168
324.32        22.22302
324.78         21.9675
325.23        21.62785
325.68        21.25662
326.13        20.93722
326.59         20.6968
327.04        20.52546
327.49        20.41138
327.94        20.33853
328.39         20.2973
328.85        20.28513
329.30        20.31713
329.75        20.38517
330.20        20.47837
330.66        20.57013
331.11        20.64738
331.56        20.65281
332.01         20.5696
332.46        20.39664
332.92        20.17006
333.37        19.97754
333.82        19.84772
334.27        19.78707
334.72        19.73625
335.17        19.58793
335.63        19.32436
336.08        18.97914
336.53        18.68355
336.98        18.64665
337.43        18.89887
337.88        19.37493
338.34         19.8537
338.79        20.01767
339.24        19.76653
339.69        19.18624
340.14         18.5204
340.59        18.19833
341.05        18.32121
341.50         18.7583
341.95        19.26477
342.40        19.47825
342.85        19.31972
343.30        18.91906
343.75        18.42672
344.20        18.10361
344.66        18.02789
345.11        18.06636
345.56        18.16783
346.01        18.25707
346.46        18.29166
346.91        18.32875
347.36        18.25927
347.81        17.89872
348.26        17.26123
348.72        16.44156
349.17        15.67967
349.62        15.45471
350.07          15.857
350.52        16.71611
350.97        17.72804
351.42        18.42453
351.87        18.66969
352.32        18.58903
352.77        18.30245
353.22        18.01182
353.67         17.7951
354.13        17.59414
354.58        17.39583
355.03        17.22154
355.48        17.07609
355.93        16.99073
356.38        16.94421
356.83        16.88024
357.28        16.78282
357.73        16.65156
358.18        16.52253
358.63        16.45656
359.08        16.46356
359.53        16.53189
359.98        16.58768
360.43        16.51834
360.88        16.30982
361.33        15.99304
361.78        15.69206
362.23        15.60829
362.68        15.76872
363.13         16.0933
363.58        16.41736
364.03        16.48488
364.48        16.24199
364.93        15.78307
365.38        15.23387
365.83        14.79645
366.28        14.54284
366.73        14.41463
367.18        14.39095
367.63        14.43558
368.08        14.51561
368.53        14.64085
368.98        14.76025
369.43        14.78621
369.88        14.70547
370.33        14.54121
370.78        14.33767
371.23        14.18106
371.68        14.10234
372.13        14.07377
372.58        14.10534
373.03        14.20858
373.48         14.3658
373.93        14.56791
374.38        14.73965
374.83        14.76484
375.28        14.62541
375.72        14.34488
376.17        14.03115
376.62        13.82181
377.07        13.75977
377.52        13.80525
377.97        13.90605
378.42        13.97366
378.87        13.97762
379.32        13.94644
379.77        13.89551
380.22        13.84446
380.67        13.79904
381.11         13.7469
381.56        13.68075
382.01        13.60208
382.46        13.51124
382.91        13.41165
383.36        13.31015
383.81        13.21291
384.26        13.12723
384.71        13.06313
385.15        13.00753
385.60        12.94585
386.05        12.87178
386.50        12.77956
386.95        12.71027
387.40         12.7317
387.85        12.84547
388.29        13.02165
388.74        13.17278
389.19        13.17783
389.64        13.02644
390.09        12.74945
390.54        12.45958
390.98        12.34665
391.43        12.46044
391.88        12.73239
392.33         13.0169
392.78        13.09918
393.23        12.95019
393.67        12.64284
394.12        12.33404
394.57        12.19506
395.02        12.25963
395.47        12.46811
395.91        12.72167
396.36        12.82815
396.81        12.73556
397.26        12.49806
397.71        12.22133
398.15        12.04657
398.60        12.02397
399.05        12.10762
399.50        12.20441
399.95        12.15194
400.39        11.98149
400.84        11.69869
401.29        11.42848
401.74        11.37072
402.18        11.57955
402.63         11.9667
403.08        12.38517
403.53        12.60353
403.97        12.56422
404.42        12.34105
404.87        12.03725
405.32        11.83327
405.76        11.78637
406.21        11.83704
406.66        11.93684
407.11        12.02364
407.55          12.078
408.00        12.12212
408.45        12.14356
408.90          12.106
409.34        12.00833
409.79        11.86119
410.24        11.71552
410.68        11.64494
411.13        11.66638
411.58        11.76733
412.03        11.90363
412.47        11.99509
412.92        12.00644
413.37         11.9537
413.81        11.88818
414.26        11.90456
414.71        12.01009
415.15        12.17784
415.60        12.31406
416.05        12.28995
416.49        12.08273
416.94        11.75125
417.39        11.39742
417.83         11.1943
418.28        11.19562
418.73         11.3342
419.17        11.54053
419.62        11.69952
420.07        11.77756
420.51        11.81209
420.96        11.79172
421.41        11.69475
421.85         11.5308
422.30        11.32219
422.74        11.13021
423.19        11.07279
423.64        11.15444
424.08        11.35304
424.53        11.58206
424.98        11.70594
425.42        11.68726
425.87         11.5596
426.31        11.38416
426.76        11.29615
427.21         11.3087
427.65        11.30575
428.10        11.31732
428.54        11.45681
428.99        11.71472
429.44        12.03762
429.88        12.30016
430.33        12.33977
430.77        12.13877
431.22        11.75052
431.66        11.34229
432.11        11.21587
432.56        11.39943
433.00        11.74733
433.45        12.10306
433.89        12.34344
434.34        12.36969
434.78        12.11309
435.23        11.77259
435.67        11.74066
436.12        11.98404
436.57        12.07892
437.01         11.9781
437.46        11.90631
437.90        11.88497
438.35        11.85378
438.79        11.80486
439.24        11.76026
439.68        11.72747
440.13        11.65053
440.57         11.5659
441.02        11.68544
441.46         11.9199
441.91        11.84448
442.35        11.50539
442.80        11.32419
443.24        11.28085
443.69        11.21842
444.13        11.11319
444.58        10.93638
445.02        10.74341
445.47        10.75897
445.91        10.93418
446.36        10.99312
446.80        10.90806
447.24        10.83138
447.69        10.78988
448.13        10.74898
448.58        10.72128
449.02        10.71317
449.47        10.70952
449.91        10.68583
450.36        10.64135
450.80         10.5798
451.25        10.53265
451.69        10.53752
452.13        10.60164
452.58        10.70055
453.02        10.80145
453.47        10.84654
453.91        10.82787
454.36        10.76762
454.80        10.68632
455.24        10.62093
455.69        10.59145
456.13        10.57783
456.58        10.59999
457.02        10.67087
457.46        10.79115
457.91        10.95131
458.35        11.10553
458.79        11.17024
459.24        11.14039
459.68        11.02881
460.13        10.91147
460.57        10.87426
461.01        10.94928
461.46         11.0997
461.90        11.27153
462.34        11.36638
462.79        11.35939
463.23        11.27454
463.68        11.17279
464.12        11.15411
464.56         11.2464
465.01        11.42069
465.45        11.58707
465.89        11.65497
466.34         11.6178
466.78        11.44464
467.22        11.24407
467.67        11.30454
468.11        11.59738
468.55        11.76858
468.99        11.76811
469.44        11.75755
469.88        11.77394
470.32        11.86343
470.77        11.98902
471.21        12.00617
471.65        11.90344
472.10        11.80258
472.54        11.74082
472.98         11.7435
473.42        11.82394
473.87        11.97624
474.31        12.15326
474.75        12.27255
475.20        12.31801
475.64         12.3052
476.08        12.27558
476.52        12.29481
476.97        12.37881
477.41        12.51028
477.85        12.64761
478.29        12.74858
478.74         12.8026
479.18        12.75953
479.62        12.66456
480.06        12.80417
480.50        12.92281
480.95        13.03862
481.39         13.0377
481.83         13.0172
482.27        12.97987
482.72        12.82744
483.16        12.62402
483.60        12.66808
484.04        12.98334
484.48        13.11629
484.93        13.24566
485.37        13.73837
485.81        14.42845
486.25        14.45075
486.69        18.77431
487.14        14.81446
487.58        10.05607
488.02         12.3795
488.46        14.11815
488.90        14.05472
489.34        14.10308
489.79        14.02549
490.23        14.83974
490.67        15.33085
491.11        15.28111
491.55         15.2027
491.99        15.07426
492.43        14.94059
492.88        14.86641
493.32        14.89897
493.76        14.94905
494.20        15.14643
494.64        15.44555
495.08        15.80155
495.52        16.17365
495.96        16.52379
496.41        16.78844
496.85         16.9555
497.29        17.02668
497.73        16.84303
498.17        16.61441
498.61         16.7547
499.05        17.27713
499.49        17.39722
499.93        17.53681
500.37        17.71391
500.82        17.85763
501.26        18.11208
501.70        18.37763
502.14        18.51241
502.58        18.50703
503.02        18.52588
503.46         18.5806
503.90        18.56886
504.34        18.51528
504.78        18.50609
505.22        18.55485
505.66        18.65047
506.10        18.75715
506.54        18.81064
506.98        18.79952
507.42        18.74361
507.86        18.70773
508.30        18.79217
508.74        19.00911
509.18        19.31864
509.62        19.63516
510.06        19.81814
510.50        19.83575
510.94        19.74134
511.38        19.60135
511.82        19.52188
512.26         19.5364
512.70        19.60325
513.14        19.71783
513.58        19.87217
514.02         20.0383
514.46        20.21549
514.90        20.34292
515.34          20.286
515.78        20.00535
516.22        19.70247
516.66        19.48947
517.10        19.09209
517.54        18.54744
517.98         19.4695
518.42        19.41463
518.86        19.86864
519.30        20.07723
519.74        20.28299
520.18        20.45394
520.62        20.51133
521.06        20.47697
521.50        20.34618
521.93        20.16718
522.37        20.03454
522.81        19.97516
523.25        19.97272
523.69        20.00429
524.13        20.02841
524.57        20.02931
525.01        20.01706
525.45         19.9967
525.89        19.97485
526.32        19.95031
526.76        19.91953
527.20        19.86751
527.64        19.78152
528.08        19.66632
528.52        19.51049
528.96        19.33974
529.40        19.24624
529.83        19.25093
530.27        19.13398
530.71        19.23359
531.15        19.18137
531.59        19.08064
532.03         18.9387
532.46        18.81946
532.90        18.82832
533.34        18.97126
533.78        19.20382
534.22          19.435
534.66        19.53275
535.09        19.46504
535.53        19.28413
535.97        19.05029
536.41         18.8635
536.85        18.76144
537.28        18.72155
537.72        18.72904
538.16        18.75945
538.60        18.80178
539.04        18.85021
539.47        18.91142
539.91        19.03995
540.35        19.21375
540.79        19.34573
541.22        19.42191
541.66        19.50121
542.10        19.58167
542.54        19.61565
542.97        19.63768
543.41        19.73644
543.85        19.91952
544.29         20.1743
544.72        20.42703
545.16        20.56889
545.60        20.58197
546.04        20.49792
546.47        20.42732
546.91        20.55514
547.35        20.90191
547.79        21.40585
548.22         21.9184
548.66        22.18834
549.10        22.17686
549.53        21.99884
549.97        21.79116
550.41        21.70731
550.84        21.80288
551.28        22.04304
551.72        22.37411
552.15        22.69564
552.59        22.96078
553.03         23.1929
553.46        23.38834
553.90         23.5598
554.34        23.71705
554.77        23.82574
555.21        23.88334
555.65        23.96243
556.08        24.08231
556.52        23.93875
556.96        24.10882
557.39         24.1643
557.83        24.28182
558.27         24.4291
558.70        24.60059
559.14        24.77007
559.57        24.91485
560.01        25.05141
560.45         25.1483
560.88        25.15677
561.32        25.09798
561.75        24.97765
562.19        24.86734
562.63        24.84193
563.06        24.91362
563.50        25.06294
563.93        25.24915
564.37        25.41726
564.80        25.53898
565.24        25.64088
565.68         25.7185
566.11        25.76783
566.55        25.81338
566.98        25.84698
567.42        25.90939
567.85        26.05748
568.29        26.31109
568.72        26.58052
569.16        26.87161
569.60        27.21843
570.03        27.47481
570.47        27.50136
570.90        27.47144
571.34        26.82571
571.77        27.35376
572.21        27.55267
572.64        27.60755
573.08        27.19877
573.51        26.36263
573.95        27.51244
574.38        29.28784
574.82        28.45944
