SpectraSmart Spectrum 2.9.0.0
--------- Device Information -----------
Spectrum Name :  反射率_0
Saving Time :  2024/04/26 00:54:12
Spectro-Module Model Name : SE2030-DUVN
Spectro-Module Serial Number : OS361AC55029948
Wavelength Start : 200
Wavelength End : 1025
Wavelength Unit : Wavelength(nm)
Spectrum Unit : Reflectance(%)
-----------Spectrum Setting ------------
Integration Time : 20ms
Average : 10
Boxcar : 0
Background removal :  enabled
linearity correction :  enabled
SC :  disabled
Intensity correction :  disabled
DWT denoise :  enabled
savitzky-golay :  disabled
FFT :  disabled
Running average :  disabled
Kalman :  disabled
High pass :  disabled
---------------BEGIN--------------------
Wavelength(nm)             Reflectance(%)
200.29               0
200.75        78.01731
201.21        75.00414
201.67        71.29275
202.13        69.18069
202.58        68.97595
203.04         70.3419
203.50        72.22914
203.96         72.9303
204.42        72.11302
204.88        70.45872
205.34        68.97972
205.80         68.6797
206.26        69.94069
206.72        73.69408
207.18        80.95981
207.64        85.26177
208.10        77.14584
208.55        65.87629
209.01        59.83704
209.47        59.04521
209.93        61.48698
210.39        66.55698
210.85        72.10945
211.31        73.24615
211.77        68.58747
212.23        60.02554
212.69        51.85219
213.14        50.77814
213.60        57.72535
214.06        70.57671
214.52        84.75755
214.98        93.25816
215.44        94.24242
215.90        90.09783
216.36        83.53477
216.81        78.26609
217.27        75.74689
217.73        74.76031
218.19        74.05019
218.65        71.91072
219.11        67.53492
219.57        60.50307
220.02        51.62957
220.48        46.45523
220.94        47.82997
221.40          54.291
221.86        60.12883
222.32        59.43771
222.77        53.02357
223.23         44.5131
223.69        37.34591
224.15        35.01738
224.61        37.12356
225.06        41.91164
225.52         46.9342
225.98        49.31511
226.44        48.52557
226.90        45.84441
227.36         42.8227
227.81        41.49764
228.27        42.54117
228.73        44.92029
229.19         47.7641
229.65        49.83068
230.10        50.73656
230.56         50.9957
231.02        50.87939
231.48        50.64603
231.93        50.38834
232.39        50.04548
232.85        49.69088
233.31        49.52064
233.77        49.55987
234.22        49.78625
234.68        50.08941
235.14        50.16234
235.60        49.94112
236.05        49.56538
236.51        49.16384
236.97        48.88785
237.43        48.79414
237.88        48.85611
238.34        49.15864
238.80        50.05296
239.26        51.55998
239.71        53.70114
240.17        55.65737
240.63        56.53378
241.08        56.23416
241.54        54.95627
242.00        53.47825
242.46         52.8134
242.91        53.50245
243.37        56.21778
243.83        65.88727
244.28        99.91102
244.74        142.4419
245.20        124.2564
245.66        104.6157
246.11        97.90149
246.57        97.90901
247.03        104.6195
247.48        122.1859
247.94        96.40854
248.40        73.18315
248.85        67.95032
249.31        67.96803
249.77        71.00667
250.22        76.86233
250.68        86.80161
251.14        100.4944
251.59        108.5339
252.05        102.1728
252.51        86.03315
252.96        69.56652
253.42        61.25731
253.88        60.40122
254.33        63.87888
254.79         70.0253
255.25        75.89831
255.70        80.10867
256.16        83.62302
256.62        85.46258
257.07        84.53916
257.53         81.7032
257.99        77.19608
258.44        72.63319
258.90        70.83099
259.35        70.88519
259.81        71.84349
260.27        71.80077
260.72        68.92043
261.18        64.04121
261.63         58.0059
262.09        52.59718
262.55        49.18585
263.00        47.65457
263.46        47.36454
263.91        47.21603
264.37        46.33517
264.83        44.55817
265.28        42.15364
265.74        39.84373
266.19        38.45678
266.65        38.21944
267.11        38.64191
267.56        39.08148
268.02        38.81482
268.47        37.70922
268.93        36.02785
269.38        34.14032
269.84        32.89837
270.30        32.53457
270.75        32.81332
271.21        33.26862
271.66        33.20467
272.12        32.46239
272.57        31.28228
273.03        30.09794
273.48        29.46501
273.94        29.51775
274.39        29.99327
274.85        30.54237
275.31        30.65315
275.76         30.2018
276.22        29.39586
276.67        28.46861
277.13         27.8516
277.58        27.58158
278.04         27.5472
278.49        27.50869
278.95         27.2015
279.40        26.55684
279.86        25.74902
280.31        24.92019
280.77        24.38684
281.22        24.16338
281.68        24.16004
282.13        24.23082
282.59         24.2126
283.04        24.05207
283.50        23.83977
283.95        23.58452
284.41        23.32054
284.86        23.05912
285.32        22.79128
285.77        22.57829
286.22        22.57904
286.68        22.78033
287.13        23.10891
287.59        23.39049
288.04        23.35231
288.50         22.9796
288.95        22.35311
289.41        21.67491
289.86        21.14462
290.32        20.87304
290.77        20.78133
291.22        20.83691
291.68        20.95016
292.13        21.09265
292.59         21.2924
293.04        21.56232
293.50        21.92105
293.95        22.34937
294.40        22.80023
294.86        23.22224
295.31        23.55437
295.77        23.79054
296.22        23.95906
296.68        24.08488
297.13         24.1816
297.58        24.28406
298.04        24.40563
298.49        24.60199
298.95        24.99165
299.40        25.57151
299.85        26.29849
300.31        27.04955
300.76        27.63918
301.21        28.00746
301.67        28.23307
302.12        28.35829
302.58        28.50362
303.03        28.68568
303.48        28.87424
303.94        29.12068
304.39        29.47021
304.84        29.92056
305.30        30.45033
305.75        30.92011
306.20        31.12495
306.66        31.05541
307.11        30.76795
307.57        30.43806
308.02        30.25571
308.47          30.296
308.93        30.49681
309.38        30.77485
309.83        31.02695
310.29        31.20384
310.74        31.32869
311.19        31.40767
311.65        31.44769
312.10        31.45172
312.55        31.41192
313.00        31.31661
313.46        31.16318
313.91        30.95272
314.36        30.71265
314.82        30.50364
315.27        30.39825
315.72        30.41558
316.18        30.52854
316.63        30.68152
317.08        30.75955
317.53        30.72719
317.99        30.60557
318.44        30.45233
318.89        30.36304
319.35        30.35323
319.80        30.40007
320.25        30.42975
320.70        30.32618
321.16        30.07081
321.61        29.70638
322.06        29.32574
322.51        29.06759
322.97        28.95254
323.42        28.94781
323.87        28.96734
324.32         28.8682
324.78         28.6141
325.23        28.26088
325.68        27.87946
326.13        27.58827
326.59        27.41843
327.04        27.35112
327.49         27.3472
327.94        27.34612
328.39        27.32506
328.85        27.29254
329.30        27.28418
329.75        27.31646
330.20        27.39233
330.66        27.47965
331.11        27.57253
331.56        27.62029
332.01        27.60819
332.46        27.53737
332.92        27.42826
333.37        27.35398
333.82         27.3251
334.27        27.34182
334.72        27.35097
335.17        27.26141
335.63        27.05734
336.08        26.77265
336.53        26.51231
336.98        26.44872
337.43        26.61093
337.88        26.94722
338.34        27.29191
338.79        27.42103
339.24        27.25595
339.69        26.86588
340.14        26.41866
340.59        26.20901
341.05        26.30473
341.50        26.60933
341.95        26.97161
342.40        27.17136
342.85        27.15541
343.30        27.00776
343.75        26.78269
344.20        26.57612
344.66        26.42844
345.11        26.26959
345.56        26.14439
346.01        26.12091
346.46        26.19183
346.91        26.36082
347.36        26.47133
347.81        26.26732
348.26        25.73397
348.72        24.98952
349.17        24.26614
349.62        24.02496
350.07        24.36164
350.52        25.11033
350.97        26.00619
351.42        26.64483
351.87        26.90471
352.32        26.89695
352.77        26.70999
353.22         26.4918
353.67        26.30291
354.13        26.09712
354.58        25.87744
355.03         25.6945
355.48        25.55866
355.93        25.48878
356.38        25.44258
356.83        25.33356
357.28         25.1421
357.73        24.88189
358.18        24.61618
358.63        24.44714
359.08        24.39365
359.53        24.42947
359.98        24.45964
360.43        24.33756
360.88        24.03986
361.33        23.61097
361.78        23.18322
362.23        22.97142
362.68        23.01238
363.13        23.22476
363.58        23.45414
364.03        23.46008
364.48        23.18904
364.93        22.72983
365.38         22.1945
365.83        21.76088
366.28        21.49374
366.73        21.34141
367.18        21.28481
367.63        21.29366
368.08        21.33826
368.53        21.42236
368.98        21.50654
369.43        21.52232
369.88        21.45586
370.33        21.32484
370.78        21.14476
371.23        20.95337
371.68        20.77282
372.13        20.59186
372.58         20.4593
373.03        20.45278
373.48        20.57602
373.93         20.8037
374.38        21.03177
374.83        21.09787
375.28        20.96878
375.72        20.67828
376.17        20.34751
376.62        20.13709
377.07        20.09325
377.52        20.16355
377.97        20.27356
378.42        20.30479
378.87         20.2222
379.32        20.06683
379.77         19.8825
380.22         19.7261
380.67        19.61245
381.11        19.52507
381.56        19.43077
382.01        19.28805
382.46        19.09224
382.91        18.86131
383.36        18.64687
383.81        18.52605
384.26        18.51256
384.71        18.58181
385.15        18.65771
385.60        18.64184
386.05        18.50512
386.50        18.26842
386.95        18.00824
387.40        17.85991
387.85        17.85748
388.29        17.95421
388.74        18.06108
389.19        18.03387
389.64        17.85527
390.09        17.56398
390.54         17.2753
390.98        17.18084
391.43        17.32573
391.88        17.62882
392.33        17.93752
392.78        18.02962
393.23        17.87564
393.67        17.55411
394.12        17.22036
394.57        17.02868
395.02          17.014
395.47         17.1158
395.91        17.27592
396.36        17.36881
396.81         17.3562
397.26        17.26979
397.71        17.14108
398.15        16.99587
398.60        16.87637
399.05        16.78005
399.50        16.69119
399.95         16.5418
400.39        16.40219
400.84        16.23114
401.29        16.10601
401.74        16.13042
402.18          16.328
402.63        16.63807
403.08        16.96161
403.53        17.14068
403.97        17.13464
404.42        16.98673
404.87        16.76354
405.32        16.58616
405.76         16.4958
406.21        16.46384
406.66        16.46423
407.11        16.46343
407.55        16.45284
408.00        16.44147
408.45        16.42765
408.90        16.39407
409.34        16.34068
409.79        16.27442
410.24        16.21479
410.68        16.19052
411.13        16.21067
411.58        16.26631
412.03        16.34602
412.47         16.4314
412.92         16.4988
413.37        16.54977
413.81        16.58229
414.26         16.6119
414.71        16.63317
415.15        16.64557
415.60        16.62405
416.05        16.54888
416.49        16.42118
416.94         16.2644
417.39        16.10775
417.83        15.99972
418.28        15.96225
418.73        15.97243
419.17        16.02404
419.62        16.09903
420.07        16.18587
420.51        16.28715
420.96        16.36194
421.41        16.34108
421.85          16.212
422.30        16.01846
422.74        15.81832
423.19        15.73026
423.64        15.76163
424.08        15.89162
424.53        16.04989
424.98        16.14262
425.42        16.14612
425.87        16.07753
426.31         15.9803
426.76        15.97048
427.21        16.04346
427.65        16.05728
428.10        16.05094
428.54        16.18645
428.99        16.46242
429.44        16.80499
429.88         17.0699
430.33        17.08502
430.77        16.82917
431.22         16.3583
431.66        15.87364
432.11        15.74899
432.56        16.01236
433.00        16.47149
433.45        16.91485
433.89        17.18549
434.34        17.16138
434.78        16.74723
435.23        16.23252
435.67        16.17916
436.12         16.5398
436.57        16.72771
437.01        16.65897
437.46        16.60952
437.90        16.60073
438.35        16.55798
438.79        16.48228
439.24        16.42211
439.68        16.39555
440.13        16.31915
440.57        16.24656
441.02        16.48313
441.46        16.90368
441.91        16.90043
442.35        16.52014
442.80        16.34282
443.24        16.34328
443.69        16.29323
444.13        16.17145
444.58        15.95098
445.02        15.71612
445.47        15.79082
445.91        16.08873
446.36        16.17626
446.80        16.01349
447.24        15.84055
447.69         15.7256
448.13        15.66742
448.58        15.69217
449.02        15.79114
449.47        15.91736
449.91        15.99482
450.36        16.00465
450.80        15.96165
451.25          15.909
451.69        15.90195
452.13        15.95551
452.58        16.03963
453.02        16.11937
453.47        16.13968
453.91        16.09336
454.36        16.00748
454.80         15.9065
455.24        15.82821
455.69        15.79553
456.13        15.78592
456.58        15.81992
457.02        15.90491
457.46        16.03966
457.91        16.20912
458.35        16.36471
458.79         16.4236
459.24        16.38104
459.68        16.25021
460.13        16.09809
460.57        15.98927
461.01        15.96156
461.46         15.9911
461.90        16.05339
462.34        16.09908
462.79         16.1092
463.23        16.09035
463.68         16.0757
464.12        16.12035
464.56        16.23272
465.01        16.40345
465.45        16.53496
465.89         16.5445
466.34         16.4354
466.78        16.14832
467.22        15.83165
467.67         15.8842
468.11        16.26307
468.55        16.47818
468.99        16.46215
469.44        16.44094
469.88        16.46427
470.32        16.59345
470.77        16.77623
471.21        16.80784
471.65        16.67068
472.10        16.52909
472.54        16.43339
472.98        16.40992
473.42         16.4767
473.87        16.63275
474.31        16.81403
474.75         16.9129
475.20        16.91179
475.64        16.83396
476.08        16.74352
476.52        16.73993
476.97        16.84462
477.41        17.02583
477.85        17.21833
478.29        17.35082
478.74        17.40278
479.18        17.31216
479.62        17.13711
480.06        17.25668
480.50        17.33178
480.95        17.39889
481.39        17.32416
481.83        17.26266
482.27        17.21599
482.72        17.03641
483.16        16.80804
483.60        16.89323
484.04        17.29965
484.48        17.52415
484.93        17.75719
485.37        18.18769
485.81        18.68594
486.25        18.79209
486.69        24.56908
487.14        19.56729
487.58        12.97942
488.02        16.03332
488.46        18.12308
488.90        18.20096
489.34        18.34349
489.79        18.21562
490.23         18.9845
490.67        19.51148
491.11        19.50306
491.55        19.39075
491.99        19.14426
492.43        18.93619
492.88        18.85036
493.32        18.90321
493.76        18.96321
494.20        19.17537
494.64         19.4767
495.08        19.82459
495.52        20.18237
495.96         20.5206
496.41        20.76888
496.85        20.90861
497.29        20.94852
497.73         20.7004
498.17         20.4197
498.61        20.61138
499.05        21.27542
499.49        21.41597
499.93        21.54368
500.37        21.68757
500.82         21.7777
501.26        22.01423
501.70        22.28262
502.14        22.40538
502.58        22.36342
503.02        22.34104
503.46        22.35113
503.90        22.28013
504.34        22.16749
504.78        22.13065
505.22        22.18733
505.66        22.31362
506.10        22.46478
506.54        22.56074
506.98        22.58235
507.42        22.55577
507.86        22.53588
508.30        22.60804
508.74         22.7858
509.18        23.03221
509.62        23.29118
510.06        23.47225
510.50        23.55116
510.94        23.56415
511.38        23.53736
511.82         23.5115
512.26         23.5052
512.70        23.49903
513.14        23.51775
513.58        23.60391
514.02        23.74653
514.46        23.92645
514.90        24.07691
515.34        24.05571
515.78        23.81721
516.22        23.56076
516.66        23.37576
517.10        22.97214
517.54         22.3816
517.98        23.14856
518.42        22.97989
518.86        23.35211
519.30        23.55665
519.74        23.81236
520.18        24.04557
520.62        24.10973
521.06        24.01175
521.50        23.77032
521.93        23.48236
522.37        23.32083
522.81        23.32861
523.25        23.45807
523.69        23.63635
524.13        23.74743
524.57        23.75642
525.01        23.69744
525.45        23.60386
525.89         23.5284
526.32        23.48515
526.76        23.45463
527.20        23.41292
527.64         23.3353
528.08        23.22199
528.52         23.0657
528.96        22.88802
529.40        22.78193
529.83        22.76998
530.27         22.5952
530.71        22.67271
531.15        22.59383
531.59        22.48471
532.03        22.34559
532.46          22.235
532.90        22.24647
533.34        22.38268
533.78        22.60558
534.22        22.82327
534.66          22.902
535.09         22.8113
535.53        22.60448
535.97        22.35215
536.41        22.17253
536.85        22.10419
537.28        22.11633
537.72        22.17611
538.16        22.23057
538.60        22.26194
539.04        22.27221
539.47         22.2797
539.91        22.36589
540.35        22.51189
540.79        22.61214
541.22        22.65898
541.66        22.73383
542.10        22.83432
542.54        22.90279
542.97        22.96027
543.41        23.07845
543.85        23.25924
544.29        23.49357
544.72        23.71733
545.16        23.83988
545.60        23.84688
546.04        23.76439
546.47          23.696
546.91        23.81597
547.35        24.14324
547.79        24.62462
548.22        25.11604
548.66        25.37104
549.10        25.35474
549.53        25.18344
549.97        24.99718
550.41        24.94891
550.84        25.09137
551.28        25.38725
551.72        25.77109
552.15        26.12073
552.59        26.38462
553.03        26.59412
553.46        26.75175
553.90        26.88402
554.34        27.00669
554.77        27.07983
555.21        27.10928
555.65         27.1919
556.08        27.34852
556.52        27.22442
556.96        27.45755
557.39        27.53297
557.83         27.6478
558.27        27.77621
558.70        27.91899
559.14        28.07148
559.57        28.21661
560.01        28.33314
560.45        28.40227
560.88        28.46775
561.32        28.51544
561.75        28.38509
562.19        28.16602
562.63        28.09019
563.06        28.17632
563.50         28.3149
563.93        28.47263
564.37         28.6511
564.80        28.82056
565.24        28.98901
565.68        29.13051
566.11        29.20804
566.55        29.24258
566.98        29.24076
567.42         29.2558
567.85        29.36632
568.29        29.60389
568.72        29.85354
569.16         30.1278
569.60        30.53567
570.03        30.93085
570.47        31.01302
570.90        30.90453
571.34        30.48631
571.77        30.91342
572.21        30.90587
572.64        30.90818
573.08        30.45582
573.51        29.68381
573.95        31.00346
574.38        32.88517
574.82        32.11405
