SpectraSmart Spectrum 2.9.0.0
--------- Device Information -----------
Spectrum Name :  反射率_0
Saving Time :  2024/04/25 22:50:19
Spectro-Module Model Name : SE2030-DUVN
Spectro-Module Serial Number : OS361AC55029948
Wavelength Start : 200
Wavelength End : 1025
Wavelength Unit : Wavelength(nm)
Spectrum Unit : Reflectance(%)
-----------Spectrum Setting ------------
Integration Time : 20ms
Average : 10
Boxcar : 0
Background removal :  enabled
linearity correction :  enabled
SC :  disabled
Intensity correction :  disabled
DWT denoise :  enabled
savitzky-golay :  disabled
FFT :  disabled
Running average :  disabled
Kalman :  disabled
High pass :  disabled
---------------BEGIN--------------------
Wavelength(nm)             Reflectance(%)
200.29               0
200.75        79.59692
201.21        76.32925
201.67         72.0515
202.13         68.7936
202.58         66.8923
203.04        66.09193
203.50        65.84103
203.96        65.42911
204.42        64.71631
204.88        63.94324
205.34        63.48022
205.80        63.71553
206.26        64.89738
206.72        67.80054
207.18        73.13023
207.64        76.10949
208.10        69.86718
208.55        61.26089
209.01        56.51974
209.47        55.67173
209.93        57.17196
210.39        60.66232
210.85        64.36666
211.31        64.39283
211.77        59.76315
212.23        51.90627
212.69        44.64359
213.14        43.96581
213.60        50.60022
214.06        62.83102
214.52        76.03846
214.98        83.12401
215.44        82.45329
215.90         76.4232
216.36        68.57109
216.81        63.83947
217.27        63.49572
217.73         65.6786
218.19        67.93076
218.65        67.06953
219.11        61.94788
219.57        52.14898
220.02         38.9153
220.48        30.35606
220.94        31.27913
221.40        39.81191
221.86        48.47928
222.32        49.32059
222.77        43.12672
223.23        34.24112
223.69        26.94065
224.15        25.57405
224.61        29.57342
225.06         36.6093
225.52        43.57337
225.98         46.6372
226.44        45.12075
226.90        40.81142
227.36        35.61694
227.81        32.04856
228.27        31.04449
228.73          31.522
229.19        33.07148
229.65         35.0907
230.10        37.08246
230.56        39.09781
231.02        40.70684
231.48        41.33963
231.93        41.06704
232.39        40.12438
232.85        38.97504
233.31        38.42115
233.77        38.63459
234.22        39.33855
234.68        40.29048
235.14        40.89512
235.60        40.92348
236.05        40.65627
236.51         40.1106
236.97         39.1989
237.43        37.96705
237.88        36.37403
238.34        34.91578
238.80        35.06303
239.26        37.48176
239.71        41.92491
240.17        47.23069
240.63        51.63031
241.08        54.44206
241.54        55.82947
242.00        56.22779
242.46        56.43414
242.91        56.95874
243.37        57.59906
243.83        60.38129
244.28        77.16677
244.74        110.7732
245.20        111.3503
245.66        102.8742
246.11        100.5895
246.57        103.2969
247.03        113.3171
247.48        140.3043
247.94        119.0689
248.40        88.21408
248.85        79.39433
249.31        77.23009
249.77        77.56952
250.22        79.41974
250.68        83.01461
251.14        87.66412
251.59        88.36505
252.05        81.94173
252.51        71.67682
252.96        62.48879
253.42        58.55446
253.88        58.99649
254.33        62.01049
254.79         66.7318
255.25        71.32617
255.70        74.74127
256.16        77.47533
256.62        78.49405
257.07        76.70998
257.53         72.9568
257.99        67.64468
258.44        62.45143
258.90        60.15331
259.35        59.93746
259.81        60.78515
260.27         60.8142
260.72        58.21103
261.18         53.7107
261.63        48.15066
262.09        43.23023
262.55        40.29435
263.00        39.20994
263.46         39.2924
263.91        39.47317
264.37        38.85763
264.83        37.31443
265.28        35.12032
265.74        32.98035
266.19         31.7236
266.65         31.5464
267.11        31.96556
267.56        32.37051
268.02        32.03937
268.47        30.85974
268.93        29.10493
269.38        27.11353
269.84        25.68881
270.30        25.07535
270.75        25.06617
271.21        25.30888
271.66        25.27908
272.12        24.82018
272.57        24.09896
273.03        23.38258
273.48        22.98601
273.94        22.98938
274.39        23.22642
274.85        23.45214
275.31        23.32176
275.76        22.77138
276.22        21.95535
276.67        21.10344
277.13        20.62309
277.58        20.53766
278.04        20.72425
278.49        20.91734
278.95        20.79165
279.40        20.27306
279.86        19.53361
280.31        18.73369
280.77        18.20748
281.22        17.98685
281.68        17.97632
282.13        18.03833
282.59        18.00302
283.04        17.82986
283.50        17.61203
283.95        17.38166
284.41        17.19175
284.86        17.05961
285.32        16.96333
285.77        16.94163
286.22        17.11203
286.68        17.44866
287.13        17.88782
287.59        18.27153
288.04        18.36469
288.50        18.15069
288.95        17.69837
289.41        17.17839
289.86        16.75543
290.32        16.53185
290.77        16.44911
291.22        16.50044
291.68         16.6347
292.13        16.83743
292.59        17.12675
293.04        17.50089
293.50        17.95123
293.95        18.45209
294.40        18.96276
294.86         19.4464
295.31        19.86683
295.77         20.2199
296.22        20.52362
296.68        20.78017
297.13        20.96618
297.58        21.11106
298.04        21.24485
298.49        21.44628
298.95        21.86833
299.40        22.51745
299.85        23.33233
300.31        24.18583
300.76        24.88781
301.21         25.3642
301.67         25.6879
302.12        25.87452
302.58        25.99915
303.03        26.08447
303.48        26.12822
303.94        26.21959
304.39        26.46416
304.84        26.87738
305.30        27.41717
305.75        27.94973
306.20         28.2728
306.66        28.36045
307.11        28.26257
307.57        28.09773
308.02        27.97711
308.47        27.96433
308.93         28.0195
309.38        28.12393
309.83        28.27873
310.29        28.45841
310.74        28.65592
311.19        28.82275
311.65        28.88055
312.10        28.81177
312.55        28.63619
313.00         28.3831
313.46        28.11507
313.91        27.85411
314.36        27.60889
314.82        27.40701
315.27        27.27383
315.72        27.21605
316.18        27.22154
316.63        27.26703
317.08        27.29001
317.53        27.26451
317.99        27.19034
318.44        27.08114
318.89        26.96496
319.35        26.84094
319.80        26.70395
320.25        26.52125
320.70        26.24822
321.16        25.89017
321.61        25.47327
322.06        25.05695
322.51          24.724
322.97        24.48212
323.42        24.31529
323.87        24.17011
324.32        23.95885
324.78        23.66042
325.23        23.30791
325.68        22.93992
326.13        22.62178
326.59        22.37015
327.04        22.18167
327.49        22.03826
327.94        21.91229
328.39        21.79459
328.85        21.68595
329.30        21.61713
329.75        21.60701
330.20        21.65491
330.66        21.72898
331.11        21.81122
331.56        21.83217
332.01        21.76958
332.46        21.62669
332.92        21.42957
333.37        21.25179
333.82        21.11512
334.27        21.02134
334.72        20.92917
335.17        20.76585
335.63        20.52033
336.08        20.21983
336.53        19.95917
336.98        19.88873
337.43        20.02972
337.88        20.33597
338.34        20.64015
338.79        20.71289
339.24        20.47761
339.69        19.99955
340.14        19.46647
340.59        19.20885
341.05        19.29984
341.50        19.63655
341.95        20.03032
342.40        20.20272
342.85        20.08917
343.30        19.78854
343.75        19.40064
344.20        19.10095
344.66        18.95035
345.11         18.8573
345.56          18.815
346.01          18.812
346.46         18.8245
346.91        18.88198
347.36        18.87542
347.81        18.62244
348.26        18.12337
348.72        17.46939
349.17        16.84677
349.62        16.64577
350.07        16.94306
350.52        17.59758
350.97        18.37907
351.42        18.93424
351.87        19.15697
352.32        19.14381
352.77        18.96633
353.22        18.74647
353.67        18.53837
354.13        18.30683
354.58        18.07136
355.03        17.90267
355.48        17.81672
355.93        17.82654
356.38        17.87284
356.83        17.84372
357.28        17.71292
357.73        17.49763
358.18        17.28145
358.63         17.2004
359.08        17.27422
359.53        17.45909
359.98         17.6264
360.43        17.57858
360.88        17.28436
361.33        16.81155
361.78        16.32027
362.23        16.06909
362.68        16.11252
363.13        16.35744
363.58         16.6526
364.03         16.7617
364.48         16.6242
364.93        16.32459
365.38        15.94658
365.83        15.62201
366.28         15.4027
366.73        15.24446
367.18        15.15061
367.63        15.13225
368.08        15.17328
368.53        15.26907
368.98        15.36766
369.43        15.37883
369.88        15.28703
370.33        15.12384
370.78        14.91995
371.23        14.73557
371.68        14.59734
372.13        14.48041
372.58        14.42456
373.03         14.4936
373.48        14.67962
373.93        14.95802
374.38        15.20985
374.83        15.25023
375.28        15.05059
375.72        14.66115
376.17        14.23445
376.62        13.98129
377.07        13.96307
377.52        14.11048
377.97        14.34381
378.42        14.53103
378.87        14.62021
379.32        14.65022
379.77         14.6273
380.22        14.55717
380.67        14.45125
381.11        14.30518
381.56        14.13859
382.01        14.00008
382.46         13.9037
382.91        13.83959
383.36         13.8014
383.81        13.77086
384.26        13.74015
384.71         13.7205
385.15        13.68589
385.60        13.60404
386.05        13.46816
386.50         13.2794
386.95         13.0951
387.40        13.01736
387.85        13.06382
388.29        13.19844
388.74        13.33402
389.19        13.34484
389.64        13.21665
390.09        12.98487
390.54        12.74395
390.98        12.65244
391.43        12.75237
391.88        12.97698
392.33        13.21441
392.78        13.30177
393.23          13.213
393.67        13.00231
394.12        12.77718
394.57        12.63843
395.02        12.61185
395.47        12.66119
395.91        12.74582
396.36        12.77862
396.81        12.73746
397.26        12.64098
397.71        12.53302
398.15        12.46194
398.60        12.45509
399.05        12.49604
399.50        12.52727
399.95         12.4337
400.39           12.26
400.84        11.99605
401.29        11.74741
401.74          11.682
402.18        11.84712
402.63        12.16883
403.08        12.52823
403.53        12.73398
403.97        12.73484
404.42         12.5885
404.87        12.36753
405.32        12.20134
405.76        12.13383
406.21        12.12516
406.66        12.14928
407.11        12.17454
407.55        12.19156
408.00        12.21409
408.45         12.2308
408.90        12.20772
409.34        12.14011
409.79        12.03556
410.24        11.93561
410.68        11.90071
411.13        11.94401
411.58        12.05455
412.03        12.18511
412.47        12.25264
412.92        12.22545
413.37        12.12454
413.81        12.01447
414.26        12.00925
414.71         12.1202
415.15        12.31475
415.60         12.4918
416.05        12.50919
416.49        12.33789
416.94        12.03948
417.39        11.71039
417.83        11.51493
418.28          11.507
418.73        11.62195
419.17         11.8018
419.62        11.95075
420.07        12.03725
420.51        12.09003
420.96        12.09076
421.41        12.00436
421.85        11.83672
422.30         11.6206
422.74        11.40948
423.19        11.30905
423.64        11.32496
424.08        11.43491
424.53        11.58498
424.98        11.70018
425.42        11.75419
425.87        11.76044
426.31        11.72079
426.76        11.67912
427.21        11.62615
427.65        11.46872
428.10         11.2941
428.54        11.31215
428.99        11.54204
429.44        11.90401
429.88        12.23367
430.33        12.30795
430.77        12.09449
431.22        11.66824
431.66        11.22112
432.11        11.08691
432.56        11.30012
433.00        11.70214
433.45        12.11402
433.89        12.37125
434.34        12.36186
434.78        12.03567
435.23        11.61585
435.67        11.51633
436.12        11.70908
436.57        11.77337
437.01        11.66202
437.46        11.58989
437.90        11.57504
438.35        11.55965
438.79        11.53674
439.24        11.52814
439.68        11.53822
440.13        11.50836
440.57        11.46226
441.02        11.59251
441.46        11.80916
441.91         11.6991
442.35        11.32683
442.80        11.13252
443.24        11.09889
443.69        11.06148
444.13        10.98907
444.58         10.8392
445.02        10.65934
445.47        10.67778
445.91        10.83786
446.36        10.85203
446.80        10.69683
447.24        10.53116
447.69        10.40429
448.13        10.31957
448.58        10.29772
449.02        10.33357
449.47        10.39444
449.91        10.42532
450.36        10.41414
450.80        10.37198
451.25        10.33187
451.69        10.33581
452.13        10.39289
452.58        10.47332
453.02        10.55124
453.47        10.58103
453.91        10.55683
454.36        10.50116
454.80        10.42115
455.24        10.33027
455.69        10.24714
456.13        10.16243
456.58        10.12061
457.02        10.17011
457.46         10.3166
457.91        10.53769
458.35        10.76332
458.79        10.87176
459.24        10.84719
459.68        10.71266
460.13        10.56109
460.57        10.50516
461.01        10.58347
461.46        10.75104
461.90        10.93981
462.34        11.02976
462.79        10.99237
463.23        10.85978
463.68        10.71092
464.12        10.67529
464.56        10.78647
465.01        11.00152
465.45        11.21166
465.89        11.29921
466.34        11.25198
466.78        11.05122
467.22        10.81304
467.67        10.83139
468.11        11.08456
468.55        11.22955
468.99           11.22
469.44        11.21085
469.88          11.236
470.32        11.33999
470.77        11.48343
471.21        11.51998
471.65        11.43522
472.10        11.34708
472.54        11.29148
472.98         11.2946
473.42        11.37092
473.87        11.51468
474.31         11.6831
474.75        11.80103
475.20        11.85265
475.64        11.84958
476.08        11.83035
476.52        11.85597
476.97         11.9402
477.41        12.06856
477.85        12.19438
478.29        12.26632
478.74        12.27567
479.18         12.1805
479.62        12.04295
480.06        12.16298
480.50        12.30256
480.95        12.46955
481.39        12.53532
481.83        12.56385
482.27        12.54918
482.72        12.40132
483.16        12.19416
483.60        12.23127
484.04         12.5301
484.48        12.68029
484.93        12.85971
485.37        13.29438
485.81        13.78456
486.25        13.98118
486.69        18.01598
487.14        14.06709
487.58        9.667543
488.02        11.90968
488.46        13.55682
488.90        13.53558
489.34         13.5241
489.79        13.53948
490.23        14.47081
490.67        15.04591
491.11        15.01546
491.55        14.88583
491.99        14.66642
492.43         14.4835
492.88        14.41706
493.32        14.46202
493.76        14.52365
494.20        14.73712
494.64        15.05397
495.08        15.43024
495.52        15.81995
495.96        16.17636
496.41        16.43639
496.85        16.58828
497.29         16.6491
497.73        16.48946
498.17        16.31677
498.61        16.52937
499.05         17.1213
499.49        17.27432
499.93        17.39453
500.37        17.51486
500.82        17.59039
501.26        17.80118
501.70        18.06021
502.14         18.2182
502.58        18.25488
503.02        18.31367
503.46        18.39987
503.90        18.41851
504.34        18.39558
504.78        18.41947
505.22        18.50262
505.66        18.62658
506.10        18.75547
506.54        18.82666
506.98         18.8287
507.42        18.78602
507.86        18.75226
508.30         18.8093
508.74        18.97103
509.18        19.20465
509.62        19.45873
510.06         19.6481
510.50        19.74896
510.94        19.79445
511.38        19.80458
511.82        19.81135
512.26        19.83054
512.70        19.84412
513.14        19.87983
513.58        19.98544
514.02        20.15127
514.46        20.35629
514.90        20.53104
515.34         20.5287
515.78        20.30047
516.22        20.05145
516.66        19.87571
517.10        19.47035
517.54        18.86756
517.98        19.68353
518.42         19.5092
518.86        19.86928
519.30        20.02251
519.74        20.20279
520.18        20.36259
520.62        20.39475
521.06          20.316
521.50        20.13565
521.93        19.91495
522.37        19.76827
522.81        19.72685
523.25        19.76157
523.69         19.8454
524.13        19.93318
524.57        20.00243
525.01        20.06176
525.45        20.09695
525.89        20.08448
526.32        20.01904
526.76        19.90642
527.20        19.76047
527.64        19.61473
528.08        19.48586
528.52        19.35162
528.96        19.21512
529.40        19.13049
529.83        19.10997
530.27        18.94861
530.71        18.99883
531.15        18.92191
531.59         18.8246
532.03        18.70085
532.46        18.60147
532.90        18.61217
533.34         18.7331
533.78         18.9299
534.22        19.11363
534.66         19.1537
535.09        19.02328
535.53        18.77586
535.97         18.4874
536.41        18.28256
536.85        18.20215
537.28        18.21525
537.72        18.28679
538.16        18.35806
538.60        18.40841
539.04        18.44166
539.47        18.47638
539.91        18.58553
540.35        18.75298
540.79        18.88575
541.22        18.96821
541.66        19.05493
542.10        19.14309
542.54        19.19127
542.97        19.22753
543.41        19.32841
543.85        19.50103
544.29        19.73439
544.72         19.9723
545.16         20.1343
545.60        20.20455
546.04        20.20322
546.47        20.21332
546.91        20.37581
547.35         20.7038
547.79         21.1538
548.22        21.60191
548.66        21.83607
549.10        21.82958
549.53        21.68316
549.97        21.52896
550.41        21.51437
550.84        21.68752
551.28        22.01408
551.72        22.42319
552.15         22.7841
552.59        23.04495
553.03        23.23988
553.46        23.38684
553.90        23.53201
554.34        23.69545
554.77        23.83521
555.21        23.94389
555.65        24.08436
556.08        24.26934
556.52        24.19225
556.96        24.42983
557.39        24.54085
557.83        24.70187
558.27        24.88067
558.70        25.07271
559.14        25.25557
559.57        25.40911
560.01        25.55056
560.45        25.65419
560.88         25.6798
561.32        25.65122
561.75         25.5715
562.19        25.50586
562.63        25.52527
563.06        25.64019
563.50         25.8124
563.93        26.00639
564.37        26.22299
564.80        26.41244
565.24        26.49526
565.68        26.48942
566.11         26.5184
566.55        26.61596
566.98        26.69591
567.42        26.78452
567.85        26.97562
568.29        27.27161
568.72        27.50128
569.16        27.68742
569.60        28.03592
570.03        28.42142
570.47        28.46862
570.90        28.29421
571.34        28.04749
571.77        28.39474
572.21        28.53825
572.64        28.61222
573.08        28.28516
573.51        27.29984
573.95        28.57653
574.38         30.5631
574.82        29.93154
