SpectraSmart Spectrum 2.9.0.0
--------- Device Information -----------
Spectrum Name :  反射率_0
Saving Time :  2024/04/25 22:54:05
Spectro-Module Model Name : SE2030-DUVN
Spectro-Module Serial Number : OS361AC55029948
Wavelength Start : 200
Wavelength End : 1025
Wavelength Unit : Wavelength(nm)
Spectrum Unit : Reflectance(%)
-----------Spectrum Setting ------------
Integration Time : 20ms
Average : 10
Boxcar : 0
Background removal :  enabled
linearity correction :  enabled
SC :  disabled
Intensity correction :  disabled
DWT denoise :  enabled
savitzky-golay :  disabled
FFT :  disabled
Running average :  disabled
Kalman :  disabled
High pass :  disabled
---------------BEGIN--------------------
Wavelength(nm)             Reflectance(%)
200.29               0
200.75        93.97459
201.21        83.33125
201.67        70.90511
202.13        63.14044
202.58        60.91246
203.04         62.6894
203.50        66.78533
203.96        70.16307
204.42        71.57516
204.88         71.9023
205.34        71.93481
205.80        72.57441
206.26         74.3249
206.72        77.81792
207.18        83.17961
207.64        83.41433
208.10        72.31033
208.55        60.89488
209.01        55.44049
209.47        54.62227
209.93         56.4317
210.39        60.53727
210.85        65.03374
211.31         65.6201
211.77        61.13549
212.23        53.16092
212.69        45.52023
213.14        44.25864
213.60         50.2167
214.06        61.65331
214.52         74.4783
214.98        82.39467
215.44        83.69623
215.90        80.32891
216.36        74.91748
216.81        71.08054
217.27        69.98806
217.73         70.3685
218.19        70.48324
218.65         67.9404
219.11        61.73195
219.57        51.26424
220.02        37.69038
220.48        28.91601
220.94        29.78638
221.40        38.63036
221.86        48.15596
222.32         50.5624
222.77        46.24118
223.23        39.03553
223.69         32.9209
224.15        31.96762
224.61         35.7393
225.06        42.29258
225.52        48.49897
225.98        50.46592
226.44        47.66887
226.90        41.91696
227.36        35.83176
227.81        32.94461
228.27        34.16603
228.73        37.94222
229.19        42.58205
229.65         45.5941
230.10        46.36615
230.56        45.92335
231.02         44.9766
231.48         44.2496
231.93        43.92001
232.39        43.71761
232.85        43.62043
233.31        43.72281
233.77        43.99406
234.22        44.43157
234.68        44.97115
235.14        45.32665
235.60        45.41983
236.05        45.39648
236.51        45.22723
236.97        44.83752
237.43        44.27352
237.88         43.5252
238.34        43.07155
238.80        44.23677
239.26        47.46125
239.71        52.46148
240.17        57.71492
240.63        61.00698
241.08        61.75645
241.54        60.47133
242.00        58.22862
242.46        56.45859
242.91        55.64958
243.37         55.2008
243.83        57.61246
244.28        79.72479
244.74        130.2358
245.20        135.5759
245.66        124.3019
246.11        120.1667
246.57        121.4732
247.03        127.4881
247.48        137.4138
247.94        102.8191
248.40        84.76441
248.85        82.58282
249.31        83.30328
249.77        84.46016
250.22         86.0107
250.68        88.56526
251.14        91.52679
251.59        91.05858
252.05         85.1314
252.51        76.41039
252.96        68.87784
253.42        66.06322
253.88        67.09013
254.33         70.4427
254.79        75.32961
255.25        79.91854
255.70        83.27181
256.16         86.0189
256.62        87.23172
257.07         85.9455
257.53        82.97127
257.99        78.51901
258.44         74.1232
258.90        72.48595
259.35        72.63374
259.81        73.62107
260.27        73.53329
260.72        70.51533
261.18        65.46046
261.63        59.27397
262.09        53.73634
262.55        50.21173
263.00        48.59749
263.46        48.23787
263.91        48.11543
264.37        47.47023
264.83        46.09599
265.28        44.18481
265.74        42.27609
266.19        40.90559
266.65        40.30412
267.11        40.15272
267.56        39.99119
268.02        39.27991
268.47        37.90926
268.93        36.09124
269.38        34.16683
269.84        32.94636
270.30        32.63905
270.75        33.00685
271.21        33.59442
271.66        33.72068
272.12        33.20124
272.57        32.23928
273.03        31.17097
273.48        30.41821
273.94        30.11423
274.39        30.06914
274.85        30.06684
275.31        29.78569
275.76        29.15798
276.22        28.34612
276.67        27.52566
277.13        27.03382
277.58        26.87217
278.04        26.94245
278.49        27.01979
278.95        26.85934
279.40        26.38751
279.86        25.75792
280.31        25.06625
280.77        24.56808
281.22         24.2762
281.68        24.13049
282.13        24.05449
282.59        23.98168
283.04         23.8753
283.50        23.79706
283.95        23.69672
284.41        23.51545
284.86        23.24647
285.32        22.91467
285.77        22.63241
286.22        22.63472
286.68        22.92217
287.13        23.38859
287.59        23.82009
288.04        23.88738
288.50        23.56175
288.95        22.94479
289.41        22.25868
289.86        21.73017
290.32         21.4808
290.77        21.42406
291.22        21.52686
291.68        21.69851
292.13        21.91257
292.59        22.20573
293.04        22.58983
293.50         23.0793
293.95        23.65187
294.40        24.25386
294.86        24.84435
295.31        25.38107
295.77        25.85709
296.22        26.29392
296.68        26.68114
297.13        26.97334
297.58        27.19777
298.04        27.39246
298.49        27.66275
298.95        28.20817
299.40        29.04297
299.85        30.09357
300.31        31.20125
300.76        32.11994
301.21        32.76037
301.67         33.2142
302.12        33.51662
302.58        33.78975
303.03        34.05793
303.48        34.30343
303.94        34.60122
304.39        35.02832
304.84        35.59628
305.30        36.27857
305.75        36.93719
306.20        37.36773
306.66        37.55338
307.11        37.54152
307.57        37.48045
308.02         37.5109
308.47        37.70534
308.93        38.01315
309.38        38.38186
309.83        38.76571
310.29         39.1233
310.74        39.44866
311.19        39.71608
311.65        39.88379
312.10        39.94021
312.55        39.89858
313.00        39.75603
313.46        39.52545
313.91        39.22293
314.36         38.8785
314.82        38.57836
315.27        38.42521
315.72        38.44652
316.18        38.60855
316.63        38.83232
317.08         38.9595
317.53        38.93803
317.99        38.79243
318.44        38.59647
318.89        38.47527
319.35        38.44796
319.80        38.48559
320.25        38.48411
320.70        38.28162
321.16        37.85637
321.61        37.27137
322.06        36.67104
322.51        36.26941
322.97        36.09975
323.42        36.11112
323.87        36.16444
324.32        36.02648
324.78        35.63584
325.23        35.07703
325.68        34.47022
326.13        34.01711
326.59        33.76869
327.04        33.68218
327.49        33.67606
327.94        33.62119
328.39        33.47589
328.85        33.27273
329.30        33.08217
329.75        32.96959
330.20        32.95772
330.66        32.99576
331.11        33.07106
331.56        33.11954
332.01         33.1156
332.46        33.06258
332.92        32.95625
333.37        32.83979
333.82        32.70953
334.27        32.56884
334.72        32.39368
335.17        32.14773
335.63        31.83453
336.08         31.4841
336.53        31.17479
336.98         31.0328
337.43        31.07664
337.88        31.26833
338.34        31.47548
338.79        31.53088
339.24        31.36694
339.69        31.03487
340.14         30.6566
340.59         30.4506
341.05        30.46642
341.50        30.63087
341.95        30.84133
342.40        30.94831
342.85        30.91146
343.30        30.79029
343.75        30.60129
344.20         30.3769
344.66        30.14473
345.11        29.86433
345.56        29.60973
346.01        29.49052
346.46        29.51044
346.91        29.65207
347.36        29.75782
347.81         29.5734
348.26        29.07229
348.72        28.36669
349.17        27.65307
349.62        27.33316
350.07        27.49825
350.52        28.01249
350.97         28.6574
351.42        29.09788
351.87        29.23559
352.32        29.16508
352.77        28.97302
353.22        28.80039
353.67        28.69585
354.13        28.61236
354.58        28.51897
355.03        28.41357
355.48        28.29305
355.93        28.18239
356.38        28.07342
356.83        27.93977
357.28        27.77645
357.73        27.58276
358.18        27.38792
358.63        27.23858
359.08        27.14555
359.53        27.10616
359.98        27.06591
360.43        26.93948
360.88        26.71408
361.33        26.40687
361.78        26.11491
362.23        25.99744
362.68        26.07212
363.13        26.27547
363.58        26.46074
364.03        26.39948
364.48        26.04963
364.93        25.49926
365.38        24.88029
365.83          24.404
366.28        24.14062
366.73        24.02823
367.18        24.02787
367.63        24.07312
368.08        24.12112
368.53        24.18578
368.98        24.22809
369.43        24.18037
369.88        24.03621
370.33        23.81718
370.78        23.55823
371.23        23.33055
371.68        23.16429
372.13        23.03708
372.58        22.98527
373.03        23.06225
373.48        23.25606
373.93        23.54259
374.38        23.80261
374.83        23.85272
375.28        23.66201
375.72        23.27506
376.17        22.83987
376.62        22.56377
377.07        22.50701
377.52        22.60412
377.97          22.773
378.42        22.87746
378.87        22.87232
379.32         22.8055
379.77        22.69942
380.22        22.58144
380.67        22.46398
381.11        22.33178
381.56        22.19387
382.01        22.08014
382.46        21.99757
382.91        21.94501
383.36        21.90392
383.81         21.8385
384.26        21.74311
384.71        21.63213
385.15        21.51678
385.60        21.42964
386.05        21.36628
386.50        21.30829
386.95        21.25468
387.40        21.20627
387.85        21.16461
388.29        21.13288
388.74        21.09871
389.19        21.00355
389.64        20.84481
390.09        20.62774
390.54         20.4309
390.98        20.38637
391.43        20.52099
391.88         20.7774
392.33        21.02526
392.78        21.07154
393.23        20.89739
393.67        20.57091
394.12        20.24463
394.57        20.06225
395.02        20.05692
395.47        20.17065
395.91        20.35417
396.36        20.49108
396.81        20.54055
397.26        20.52247
397.71        20.44734
398.15        20.31005
398.60        20.15379
399.05        19.99058
399.50        19.82169
399.95        19.59208
400.39        19.39264
400.84         19.1673
401.29        19.00074
401.74        19.00373
402.18        19.20115
402.63        19.52904
403.08        19.88014
403.53        20.08138
403.97        20.08706
404.42        19.94251
404.87        19.71219
405.32        19.51557
405.76        19.39596
406.21        19.32798
406.66        19.29775
407.11        19.28983
407.55        19.30032
408.00        19.33552
408.45        19.37972
408.90        19.38601
409.34        19.34273
409.79         19.2604
410.24        19.18052
410.68        19.16466
411.13        19.22814
411.58        19.35391
412.03        19.49759
412.47        19.58445
412.92         19.5774
413.37        19.49835
413.81        19.39728
414.26        19.36938
414.71        19.42344
415.15        19.53461
415.60        19.62559
416.05        19.59103
416.49        19.41352
416.94        19.14685
417.39        18.86581
417.83        18.69491
418.28        18.67822
418.73        18.76269
419.17        18.91708
419.62        19.09232
420.07        19.26064
420.51        19.43328
420.96        19.55514
421.41        19.53202
421.85        19.35203
422.30        19.07478
422.74        18.78146
423.19        18.62973
423.64        18.63312
424.08        18.75972
424.53        18.93745
424.98        19.07123
425.42         19.1306
425.87        19.12919
426.31        19.08282
426.76        19.07116
427.21        19.08022
427.65        18.96084
428.10        18.80287
428.54        18.87421
428.99        19.19244
429.44        19.64125
429.88        20.02869
430.33        20.11967
430.77        19.87507
431.22        19.37434
431.66        18.83366
432.11        18.67563
432.56        18.93639
433.00        19.34536
433.45        19.70856
433.89        20.06729
434.34        20.25214
434.78        19.85317
435.23        19.20622
435.67        19.17728
436.12        19.70624
436.57        19.97379
437.01        19.87103
437.46        19.78683
437.90        19.75214
438.35        19.65823
438.79        19.52572
439.24        19.44129
439.68        19.43185
440.13        19.39875
440.57        19.37628
441.02        19.67998
441.46        20.15129
441.91        20.07782
442.35        19.56357
442.80        19.35614
443.24        19.43374
443.69        19.50582
444.13         19.4964
444.58        19.28342
445.02        18.95204
445.47        18.92417
445.91         19.1482
446.36        19.19309
446.80        19.03314
447.24        18.92105
447.69        18.89533
448.13        18.89024
448.58         18.9161
449.02         18.9844
449.47        19.05734
449.91        19.07242
450.36        19.02103
450.80        18.91604
451.25        18.80813
451.69        18.76417
452.13        18.80229
452.58         18.8901
453.02        18.99076
453.47        19.04686
453.91         19.0456
454.36        19.01165
454.80        18.95515
455.24        18.88954
455.69        18.83523
456.13        18.77792
456.58        18.75856
457.02        18.81093
457.46        18.94271
457.91        19.13146
458.35        19.32143
458.79        19.41945
459.24        19.41598
459.68        19.32521
460.13         19.2111
460.57        19.12926
461.01        19.11745
461.46        19.15271
461.90        19.21553
462.34        19.26923
462.79        19.29575
463.23        19.29817
463.68        19.30349
464.12        19.35934
464.56        19.47109
465.01        19.63747
465.45        19.75651
465.89        19.75051
466.34        19.62637
466.78        19.30561
467.22        18.95302
467.67        19.02574
468.11        19.46854
468.55        19.70289
468.99        19.65971
469.44        19.62689
469.88        19.66878
470.32        19.85215
470.77        20.11419
471.21        20.20656
471.65        20.10379
472.10        20.00093
472.54        19.94881
472.98        19.95921
473.42        20.04982
473.87        20.22465
474.31        20.41874
474.75        20.52607
475.20        20.53005
475.64         20.4513
476.08        20.35701
476.52        20.34953
476.97        20.45326
477.41        20.64091
477.85        20.84105
478.29        20.97824
478.74        21.03379
479.18        20.92977
479.62        20.74607
480.06        20.95484
480.50        21.14475
480.95        21.35555
481.39        21.39478
481.83        21.41151
482.27         21.3983
482.72        21.17811
483.16        20.88343
483.60        20.99261
484.04         21.5188
484.48        21.86789
484.93        22.23238
485.37        22.69983
485.81        23.17666
486.25        23.31263
486.69        30.64713
487.14        24.56598
487.58        16.08037
488.02        19.84832
488.46        22.39358
488.90         22.7161
489.34        23.07101
489.79        23.17779
490.23        24.17864
490.67        24.76103
491.11        24.58729
491.55        24.54652
491.99        24.56802
492.43        24.46581
492.88        24.32087
493.32        24.41892
493.76        24.59874
494.20        24.92952
494.64         25.3273
495.08        25.77167
495.52        26.22488
495.96        26.65617
496.41        26.97959
496.85        27.18432
497.29        27.27314
497.73        26.95077
498.17         26.5687
498.61         26.8623
499.05         27.8263
499.49        28.10081
499.93         28.3203
500.37        28.48112
500.82        28.52061
501.26        28.80764
501.70        29.20607
502.14        29.42098
502.58        29.42246
503.02        29.47349
503.46        29.58513
503.90        29.59811
504.34        29.54745
504.78        29.56393
505.22        29.66495
505.66        29.82312
506.10        29.99328
506.54        30.09612
506.98         30.1147
507.42        30.07757
507.86        30.04917
508.30        30.12728
508.74        30.32852
509.18        30.61492
509.62        30.91766
510.06        31.12498
510.50        31.20666
510.94        31.20178
511.38        31.15439
511.82        31.13387
512.26        31.16474
512.70        31.22235
513.14        31.30451
513.58        31.40845
514.02        31.51876
514.46        31.63549
514.90         31.7329
515.34        31.73684
515.78        31.61504
516.22        31.52185
516.66        31.50762
517.10        31.26478
517.54         30.8047
517.98        31.52056
518.42        31.36459
518.86        31.64878
519.30        31.74935
519.74        31.86032
520.18        31.95838
520.62        31.98118
521.06        31.94615
521.50        31.85444
521.93        31.72945
522.37         31.6174
522.81        31.53589
523.25        31.47882
523.69          31.452
524.13        31.46183
524.57        31.50088
525.01         31.5603
525.45        31.61682
525.89        31.63264
526.32        31.59288
526.76        31.50912
527.20        31.38348
527.64        31.23176
528.08        31.07234
528.52        30.87785
528.96        30.66623
529.40        30.54984
529.83        30.55287
530.27        30.33563
530.71        30.46363
531.15        30.39847
531.59        30.30916
532.03        30.19118
532.46        30.10051
532.90        30.12377
533.34        30.26076
533.78        30.47317
534.22        30.67323
534.66        30.73544
535.09        30.62825
535.53        30.40442
535.97        30.12596
536.41        29.89911
536.85        29.76343
537.28        29.69824
537.72        29.67997
538.16         29.6719
538.60        29.66381
539.04        29.64813
539.47        29.64955
539.91        29.77831
540.35        30.00478
540.79        30.18817
541.22        30.30315
541.66        30.43446
542.10        30.57478
542.54        30.65594
542.97        30.72006
543.41        30.88511
543.85        31.16042
544.29        31.52337
544.72        31.88673
545.16        32.12828
545.60        32.22188
546.04        32.19956
546.47        32.18093
546.91        32.36791
547.35        32.78228
547.79        33.36391
548.22        33.94196
548.66         34.2259
549.10        34.18005
549.53        33.95291
549.97        33.72047
550.41         33.6713
550.84        33.87187
551.28        34.27812
551.72         34.8039
552.15        35.28423
552.59        35.65111
553.03        35.94214
553.46        36.16394
553.90        36.36434
554.34         36.5631
554.77        36.70391
555.21        36.78075
555.65        36.90516
556.08         37.1018
556.52        36.89428
556.96        37.16427
557.39        37.23669
557.83        37.38498
558.27        37.57295
558.70        37.78617
559.14        37.98948
559.57        38.15404
560.01        38.27649
560.45        38.35589
560.88        38.44189
561.32         38.5286
561.75        38.49633
562.19        38.41065
562.63        38.34303
563.06        38.35133
563.50        38.57672
563.93        38.93382
564.37        39.15275
564.80        39.19115
565.24        39.20677
565.68        39.24478
566.11        39.32316
566.55         39.4837
566.98        39.70485
567.42          39.966
567.85        40.22617
568.29        40.49486
568.72        40.67093
569.16        40.84491
569.60        41.22171
570.03        41.61719
570.47        41.68689
570.90        41.61671
571.34        40.83355
571.77        41.60172
572.21        41.69945
572.64        41.68465
573.08        41.18742
573.51        39.84283
573.95         41.4103
574.38        43.74417
574.82        42.84631
