SpectraSmart Spectrum 2.9.0.0
--------- Device Information -----------
Spectrum Name :  反射率_0
Saving Time :  2024/04/26 00:17:14
Spectro-Module Model Name : SE2030-DUVN
Spectro-Module Serial Number : OS361AC55029948
Wavelength Start : 200
Wavelength End : 1025
Wavelength Unit : Wavelength(nm)
Spectrum Unit : Reflectance(%)
-----------Spectrum Setting ------------
Integration Time : 20ms
Average : 10
Boxcar : 0
Background removal :  enabled
linearity correction :  enabled
SC :  disabled
Intensity correction :  disabled
DWT denoise :  enabled
savitzky-golay :  disabled
FFT :  disabled
Running average :  disabled
Kalman :  disabled
High pass :  disabled
---------------BEGIN--------------------
Wavelength(nm)             Reflectance(%)
200.29               0
200.75        91.03633
201.21        90.04988
201.67         86.7541
202.13        82.53836
202.58        77.93951
203.04        72.97708
203.50        68.45382
203.96        66.15581
204.42        66.31358
204.88        68.09263
205.34        70.19617
205.80        71.26561
206.26        71.03505
206.72        69.43916
207.18        65.08408
207.64        58.74717
208.10        56.81575
208.55        58.43303
209.01        60.70328
209.47        63.21781
209.93        66.16743
210.39        70.34631
210.85        74.21201
211.31        73.95825
211.77        68.77283
212.23        60.09584
212.69        52.01733
213.14        50.98752
213.60        57.85912
214.06        70.83185
214.52        85.22034
214.98        93.74085
215.44        94.52357
215.90        89.87814
216.36        82.97706
216.81        78.23136
217.27        77.01541
217.73        77.80267
218.19        78.54214
218.65        76.48695
219.11         70.5603
219.57        60.23043
220.02        46.94886
220.48        39.13498
220.94        41.59878
221.40         52.0821
221.86        62.36291
222.32        63.92498
222.77        57.58632
223.23        48.00185
223.69        39.79654
224.15        37.65985
224.61        41.10971
225.06        47.84718
225.52        54.54057
225.98        57.02244
226.44         54.6391
226.90        49.25562
227.36        43.44043
227.81        40.62793
228.27        41.75523
228.73        45.32385
229.19        49.69215
229.65        52.47146
230.10        53.09034
230.56        52.54359
231.02        51.62499
231.48        51.18683
231.93        51.33472
232.39        51.70577
232.85        52.04187
233.31        52.06674
233.77        51.67625
234.22        51.01068
234.68        50.13251
235.14        49.10711
235.60        48.09288
236.05        47.19117
236.51        46.47623
236.97        45.96278
237.43        45.64969
237.88        45.56621
238.34        45.87968
238.80        47.06087
239.26        49.14234
239.71        52.00485
240.17        54.67636
240.63        56.03949
241.08        55.93369
241.54        54.66055
242.00        52.99023
242.46        51.89414
242.91        51.78582
243.37        52.67269
243.83         58.4076
244.28        88.71704
244.74        144.1733
245.20        140.3672
245.66        123.6049
246.11        117.6542
246.57        118.5606
247.03        126.0035
247.48        141.1441
247.94        102.8538
248.40        79.13302
248.85        75.56615
249.31        76.49907
249.77        79.38998
250.22        84.28582
250.68        92.40391
251.14        103.6942
251.59        111.0004
252.05        107.0944
252.51        95.06456
252.96        81.77219
253.42        73.78889
253.88        70.59171
254.33        70.01393
254.79        71.48405
255.25        73.65601
255.70        75.67101
256.16        77.88984
256.62        79.09626
257.07        77.97724
257.53        75.17085
257.99        70.95691
258.44        66.67598
258.90        64.79391
259.35        64.47491
259.81         64.8494
260.27        64.33737
260.72        61.40508
261.18        56.78749
261.63        51.23728
262.09         46.2123
262.55        42.76981
263.00        40.88636
263.46        40.08915
263.91        39.60871
264.37        38.86368
264.83        37.67199
265.28        36.13845
265.74        34.69651
266.19        33.74356
266.65        33.42841
267.11          33.476
267.56        33.48425
268.02        32.96645
268.47        31.84129
268.93        30.29033
269.38        28.61124
269.84        27.53304
270.30         27.2424
270.75         27.5454
271.21        28.03918
271.66        28.12077
272.12        27.63289
272.57        26.76384
273.03        25.84639
273.48        25.30312
273.94        25.24726
274.39        25.48125
274.85        25.74866
275.31         25.6783
275.76        25.18684
276.22        24.43781
276.67        23.62623
277.13          23.112
277.58        22.91752
278.04        22.94774
278.49         22.9815
278.95        22.76283
279.40        22.23073
279.86        21.54201
280.31        20.83153
280.77        20.39904
281.22        20.25769
281.68        20.31483
282.13        20.43824
282.59        20.47447
283.04        20.37596
283.50        20.22571
283.95        20.02223
284.41         19.7768
284.86        19.50259
285.32        19.20022
285.77        18.95276
286.22        18.94506
286.68        19.16998
287.13        19.54959
287.59         19.8952
288.04        19.91917
288.50         19.5965
288.95        19.01126
289.41        18.36695
289.86        17.87371
290.32        17.63754
290.77        17.57513
291.22        17.64008
291.68        17.72366
292.13        17.79943
292.59        17.90722
293.04        18.07631
293.50        18.34838
293.95        18.71449
294.40         19.1206
294.86        19.51807
295.31        19.85022
295.77        20.10535
296.22        20.30926
296.68        20.46309
297.13        20.54258
297.58        20.57494
298.04        20.58153
298.49        20.64725
298.95        20.93485
299.40        21.45283
299.85        22.14596
300.31        22.86594
300.76        23.38904
301.21        23.64754
301.67        23.73188
302.12        23.71563
302.58        23.75332
303.03         23.8723
303.48         24.0307
303.94        24.24775
304.39        24.52569
304.84        24.85395
305.30        25.22389
305.75        25.54332
306.20        25.67496
306.66        25.61819
307.11         25.4104
307.57        25.16406
308.02        24.98504
308.47        24.93087
308.93        24.96517
309.38        25.06859
309.83        25.23583
310.29        25.43416
310.74        25.65179
311.19        25.83024
311.65        25.87828
312.10        25.78086
312.55        25.56935
313.00        25.28068
313.46        24.99031
313.91        24.72744
314.36        24.49267
314.82        24.33401
315.27        24.31072
315.72        24.42488
316.18        24.65125
316.63        24.90466
317.08        25.02126
317.53        24.95505
317.99        24.73784
318.44        24.45895
318.89        24.26718
319.35         24.1976
319.80        24.21709
320.25        24.24146
320.70        24.13257
321.16        23.86541
321.61        23.49215
322.06        23.11523
322.51        22.88524
322.97        22.82381
323.42        22.88547
323.87        22.96891
324.32        22.90763
324.78        22.65781
325.23        22.27971
325.68        21.85394
326.13        21.51309
326.59         21.2983
327.04        21.18826
327.49        21.15058
327.94        21.13242
328.39         21.1128
328.85        21.10111
329.30        21.12532
329.75        21.19705
330.20        21.31234
330.66        21.43653
331.11        21.55262
331.56        21.59767
332.01        21.55515
332.46        21.43177
332.92        21.26173
333.37        21.12972
333.82        21.06092
334.27        21.05376
334.72        21.06291
335.17        21.00693
335.63        20.86719
336.08        20.66935
336.53        20.49756
336.98        20.48779
337.43        20.66245
337.88        20.98338
338.34            21.3
338.79        21.41183
339.24        21.25061
339.69         20.8719
340.14        20.45719
340.59        20.32244
341.05        20.52697
341.50        20.96545
341.95        21.43318
342.40        21.63116
342.85        21.49702
343.30           21.14
343.75        20.68282
344.20        20.34167
344.66        20.19271
345.11         20.1346
345.56         20.1536
346.01        20.22549
346.46        20.31733
346.91        20.45879
347.36        20.52805
347.81        20.32289
348.26        19.83999
348.72        19.17522
349.17        18.52602
349.62        18.30306
350.07        18.59165
350.52        19.24761
350.97        20.04165
351.42        20.62059
351.87        20.87635
352.32        20.90574
352.77        20.77542
353.22        20.59718
353.67        20.42378
354.13        20.22462
354.58        20.01751
355.03        19.87432
355.48        19.80884
355.93        19.82359
356.38        19.87399
356.83        19.87196
357.28        19.79185
357.73        19.65027
358.18        19.48259
358.63        19.34734
359.08        19.26151
359.53        19.21325
359.98        19.16268
360.43        19.05003
360.88        18.86722
361.33        18.63098
361.78        18.41093
362.23        18.31889
362.68        18.36454
363.13        18.49743
363.58        18.61485
364.03        18.55725
364.48        18.29575
364.93        17.89868
365.38        17.44361
365.83        17.05412
366.28        16.78076
366.73        16.58765
367.18        16.49507
367.63        16.53359
368.08         16.6817
368.53        16.91847
368.98        17.14657
369.43        17.21058
369.88        17.08317
370.33        16.81492
370.78        16.48158
371.23        16.22116
371.68        16.08376
372.13        16.02372
372.58         16.0526
373.03        16.18277
373.48        16.38951
373.93        16.66781
374.38        16.90784
374.83        16.93804
375.28        16.73421
375.72         16.3341
376.17        15.89907
376.62        15.65751
377.07        15.67127
377.52        15.87037
377.97        16.14297
378.42        16.30478
378.87        16.29981
379.32        16.18653
379.77        16.02483
380.22        15.89779
380.67         15.8289
381.11        15.78984
381.56        15.74552
382.01        15.65423
382.46        15.50657
382.91        15.31903
383.36        15.13701
383.81        15.02583
384.26        14.99833
384.71        15.03855
385.15        15.07382
385.60        15.00528
386.05        14.81163
386.50        14.51758
386.95        14.22119
387.40        14.09244
387.85        14.16494
388.29        14.37307
388.74        14.59144
389.19        14.64465
389.64        14.50864
390.09        14.23235
390.54        13.93342
390.98        13.80866
391.43        13.91096
391.88        14.16244
392.33        14.42511
392.78        14.49832
393.23        14.35453
393.67        14.06575
394.12        13.77257
394.57        13.61769
395.02        13.63134
395.47        13.75829
395.91        13.93073
396.36         14.0115
396.81        13.96046
397.26        13.81258
397.71        13.62368
398.15        13.45955
398.60         13.3627
399.05         13.3182
399.50        13.28072
399.95         13.1491
400.39        12.97201
400.84        12.73232
401.29        12.52921
401.74        12.51402
402.18        12.72474
402.63        13.08785
403.08        13.47766
403.53        13.69564
403.97        13.69026
404.42        13.51807
404.87        13.26384
405.32        13.07946
405.76        13.01437
406.21        13.02479
406.66        13.07033
407.11        13.09725
407.55        13.09242
408.00        13.07587
408.45        13.05173
408.90          13.014
409.34         12.9666
409.79        12.90823
410.24        12.86124
410.68        12.86067
411.13        12.91335
411.58         13.0113
412.03        13.12259
412.47        13.19166
412.92         13.1911
413.37        13.13336
413.81        13.05426
414.26        13.02487
414.71        13.05179
415.15        13.12004
415.60        13.16832
416.05        13.11687
416.49        12.95256
416.94        12.71898
417.39        12.48011
417.83        12.34349
418.28        12.34562
418.73        12.43995
419.17        12.58926
419.62         12.7296
420.07        12.83787
420.51        12.93001
420.96        12.97848
421.41        12.93458
421.85        12.79631
422.30        12.60021
422.74        12.40096
423.19        12.30733
423.64        12.32595
424.08        12.43471
424.53        12.57603
424.98        12.67142
425.42        12.69679
425.87        12.66852
426.31        12.60004
426.76        12.55332
427.21         12.5212
427.65        12.39983
428.10        12.26561
428.54        12.31752
428.99        12.56711
429.44        12.93132
429.88        13.24902
430.33         13.3075
430.77        13.07872
431.22        12.63703
431.66        12.16834
432.11        12.01382
432.56         12.2085
433.00        12.54997
433.45         12.8798
433.89        13.18392
434.34        13.31611
434.78        12.98518
435.23        12.44555
435.67        12.33424
436.12        12.62139
436.57        12.74033
437.01        12.63516
437.46        12.59141
437.90        12.62629
438.35        12.65801
438.79        12.66248
439.24        12.63954
439.68        12.59379
440.13        12.47714
440.57         12.3392
441.02        12.42275
441.46        12.64049
441.91        12.53763
442.35        12.17444
442.80        12.00884
443.24        12.01742
443.69        12.02833
444.13         11.9899
444.58        11.82423
445.02        11.58256
445.47        11.52279
445.91         11.6164
446.36        11.61135
446.80        11.49336
447.24        11.41192
447.69        11.38415
448.13        11.35617
448.58        11.33421
449.02        11.33112
449.47         11.3314
449.91        11.30871
450.36        11.26232
450.80        11.19435
451.25        11.13807
451.69        11.13545
452.13        11.19531
452.58        11.29285
453.02        11.39468
453.47        11.44245
453.91        11.42702
454.36        11.36963
454.80          11.291
455.24        11.22771
455.69        11.19998
456.13        11.18944
456.58        11.21217
457.02        11.27428
457.46        11.37768
457.91        11.51507
458.35        11.65258
458.79        11.72618
459.24        11.73137
459.68        11.67046
460.13        11.60225
460.57         11.5856
461.01        11.64719
461.46        11.76083
461.90        11.88127
462.34          11.924
462.79        11.87042
463.23        11.74068
463.68        11.60419
464.12        11.57636
464.56        11.68487
465.01        11.89454
465.45        12.09697
465.89        12.17585
466.34        12.12161
466.78        11.91137
467.22        11.66519
467.67        11.69359
468.11        11.97164
468.55        12.12885
468.99        12.12565
469.44        12.14578
469.88        12.22656
470.32        12.41108
470.77        12.63274
471.21        12.69223
471.65        12.56559
472.10        12.39116
472.54        12.24174
472.98        12.19853
473.42        12.28828
473.87        12.49056
474.31         12.7204
474.75        12.83603
475.20        12.81226
475.64        12.68733
476.08        12.54537
476.52        12.51626
476.97        12.62769
477.41        12.83755
477.85         13.0664
478.29        13.21114
478.74        13.24439
479.18        13.13741
479.62        12.95726
480.06        13.02533
480.50        13.09308
480.95        13.17149
481.39        13.15109
481.83        13.13685
482.27        13.12656
482.72        13.01975
483.16        12.86319
483.60         12.9114
484.04        13.16971
484.48        13.25177
484.93        13.34965
485.37        13.68983
485.81         14.2007
486.25        14.41887
486.69        19.00327
487.14         15.1565
487.58         10.1066
488.02        12.27116
488.46        13.87724
488.90        13.90981
489.34        14.02748
489.79        13.95795
490.23        14.64751
490.67        15.13358
491.11        15.17896
491.55        15.05256
491.99        14.74612
492.43        14.49308
492.88        14.37775
493.32        14.35523
493.76        14.34598
494.20        14.51818
494.64        14.82777
495.08        15.22444
495.52        15.64359
495.96        16.00425
496.41        16.23464
496.85        16.33435
497.29        16.33066
497.73        16.11336
498.17        15.89445
498.61        16.05869
499.05        16.59812
499.49        16.72088
499.93        16.82148
500.37        16.92987
500.82        17.00453
501.26        17.22198
501.70        17.49328
502.14        17.66832
502.58        17.70913
503.02        17.72756
503.46        17.72589
503.90        17.62531
504.34        17.47345
504.78        17.38914
505.22        17.39663
505.66        17.47236
506.10        17.58074
506.54        17.65665
506.98        17.68366
507.42         17.6849
507.86        17.69979
508.30        17.78872
508.74        17.95805
509.18        18.17449
509.62        18.39476
510.06        18.55079
510.50        18.62426
510.94        18.64606
511.38        18.62645
511.82        18.58136
512.26         18.5255
512.70        18.44817
513.14        18.39875
513.58         18.4587
514.02        18.62569
514.46        18.86927
514.90        19.09271
515.34        19.10539
515.78        18.84806
516.22        18.54082
516.66        18.30479
517.10        17.87298
517.54        17.28814
517.98        18.18299
518.42        18.07756
518.86        18.48714
519.30        18.64833
519.74        18.81235
520.18        18.94837
520.62        18.97546
521.06         18.9169
521.50        18.76861
521.93        18.58313
522.37        18.46207
522.81        18.43095
523.25        18.46791
523.69        18.54025
524.13        18.59244
524.57        18.60541
525.01        18.59381
525.45        18.56692
525.89        18.53885
526.32         18.5124
526.76        18.48178
527.20        18.43587
527.64        18.36813
528.08        18.28127
528.52        18.16058
528.96        18.02321
529.40        17.94352
529.83        17.93929
530.27        17.81253
530.71        17.87783
531.15        17.79159
531.59        17.65362
532.03        17.47082
532.46        17.32182
532.90        17.33649
533.34        17.52274
533.78        17.82738
534.22        18.13259
534.66         18.2649
535.09        18.18575
535.53        17.96112
535.97        17.67527
536.41        17.46734
536.85        17.38388
537.28        17.38595
537.72        17.44604
538.16        17.51898
538.60        17.58451
539.04        17.64586
539.47         17.7022
539.91        17.79244
540.35        17.89847
540.79         17.9437
541.22        17.93928
541.66        17.97789
542.10         18.0658
542.54        18.14851
542.97        18.23467
543.41        18.36868
543.85        18.54668
544.29        18.76673
544.72         18.9752
545.16        19.09492
545.60        19.11508
546.04          19.056
546.47         19.0081
546.91        19.12576
547.35        19.42427
547.79        19.85378
548.22        20.28896
548.66         20.5141
549.10        20.49863
549.53        20.34474
549.97        20.16936
550.41        20.09851
550.84        20.18002
551.28        20.38617
551.72        20.67978
552.15        20.98866
552.59        21.27184
553.03        21.54214
553.46        21.77741
553.90        21.96213
554.34         22.1013
554.77        22.17178
555.21        22.18869
555.65        22.24757
556.08        22.37283
556.52        22.27167
556.96          22.467
557.39        22.53997
557.83        22.64982
558.27         22.7747
558.70        22.91487
559.14         23.0535
559.57        23.17317
560.01        23.28618
560.45        23.36794
560.88         23.3764
561.32        23.32403
561.75        23.23745
562.19        23.17945
562.63        23.13989
563.06        23.11358
563.50         23.3842
563.93        23.41393
564.37        23.57988
564.80        23.71019
565.24         23.8377
565.68        23.94556
566.11        24.02378
566.55         24.0976
566.98        24.14554
567.42        24.21645
567.85        24.40828
568.29        24.72864
568.72        25.01705
569.16        25.26765
569.60        25.62562
570.03        25.96705
570.47         25.9831
570.90        25.80535
571.34        25.55408
571.77        25.81423
572.21        26.06518
572.64        26.10332
573.08          25.762
573.51        25.01876
573.95        26.12941
574.38        27.80756
574.82        27.01339
