SpectraSmart Spectrum 2.9.0.0
--------- Device Information -----------
Spectrum Name :  反射率_0
Saving Time :  2024/04/26 00:38:43
Spectro-Module Model Name : SE2030-DUVN
Spectro-Module Serial Number : OS361AC55029948
Wavelength Start : 200
Wavelength End : 1025
Wavelength Unit : Wavelength(nm)
Spectrum Unit : Reflectance(%)
-----------Spectrum Setting ------------
Integration Time : 20ms
Average : 10
Boxcar : 0
Background removal :  enabled
linearity correction :  enabled
SC :  disabled
Intensity correction :  disabled
DWT denoise :  enabled
savitzky-golay :  disabled
FFT :  disabled
Running average :  disabled
Kalman :  disabled
High pass :  disabled
---------------BEGIN--------------------
Wavelength(nm)             Reflectance(%)
200.29               0
200.75        74.44159
201.21         66.4787
201.67        58.17836
202.13        54.15158
202.58        54.78695
203.04        58.99598
203.50        64.85883
203.96        68.77348
204.42        69.56809
204.88        68.49887
205.34        66.91991
205.80        66.14129
206.26        66.57738
206.72        68.54462
207.18        72.27151
207.64        73.35667
208.10        67.04321
208.55        59.83309
209.01         56.7774
209.47         57.9089
209.93        61.86082
210.39        68.39561
210.85        75.00059
211.31        75.81207
211.77        69.14003
212.23        57.17668
212.69        45.09138
213.14        40.84904
213.60        45.80129
214.06        57.95826
214.52        72.07361
214.98        79.90292
215.44        79.45443
215.90        73.36899
216.36        65.73896
216.81        62.24298
217.27        64.02932
217.73        68.78336
218.19        73.22052
218.65        73.20293
219.11        67.43134
219.57         55.5048
220.02        39.40981
220.48        29.90306
220.94        33.21944
221.40        46.30751
221.86        59.25177
222.32        61.80066
222.77        54.93999
223.23        44.24444
223.69        35.08166
224.15        32.82367
224.61        36.96979
225.06        44.85486
225.52        52.85345
225.98        56.39782
226.44        54.72495
226.90        49.87035
227.36        44.48671
227.81        42.12342
228.27        43.76239
228.73        47.82162
229.19        52.67929
229.65         55.9879
230.10        57.12614
230.56         57.0774
231.02        56.56125
231.48        56.34421
231.93         56.5655
232.39        56.94485
232.85         57.3087
233.31        57.51751
233.77        57.49925
234.22        57.33696
234.68        57.05016
235.14        56.61757
235.60        56.07815
236.05        55.47747
236.51        54.81446
236.97        53.99329
237.43        52.98051
237.88        51.84201
238.34        50.67989
238.80        50.11607
239.26        50.50155
239.71        51.83142
240.17        53.70604
240.63          55.825
241.08         57.9726
241.54        59.98442
242.00        61.68366
242.46        62.97095
242.91        64.14995
243.37        65.30272
243.83        68.08006
244.28        81.10214
244.74        103.1399
245.20        99.70385
245.66        92.29466
246.11        89.81835
246.57        90.49194
247.03        96.12259
247.48        110.6819
247.94        92.05514
248.40        73.69485
248.85         68.9744
249.31        68.86457
249.77        71.82868
250.22        77.63759
250.68        87.40967
251.14        100.7253
251.59        108.0742
252.05        100.8593
252.51        84.09856
252.96        66.98851
253.42        57.45543
253.88        54.83025
254.33        56.27932
254.79        60.96025
255.25        67.03105
255.70        72.86068
256.16        78.51752
256.62        82.14316
257.07        81.83855
257.53        78.59643
257.99        73.20119
258.44        67.72166
258.90        65.44877
259.35        65.51889
259.81        66.66925
260.27        66.93533
260.72        64.43415
261.18        59.93816
261.63        54.34763
262.09        49.28151
262.55        45.94121
263.00        44.26891
263.46        43.70457
263.91        43.37454
264.37        42.62575
264.83        41.27629
265.28        39.48392
265.74        37.74288
266.19        36.53625
266.65        36.05866
267.11        36.00732
267.56        35.95672
268.02        35.39853
268.47        34.23556
268.93        32.66159
269.38        30.97018
269.84        29.88148
270.30        29.58045
270.75        29.86642
271.21        30.34683
271.66        30.43723
272.12        29.98059
272.57        29.15622
273.03        28.27336
273.48          27.715
273.94         27.5948
274.39        27.73285
274.85        27.90553
275.31        27.78637
275.76        27.29856
276.22        26.58641
276.67        25.82863
277.13        25.36552
277.58        25.20783
278.04        25.27383
278.49         25.3224
278.95        25.07714
279.40        24.47612
279.86        23.68277
280.31        22.87214
280.77        22.41198
281.22        22.31705
281.68        22.47062
282.13        22.67796
282.59        22.70123
283.04         22.4807
283.50        22.13769
283.95        21.72536
284.41        21.34071
284.86        21.01904
285.32        20.73617
285.77        20.54148
286.22        20.57225
286.68        20.80416
287.13         21.1667
287.59        21.48738
288.04        21.49868
288.50        21.17864
288.95        20.60124
289.41        19.94216
289.86        19.37016
290.32        18.99247
290.77        18.74385
291.22        18.62945
291.68        18.61524
292.13        18.68897
292.59        18.87053
293.04        19.13702
293.50        19.44673
293.95        19.77139
294.40        20.08185
294.86        20.38094
295.31        20.69148
295.77        21.01789
296.22        21.35833
296.68        21.66298
297.13        21.82623
297.58        21.85714
298.04         21.8083
298.49        21.81242
298.95        22.10527
299.40        22.71436
299.85        23.56026
300.31        24.46441
300.76        25.15391
301.21        25.54304
301.67        25.73644
302.12        25.81756
302.58        25.96043
303.03        26.19535
303.48        26.47173
303.94        26.80479
304.39         27.1896
304.84        27.61714
305.30        28.08829
305.75        28.50923
306.20         28.7407
306.66        28.78274
307.11        28.66546
307.57        28.51934
308.02        28.47297
308.47        28.58564
308.93        28.81534
309.38        29.10112
309.83        29.37399
310.29        29.59359
310.74        29.76772
311.19        29.89597
311.65        29.97814
312.10        30.01324
312.55        29.99854
313.00        29.91356
313.46        29.73878
313.91        29.47641
314.36        29.16272
314.82        28.87922
315.27         28.7305
315.72        28.74331
316.18        28.88335
316.63        29.08019
317.08        29.19431
317.53        29.17907
317.99        29.05582
318.44        28.89085
318.89        28.79396
319.35        28.78348
319.80        28.83438
320.25        28.85081
320.70        28.68135
321.16        28.30813
321.61        27.79205
322.06        27.27542
322.51        26.97018
322.97        26.90963
323.42        27.03529
323.87        27.21164
324.32        27.20861
324.78        26.96082
325.23        26.54701
325.68        26.06397
326.13        25.67523
326.59        25.42978
327.04        25.29162
327.49        25.22536
327.94        25.17785
328.39        25.12481
328.85        25.07994
329.30        25.05876
329.75        25.04172
330.20        25.02643
330.66        24.99405
331.11        24.96398
331.56        24.92819
332.01        24.88276
332.46        24.81518
332.92        24.73597
333.37         24.6922
333.82        24.68452
334.27        24.72052
334.72        24.73695
335.17        24.62629
335.63        24.37275
336.08        24.01141
336.53        23.67469
336.98        23.57959
337.43        23.76429
337.88        24.16619
338.34        24.58812
338.79        24.75052
339.24        24.55859
339.69        24.09212
340.14        23.54865
340.59        23.27696
341.05        23.35835
341.50        23.68014
341.95        24.05674
342.40        24.21519
342.85        24.09459
343.30        23.80253
343.75        23.43021
344.20         23.1357
344.66        22.97905
345.11         22.8685
345.56        22.82696
346.01        22.89025
346.46        23.03393
346.91        23.26479
347.36          23.417
347.81        23.22081
348.26        22.66033
348.72        21.85789
349.17        21.05485
349.62        20.73147
350.07        20.99586
350.52        21.68478
350.97        22.54243
351.42        23.17488
351.87        23.45854
352.32        23.49691
352.77        23.36693
353.22        23.19705
353.67        23.03976
354.13        22.85388
354.58        22.63465
355.03        22.42173
355.48        22.22945
355.93        22.08224
356.38        21.96889
356.83        21.85128
357.28        21.71947
357.73        21.57458
358.18        21.44337
358.63        21.36914
359.08        21.35425
359.53        21.38467
359.98        21.39736
360.43        21.29681
360.88        21.07106
361.33        20.75036
361.78        20.42823
362.23        20.25833
362.68        20.26656
363.13        20.39233
363.58        20.53526
364.03        20.53739
364.48        20.36155
364.93        20.07089
365.38         19.7161
365.83        19.37742
366.28        19.09404
366.73        18.84005
367.18        18.65646
367.63        18.61129
368.08        18.70048
368.53        18.90039
368.98        19.10984
369.43        19.16553
369.88        19.03583
370.33        18.77008
370.78        18.45293
371.23        18.23502
371.68        18.16315
372.13        18.18504
372.58        18.27411
373.03         18.3819
373.48        18.47703
373.93        18.57939
374.38        18.63874
374.83        18.57367
375.28        18.37956
375.72        18.06615
376.17        17.75084
376.62        17.58889
377.07        17.61641
377.52        17.78275
377.97        17.99306
378.42        18.09089
378.87        18.03338
379.32        17.87293
379.77        17.66636
380.22        17.49335
380.67        17.37849
381.11         17.2984
381.56        17.23218
382.01        17.15779
382.46        17.06728
382.91        16.96858
383.36        16.88108
383.81        16.82916
384.26        16.81541
384.71        16.83345
385.15        16.83401
385.60        16.75764
386.05        16.58944
386.50        16.33998
386.95        16.08763
387.40        15.96877
387.85        16.01114
388.29        16.16723
388.74         16.3285
389.19        16.33144
389.64        16.15685
390.09         15.8483
390.54        15.53302
390.98        15.42439
391.43         15.5744
391.88        15.89645
392.33        16.22804
392.78         16.3333
393.23        16.17792
393.67         15.8429
394.12        15.49277
394.57        15.29743
395.02        15.29566
395.47        15.43043
395.91         15.6191
396.36        15.69622
396.81        15.61786
397.26         15.4259
397.71        15.21187
398.15         15.0919
398.60        15.10798
399.05        15.21796
399.50        15.31996
399.95        15.23112
400.39        14.99809
400.84        14.62052
401.29        14.24758
401.74        14.11942
402.18        14.30566
402.63        14.70892
403.08        15.16623
403.53        15.41765
403.97        15.39511
404.42        15.17729
404.87        14.87194
405.32        14.66568
405.76        14.61869
406.21        14.67312
406.66        14.77353
407.11        14.85074
407.55        14.88587
408.00         14.8988
408.45         14.9001
408.90        14.89232
409.34        14.87727
409.79         14.8497
410.24        14.81116
410.68        14.76679
411.13        14.72397
411.58        14.68718
412.03         14.6633
412.47         14.6672
412.92        14.69032
413.37        14.72258
413.81         14.7614
414.26        14.81859
414.71        14.88161
415.15        14.95169
415.60        14.97723
416.05        14.89494
416.49        14.70077
416.94        14.43143
417.39        14.15765
417.83        14.00163
418.28        14.00121
418.73        14.10509
419.17        14.26897
419.62         14.4164
420.07        14.52028
420.51         14.6043
420.96        14.63229
421.41        14.54337
421.85        14.33991
422.30        14.06575
422.74         13.8052
423.19        13.71153
423.64        13.79396
424.08        14.01748
424.53         14.2851
424.98        14.44675
425.42        14.45652
425.87        14.34938
426.31        14.17691
426.76        14.06515
427.21        14.02372
427.65        13.92362
428.10        13.82817
428.54        13.92319
428.99        14.21182
429.44         14.6145
429.88        14.96619
430.33        15.05227
430.77        14.83955
431.22        14.39577
431.66        13.91686
432.11        13.75862
432.56        13.95381
433.00        14.32481
433.45        14.69032
433.89        14.92257
434.34        14.91467
434.78        14.58219
435.23        14.16465
435.67         14.1326
436.12        14.44255
436.57        14.58675
437.01        14.49595
437.46        14.42074
437.90        14.38261
438.35        14.31069
438.79        14.21386
439.24        14.14685
439.68         14.1248
440.13        14.07475
440.57        14.01877
441.02        14.17995
441.46        14.44494
441.91        14.31122
442.35         13.8672
442.80        13.66032
443.24        13.67272
443.69        13.69708
444.13         13.6791
444.58        13.53577
445.02        13.32101
445.47        13.32781
445.91        13.50831
446.36        13.54076
446.80        13.40231
447.24        13.27661
447.69        13.20051
448.13        13.14115
448.58        13.11395
449.02        13.12604
449.47        13.15257
449.91        13.15061
450.36        13.11493
450.80        13.05429
451.25        13.00503
451.69        13.01293
452.13        13.08698
452.58         13.1961
453.02        13.30901
453.47        13.37375
453.91        13.38052
454.36        13.35166
454.80        13.29248
455.24        13.21246
455.69        13.13185
456.13        13.04345
456.58        12.99582
457.02        13.04043
457.46        13.18479
457.91        13.40169
458.35        13.62676
458.79         13.7487
459.24        13.75145
459.68        13.65568
460.13        13.53109
460.57        13.45061
461.01        13.45191
461.46        13.50495
461.90        13.58337
462.34        13.63378
462.79        13.64038
463.23        13.61721
463.68          13.599
464.12        13.63993
464.56        13.75008
465.01        13.91285
465.45        14.05182
465.89        14.10525
466.34        14.07426
466.78         13.9071
467.22        13.70323
467.67        13.76448
468.11        14.04589
468.55        14.13323
468.99        14.01927
469.44        13.97729
469.88        14.06458
470.32        14.31046
470.77        14.61579
471.21        14.71182
471.65        14.56038
472.10        14.33772
472.54        14.13607
472.98        14.05799
473.42        14.13999
473.87        14.35185
474.31        14.60756
474.75         14.7664
475.20        14.79775
475.64        14.73721
476.08        14.65085
476.52         14.6393
476.97        14.72732
477.41        14.88316
477.85        15.04776
478.29        15.15783
478.74        15.19652
479.18        15.11191
479.62        14.96336
480.06        15.09288
480.50        15.20483
480.95        15.32685
481.39        15.32321
481.83        15.30418
482.27        15.26629
482.72        15.08585
483.16        14.85564
483.60        14.92454
484.04        15.31404
484.48        15.56652
484.93        15.81156
485.37        16.23159
485.81         16.7385
486.25        16.68846
486.69        21.91305
487.14        17.60254
487.58        11.56572
488.02        14.40961
488.46        16.10214
488.90        16.19899
489.34        16.35955
489.79        16.27517
490.23        17.06884
490.67        17.53345
491.11        17.46719
491.55        17.38807
491.99        17.26344
492.43        17.11654
492.88        17.01443
493.32        17.04687
493.76        17.10822
494.20        17.31396
494.64        17.61016
495.08        17.96507
495.52         18.3271
495.96        18.64001
496.41        18.83672
496.85        18.90945
497.29        18.89633
497.73        18.67694
498.17        18.48931
498.61        18.77485
499.05        19.50727
499.49        19.71657
499.93        19.84991
500.37        19.95146
500.82        19.98465
501.26        20.17781
501.70        20.43753
502.14        20.58598
502.58        20.59133
503.02        20.60109
503.46         20.6206
503.90         20.5556
504.34        20.44544
504.78        20.40141
505.22        20.44223
505.66        20.54212
506.10        20.66753
506.54        20.75891
506.98        20.80031
507.42        20.81311
507.86        20.83096
508.30        20.90507
508.74        21.04372
509.18        21.22133
509.62        21.40807
510.06        21.55717
510.50        21.65451
510.94        21.72079
511.38         21.7591
511.82        21.77351
512.26        21.77198
512.70        21.74771
513.14        21.73495
513.58        21.79156
514.02        21.91459
514.46        22.08063
514.90         22.2274
515.34        22.22003
515.78        22.01159
516.22        21.80192
516.66        21.67196
517.10        21.30643
517.54        20.73117
517.98        21.52732
518.42        21.35255
518.86        21.71617
519.30        21.89714
519.74        22.11749
520.18        22.31479
520.62        22.35927
521.06        22.26306
521.50        22.04482
521.93        21.78336
522.37        21.62115
522.81        21.59562
523.25        21.66636
523.69        21.79214
524.13        21.90594
524.57        21.97948
525.01        22.03105
525.45         22.0495
525.89        22.01543
526.32        21.92909
526.76        21.79645
527.20        21.64339
527.64        21.52302
528.08        21.45351
528.52        21.40219
528.96        21.35389
529.40        21.33998
529.83         21.3649
530.27        21.20488
530.71        21.26312
531.15        21.17703
531.59        21.07154
532.03        20.93616
532.46        20.82544
532.90        20.82916
533.34        20.95066
533.78        21.16084
534.22        21.36515
534.66        21.42329
535.09        21.30562
535.53        21.06363
535.97         20.7878
536.41        20.62728
536.85        20.62309
537.28        20.73607
537.72        20.89357
538.16        20.97755
538.60         20.9606
539.04        20.86893
539.47        20.77364
539.91        20.83267
540.35        21.04318
540.79         21.2754
541.22        21.47583
541.66        21.64867
542.10        21.77179
542.54        21.81606
542.97        21.82052
543.41        21.88328
543.85        22.01988
544.29        22.21095
544.72        22.40569
545.16        22.53575
545.60        22.58602
546.04        22.57567
546.47        22.57832
546.91        22.71788
547.35        23.00333
547.79        23.39711
548.22        23.78188
548.66        23.95594
549.10        23.89734
549.53        23.70777
549.97        23.51902
550.41        23.46713
550.84        23.59024
551.28        23.88946
551.72        24.30492
552.15        24.61917
552.59        24.75968
553.03        25.16572
553.46        25.15086
553.90        25.32411
554.34        25.49539
554.77        25.63581
555.21        25.72199
555.65         25.8117
556.08        25.92465
556.52         25.7343
556.96        25.87297
557.39        25.89592
557.83        25.99761
558.27        26.14007
558.70        26.31129
559.14        26.47492
559.57        26.60581
560.01        26.72534
560.45        26.80998
560.88        26.82296
561.32        26.78626
561.75        26.69695
562.19        26.61687
562.63        26.60487
563.06        26.66986
563.50        26.80049
563.93        26.95964
564.37        27.09937
564.80        27.19613
565.24        27.27614
565.68        27.34393
566.11        27.40915
566.55        27.49687
566.98        27.59253
567.42        27.71983
567.85        27.90925
568.29        28.17772
568.72        28.43112
569.16        28.67223
569.60        29.01722
570.03        29.33518
570.47        29.29444
570.90        29.04155
571.34        28.72011
571.77        29.08311
572.21        29.20346
572.64        29.31682
573.08        28.95846
573.51        27.96017
573.95        29.20751
574.38        31.12792
574.82        30.54107
