SpectraSmart Spectrum 2.9.0.0
--------- Device Information -----------
Spectrum Name :  反射率_0
Saving Time :  2024/04/26 00:43:20
Spectro-Module Model Name : SE2030-DUVN
Spectro-Module Serial Number : OS361AC55029948
Wavelength Start : 200
Wavelength End : 1025
Wavelength Unit : Wavelength(nm)
Spectrum Unit : Reflectance(%)
-----------Spectrum Setting ------------
Integration Time : 20ms
Average : 10
Boxcar : 0
Background removal :  enabled
linearity correction :  enabled
SC :  disabled
Intensity correction :  disabled
DWT denoise :  enabled
savitzky-golay :  disabled
FFT :  disabled
Running average :  disabled
Kalman :  disabled
High pass :  disabled
---------------BEGIN--------------------
Wavelength(nm)             Reflectance(%)
200.29               0
200.75        93.59756
201.21        87.12117
201.67        79.62751
202.13         75.7196
202.58        75.94916
203.04        79.26485
203.50        83.56242
203.96        85.29056
204.42        83.75646
204.88        80.50905
205.34        77.42004
205.80        76.24066
206.26        77.49728
206.72        82.20162
207.18        91.97832
207.64        99.21597
208.10        90.86012
208.55        77.49403
209.01        70.18988
209.47        69.42231
209.93        72.81544
210.39        79.40372
210.85        86.74143
211.31        89.12627
211.77        84.69238
212.23        75.58338
212.69        66.34586
213.14         64.0178
213.60        69.70123
214.06        81.32807
214.52        94.28545
214.98         101.504
215.44        101.2337
215.90        95.88422
216.36        88.69289
216.81        84.07246
217.27        83.32722
217.73        84.82076
218.19        86.32978
218.65        84.97202
219.11        79.65945
219.57        69.84608
220.02        57.03474
220.48        49.58843
220.94        52.23013
221.40         62.7226
221.86        72.70642
222.32        73.50154
222.77         66.2242
223.23        55.93953
223.69        47.56522
224.15        46.15093
224.61        51.11168
225.06        59.79501
225.52         68.7992
225.98        73.76369
226.44        73.82044
226.90        70.81049
227.36        66.80868
227.81        64.59022
228.27        65.09798
228.73        67.04169
229.19        69.56935
229.65        71.48199
230.10        72.36374
230.56        72.87653
231.02        73.08027
231.48        72.98631
231.93        72.66109
232.39        72.09787
232.85        71.59805
233.31        71.77182
233.77        72.67787
234.22         74.1773
234.68        75.66015
235.14         75.9213
235.60        74.67226
236.05        72.39597
236.51        69.83183
236.97        67.92099
237.43        66.88589
237.88        66.53208
238.34        66.74564
238.80        67.55463
239.26        68.78989
239.71        70.66749
240.17        72.31927
240.63        72.79617
241.08        72.02582
241.54        70.19892
242.00        68.15505
242.46        66.97686
242.91        67.20679
243.37         69.1328
243.83        77.43311
244.28        111.0955
244.74        159.8434
245.20        146.7112
245.66        127.6101
246.11        121.0237
246.57        121.3023
247.03        127.2567
247.48        137.4801
247.94        98.14408
248.40        78.50033
248.85        76.43955
249.31        77.37828
249.77        78.89787
250.22        81.00971
250.68        84.41538
251.14        88.83098
251.59         90.4231
252.05        86.43108
252.51        79.12994
252.96        72.02371
253.42        68.56336
253.88        68.13035
254.33        69.28951
254.79        72.19709
255.25        76.34949
255.70        80.72036
256.16        85.22178
256.62        87.94871
257.07        86.96088
257.53        83.29225
257.99        77.78041
258.44        72.59098
258.90        71.09686
259.35        72.19047
259.81         74.3828
260.27        75.46244
260.72        73.34655
261.18        68.91128
261.63        63.16169
262.09        57.83294
262.55        54.18962
263.00         52.2145
263.46        51.38922
263.91        50.86171
264.37        50.06308
264.83          48.784
265.28        47.15665
265.74        45.61913
266.19        44.52549
266.65         44.0676
267.11        43.96605
267.56        43.85962
268.02        43.35497
268.47        42.35009
268.93         41.0232
269.38        39.58797
269.84        38.61825
270.30        38.26446
270.75        38.36622
271.21        38.65458
271.66        38.72688
272.12        38.45848
272.57        37.95715
273.03        37.39697
273.48        36.94636
273.94        36.68838
274.39        36.51542
274.85        36.34146
275.31        36.02255
275.76        35.52125
276.22        34.92912
276.67        34.32223
277.13        33.91723
277.58        33.68296
278.04        33.58614
278.49        33.45094
278.95        33.11597
279.40        32.51761
279.86        31.78891
280.31        31.00057
280.77        30.38885
281.22         29.9578
281.68        29.67403
282.13        29.45908
282.59        29.25322
283.04        29.01574
283.50        28.80719
283.95        28.58545
284.41        28.31761
284.86         27.9895
285.32         27.6133
285.77        27.26768
286.22         27.1446
286.68        27.23879
287.13        27.46069
287.59        27.62199
288.04        27.42256
288.50        26.85391
288.95        26.01353
289.41        25.13012
289.86         24.4331
290.32         24.0405
290.77        23.85242
291.22        23.83091
291.68        23.87719
292.13         23.9523
292.59        24.09045
293.04        24.27509
293.50        24.48069
293.95        24.68991
294.40        24.87659
294.86        25.05031
295.31        25.24296
295.77         25.4654
296.22        25.71458
296.68        25.96163
297.13        26.12902
297.58         26.2255
298.04        26.29614
298.49        26.41916
298.95        26.75057
299.40        27.30153
299.85        28.01084
300.31        28.77008
300.76        29.41932
301.21        29.89328
301.67        30.26106
302.12        30.51672
302.58          30.712
303.03        30.85332
303.48        30.93575
303.94        31.05885
304.39        31.34204
304.84        31.79974
305.30        32.38382
305.75        32.92321
306.20        33.16451
306.66        33.08569
307.11        32.76332
307.57        32.38226
308.02        32.14022
308.47        32.12128
308.93        32.25974
309.38        32.48794
309.83        32.73125
310.29        32.94106
310.74        33.12675
311.19        33.26827
311.65        33.33113
312.10        33.30646
312.55        33.19854
313.00        33.00674
313.46        32.74944
313.91          32.441
314.36         32.1083
314.82        31.82045
315.27        31.66016
315.72        31.64736
316.18        31.75238
316.63        31.91475
317.08        32.00769
317.53        31.99102
317.99        31.88942
318.44        31.75079
318.89        31.65826
319.35         31.6244
319.80        31.62297
320.25         31.6048
320.70        31.49694
321.16        31.28772
321.61        31.01006
322.06        30.70675
322.51        30.43838
322.97        30.21215
323.42        30.01717
323.87        29.83617
324.32        29.64535
324.78        29.43905
325.23        29.24017
325.68        29.04181
326.13        28.83278
326.59        28.61229
327.04        28.40469
327.49        28.23807
327.94        28.16566
328.39        28.19731
328.85        28.29834
329.30        28.46532
329.75        28.64656
330.20        28.81418
330.66         28.9594
331.11        29.06719
331.56        29.06995
332.01        28.95878
332.46        28.73361
332.92        28.46508
333.37        28.32565
333.82        28.35328
334.27        28.52891
334.72        28.73429
335.17        28.75801
335.63        28.54805
336.08        28.17277
336.53        27.78796
336.98        27.65009
337.43        27.81531
337.88        28.20673
338.34        28.63568
338.79        28.84297
339.24        28.73713
339.69        28.40184
340.14        28.01419
340.59         27.8793
341.05        28.06402
341.50        28.45758
341.95        28.89818
342.40        29.15788
342.85        29.18162
343.30        29.05672
343.75        28.83961
344.20        28.62785
344.66        28.46802
345.11        28.29733
345.56        28.16364
346.01        28.13878
346.46        28.21687
346.91        28.39579
347.36          28.532
347.81        28.38981
348.26        27.95067
348.72        27.32306
349.17        26.69564
349.62        26.45863
350.07        26.69767
350.52        27.27466
350.97        27.98352
351.42        28.50948
351.87        28.75355
352.32        28.80174
352.77        28.70769
353.22        28.56105
353.67        28.40471
354.13        28.21258
354.58        27.99972
355.03         27.8359
355.48        27.73644
355.93        27.70575
356.38        27.70184
356.83        27.64268
357.28        27.50619
357.73        27.30747
358.18        27.09196
358.63        26.93267
359.08        26.84614
359.53        26.81556
359.98         26.7778
360.43        26.63647
360.88        26.37739
361.33        26.02943
361.78        25.69142
362.23        25.52197
362.68        25.54613
363.13        25.70509
363.58        25.87125
364.03         25.8458
364.48        25.58716
364.93        25.16609
365.38        24.68803
365.83        24.32308
366.28        24.12373
366.73        24.03437
367.18        24.01512
367.63        24.00102
368.08        23.96087
368.53        23.91986
368.98        23.85867
369.43        23.73837
369.88        23.56218
370.33        23.34444
370.78         23.1273
371.23        22.98945
371.68        22.95265
372.13         22.9873
372.58        23.08385
373.03        23.22075
373.48        23.36992
373.93        23.52806
374.38        23.63199
374.83        23.58697
375.28        23.38603
375.72        23.05301
376.17        22.69982
376.62        22.47206
377.07        22.41181
377.52        22.47213
377.97        22.59976
378.42        22.70244
378.87        22.74213
379.32        22.74655
379.77         22.7042
380.22        22.59671
380.67        22.42857
381.11        22.20027
381.56        21.95358
382.01        21.77161
382.46        21.67616
382.91        21.65162
383.36        21.65043
383.81        21.58905
384.26         21.4523
384.71        21.27396
385.15        21.09195
385.60        20.97634
386.05        20.92975
386.50        20.91682
386.95        20.91992
387.40        20.91195
387.85        20.88342
388.29        20.84819
388.74         20.7946
389.19        20.66492
389.64        20.45892
390.09        20.17949
390.54        19.92014
390.98        19.84011
391.43        19.97307
391.88        20.25671
392.33        20.53668
392.78        20.58371
393.23        20.37341
393.67         19.9849
394.12        19.59852
394.57         19.3974
395.02        19.42138
395.47        19.60494
395.91        19.86467
396.36        20.02377
396.81        20.02866
397.26        19.91959
397.71        19.76247
398.15        19.63484
398.60        19.58626
399.05        19.59182
399.50        19.59426
399.95        19.46059
400.39        19.26802
400.84        18.98864
401.29        18.74194
401.74        18.70169
402.18        18.91398
402.63        19.29129
403.08        19.70952
403.53        19.97041
403.97        20.01901
404.42         19.9152
404.87        19.71217
405.32        19.50801
405.76        19.34751
406.21        19.20972
406.66        19.11751
407.11        19.11156
407.55        19.19446
408.00        19.35665
408.45         19.5361
408.90        19.59504
409.34        19.49761
409.79        19.29118
410.24        19.06557
410.68        18.94846
411.13        18.97325
411.58        19.10137
412.03        19.28602
412.47        19.44672
412.92        19.53329
413.37        19.56648
413.81        19.56549
414.26        19.57799
414.71        19.60549
415.15        19.63437
415.60        19.61928
416.05        19.51108
416.49        19.30799
416.94        19.04802
417.39        18.78972
417.83        18.62763
418.28        18.59687
418.73        18.66026
419.17        18.78825
419.62        18.93047
420.07        19.06409
420.51        19.20024
420.96        19.30246
421.41        19.30894
421.85        19.20816
422.30        19.04125
422.74         18.8625
423.19        18.79545
423.64        18.84619
424.08        18.99279
424.53        19.16753
424.98        19.28457
425.42        19.32113
425.87        19.28999
426.31        19.21799
426.76        19.20283
427.21        19.23495
427.65        19.16005
428.10        19.05849
428.54        19.18957
428.99        19.56488
429.44        20.04397
429.88        20.43129
430.33        20.54856
430.77        20.32813
431.22        19.72435
431.66        19.01102
432.11        18.78949
432.56        19.10787
433.00        19.62942
433.45        20.11917
433.89        20.52004
434.34        20.65993
434.78        20.26403
435.23        19.66024
435.67        19.61084
436.12         20.0565
436.57         20.2317
437.01         20.0592
437.46        19.95125
437.90        19.94814
438.35        19.93252
438.79        19.89816
439.24        19.88914
439.68        19.91911
440.13        19.89818
440.57        19.86288
441.02        20.14127
441.46        20.57697
441.91        20.44246
442.35        19.86644
442.80        19.63678
443.24        19.73259
443.69        19.85081
444.13        19.89556
444.58        19.70807
445.02        19.36495
445.47        19.30734
445.91        19.49093
446.36        19.49121
446.80        19.29088
447.24        19.14456
447.69        19.09237
448.13        19.07057
448.58         19.0898
449.02         19.1608
449.47        19.24781
449.91        19.28948
450.36         19.2751
450.80         19.2168
451.25        19.15146
451.69         19.1254
452.13        19.15477
452.58        19.21301
453.02        19.28619
453.47        19.35327
453.91        19.40791
454.36        19.46378
454.80        19.50427
455.24        19.49682
455.69        19.44957
456.13        19.36226
456.58        19.30123
457.02        19.33704
457.46        19.48703
457.91        19.71787
458.35        19.95626
458.79        20.08269
459.24        20.08104
459.68        19.97318
460.13        19.84001
460.57        19.76136
461.01         19.7788
461.46        19.86056
461.90         19.9663
462.34        20.02827
462.79        20.02348
463.23        19.96834
463.68        19.91462
464.12        19.95197
464.56        20.09748
465.01        20.33526
465.45        20.54261
465.89        20.61765
466.34        20.55898
466.78        20.28529
467.22        19.96755
467.67        20.08514
468.11        20.57866
468.55        20.83475
468.99        20.77233
469.44          20.688
469.88        20.65201
470.32        20.74002
470.77        20.90702
471.21        20.92686
471.65        20.78529
472.10        20.68196
472.54        20.64924
472.98        20.66418
473.42        20.73783
473.87        20.88286
474.31        21.05902
474.75         21.1995
475.20         21.2898
475.64        21.33049
476.08        21.35093
476.52        21.39769
476.97         21.4838
477.41        21.60084
477.85        21.70757
478.29        21.78064
478.74        21.81845
479.18         21.7241
479.62        21.56272
480.06        21.79862
480.50        21.99277
480.95        22.19241
481.39        22.20466
481.83        22.19078
482.27        22.14878
482.72         21.9019
483.16        21.56927
483.60        21.62804
484.04        22.10456
484.48        22.32819
484.93        22.52887
485.37        23.06659
485.81        23.91962
486.25        23.86608
486.69        31.77663
487.14        25.64287
487.58        16.46934
488.02        20.14835
488.46        22.90546
488.90         22.8529
489.34        23.39485
489.79        23.23054
490.23        24.26768
490.67        24.92292
491.11        24.90865
491.55        24.78322
491.99        24.50518
492.43        24.25691
492.88        24.14401
493.32        24.25367
493.76        24.38809
494.20         24.6426
494.64        24.92926
495.08        25.23293
495.52        25.55053
495.96        25.90585
496.41        26.22506
496.85         26.4601
497.29        26.59428
497.73        26.34304
498.17        26.01247
498.61        26.25824
499.05        27.07745
499.49        27.19847
499.93        27.27918
500.37        27.36092
500.82        27.37784
501.26        27.61292
501.70        27.93111
502.14        28.10455
502.58        28.09797
503.02        28.12098
503.46        28.17967
503.90        28.13179
504.34        28.02435
504.78        28.00372
505.22        28.08989
505.66        28.24853
506.10          28.419
506.54        28.49701
506.98        28.46141
507.42         28.3523
507.86        28.24908
508.30        28.27246
508.74        28.44484
509.18        28.71808
509.62        29.02234
510.06        29.24372
510.50        29.34752
510.94        29.37532
511.38        29.35208
511.82         29.3164
512.26        29.28999
512.70        29.25635
513.14        29.24781
513.58        29.32058
514.02        29.46993
514.46        29.67389
514.90        29.86776
515.34         29.9151
515.78        29.76652
516.22        29.60045
516.66        29.48839
517.10        29.14653
517.54        28.60149
517.98        29.28424
518.42        29.08686
518.86        29.37165
519.30        29.49461
519.74        29.65856
520.18        29.82661
520.62        29.91113
521.06         29.9227
521.50        29.86243
521.93        29.76632
522.37        29.70495
522.81         29.6964
523.25        29.72176
523.69        29.76439
524.13        29.79752
524.57         29.8106
525.01        29.81294
525.45        29.80238
525.89        29.77376
526.32        29.72566
526.76        29.66045
527.20        29.58342
527.64        29.51379
528.08        29.46195
528.52        29.39611
528.96        29.30782
529.40        29.26448
529.83        29.28168
530.27        29.04556
530.71         29.1193
531.15        29.02352
531.59        28.93095
532.03        28.82685
532.46        28.76098
532.90        28.80881
533.34        28.96539
533.78        29.19984
534.22        29.41912
534.66         29.4872
535.09        29.37456
535.53        29.13769
535.97        28.85444
536.41        28.65697
536.85        28.58836
537.28        28.61646
537.72        28.70119
538.16        28.77864
538.60        28.82698
539.04        28.84387
539.47        28.85511
539.91        28.97223
540.35        29.17051
540.79        29.31296
541.22        29.38107
541.66        29.46727
542.10        29.56791
542.54        29.61607
542.97        29.65298
543.41        29.79117
543.85        30.03812
544.29        30.37314
544.72        30.70443
545.16        30.90244
545.60        30.93954
546.04        30.84754
546.47        30.75546
546.91        30.88001
547.35        31.24724
547.79        31.79579
548.22         32.3402
548.66        32.56747
549.10        32.43826
549.53         32.1043
549.97        31.76805
550.41        31.66034
550.84        31.84905
551.28        32.28704
551.72         32.8521
552.15        33.28198
552.59        33.49039
553.03        33.69683
553.46         33.6885
553.90        33.79126
554.34         33.9594
554.77        34.12333
555.21        34.24669
555.65        34.38757
556.08        34.55843
556.52        34.33334
556.96        34.54523
557.39        34.58336
557.83        34.70593
558.27        34.86594
558.70        35.05988
559.14        35.26491
559.57         35.4523
560.01        35.64119
560.45        35.79129
560.88        35.83982
561.32        35.80807
561.75        35.69666
562.19        35.58587
562.63        35.55149
563.06        35.60713
563.50        35.74002
563.93        35.90662
564.37        36.05462
564.80        36.15568
565.24        36.24268
565.68        36.32167
566.11        36.40541
566.55         36.5289
566.98        36.67006
567.42         36.8333
567.85        37.09734
568.29        37.49344
568.72        37.75125
569.16         37.8841
569.60        38.70118
570.03        38.86797
570.47        38.99392
570.90        38.90775
571.34        38.20906
571.77        38.79607
572.21        38.95397
572.64        38.66129
573.08        38.50031
573.51        37.03616
573.95        38.75315
574.38        41.29661
574.82        40.20356
