SpectraSmart Spectrum 2.9.0.0
--------- Device Information -----------
Spectrum Name :  反射率_0
Saving Time :  2024/04/26 00:06:54
Spectro-Module Model Name : SE2030-DUVN
Spectro-Module Serial Number : OS361AC55029948
Wavelength Start : 200
Wavelength End : 1025
Wavelength Unit : Wavelength(nm)
Spectrum Unit : Reflectance(%)
-----------Spectrum Setting ------------
Integration Time : 20ms
Average : 10
Boxcar : 0
Background removal :  enabled
linearity correction :  enabled
SC :  disabled
Intensity correction :  disabled
DWT denoise :  enabled
savitzky-golay :  disabled
FFT :  disabled
Running average :  disabled
Kalman :  disabled
High pass :  disabled
---------------BEGIN--------------------
Wavelength(nm)             Reflectance(%)
200.29               0
200.75        88.82902
201.21        80.00551
201.67          69.394
202.13        61.92858
202.58        58.35387
203.04        57.75174
203.50        59.16845
203.96        60.92266
204.42        62.17393
204.88        63.18908
205.34        64.30482
205.80        66.15115
206.26        69.44798
206.72        75.78668
207.18        86.80743
207.64        93.79319
208.10        82.94996
208.55        66.91763
209.01        57.87533
209.47        55.85081
209.93         57.9734
210.39        63.23429
210.85        69.17841
211.31        70.29623
211.77        64.96439
212.23        55.28691
212.69        45.69762
213.14        43.07527
213.60        48.48721
214.06        59.94801
214.52        73.04472
214.98        80.96516
215.44         81.9089
215.90        78.09024
216.36        72.37891
216.81        68.68182
217.27        68.22746
217.73        69.61298
218.19        70.97166
218.65        69.92603
219.11        65.56343
219.57        57.31547
220.02        46.53486
220.48        40.78291
220.94        43.84665
221.40        53.52217
221.86        61.79732
222.32        60.49501
222.77        51.08596
223.23        38.67793
223.69         28.3785
224.15        25.30467
224.61        28.84888
225.06        36.36351
225.52        44.33105
225.98        48.37465
226.44        47.64431
226.90        43.96716
227.36        39.60884
227.81         37.6077
228.27         38.8641
228.73        42.00105
229.19        45.68309
229.65        48.02993
230.10        48.59167
230.56        48.19106
231.02        47.52398
231.48        47.29591
231.93        47.62445
232.39        48.28533
232.85        48.98112
233.31        49.35708
233.77        49.31449
234.22        48.93406
234.68        48.56691
235.14        48.77302
235.60        49.67618
236.05        51.10627
236.51        52.45116
236.97        52.83422
237.43        52.06741
237.88         50.2476
238.34         48.0153
238.80        47.44153
239.26        49.54053
239.71        54.04104
240.17        59.21925
240.63        62.35491
241.08        62.70046
241.54        60.95843
242.00        58.56197
242.46        57.48765
242.91        58.81108
243.37        63.64041
243.83        79.91936
244.28        133.6129
244.74        195.1079
245.20        162.9906
245.66        132.6373
246.11        123.9064
246.57        127.5446
247.03        146.4249
247.48        200.5543
247.94        161.0753
248.40        99.99712
248.85        82.85053
249.31        78.49588
249.77        78.85889
250.22        82.03164
250.68        88.27724
251.14        97.29497
251.59        102.7595
252.05        98.79023
252.51        88.53538
252.96        77.60205
253.42        71.31633
253.88        69.22256
254.33        69.41929
254.79        71.94121
255.25        76.18787
255.70        80.96564
256.16        86.03259
256.62        89.49038
257.07        89.40977
257.53        86.68736
257.99        82.02309
258.44        77.17897
258.90        75.15739
259.35        75.03813
259.81        75.72965
260.27        75.47356
260.72        72.58239
261.18        67.85561
261.63        62.09306
262.09        56.77874
262.55        52.91052
263.00        50.51028
263.46        49.20894
263.91        48.29506
264.37        47.31859
264.83        46.05238
265.28        44.53122
265.74        43.12631
266.19        42.11102
266.65        41.63649
267.11        41.46346
267.56         41.2127
268.02        40.44066
268.47        39.05156
268.93        37.22678
269.38        35.25721
269.84        33.88195
270.30        33.31033
270.75        33.34981
271.21        33.64737
271.66        33.65895
272.12        33.22593
272.57        32.51387
273.03        31.75126
273.48        31.19461
273.94        30.93824
274.39        30.83001
274.85        30.75062
275.31         30.5255
275.76        30.10031
276.22        29.57171
276.67        28.99782
277.13        28.55383
277.58        28.22281
278.04         27.9862
278.49        27.72822
278.95        27.35235
279.40        26.81573
279.86        26.22488
280.31        25.61781
280.77        25.16542
281.22        24.85799
281.68        24.66646
282.13        24.54371
282.59        24.46357
283.04        24.39376
283.50        24.37471
283.95        24.33092
284.41        24.17016
284.86        23.87987
285.32        23.50222
285.77         23.1659
286.22        23.13122
286.68        23.40297
287.13        23.85804
287.59        24.28276
288.04         24.3481
288.50        24.02006
288.95        23.40276
289.41        22.68873
289.86        22.05881
290.32        21.63579
290.77        21.35163
291.22         21.2304
291.68        21.26792
292.13        21.45244
292.59        21.79322
293.04        22.24579
293.50        22.73221
293.95         23.2112
294.40        23.66413
294.86        24.09248
295.31        24.52056
295.77         24.9561
296.22        25.38772
296.68        25.79189
297.13        26.10448
297.58        26.33898
298.04        26.54423
298.49        26.79158
298.95        27.22481
299.40        27.85852
299.85        28.63878
300.31        29.48235
300.76        30.26661
301.21        30.92439
301.67        31.50238
302.12        31.95617
302.58        32.28569
303.03        32.48751
303.48        32.58033
303.94        32.68452
304.39        32.94887
304.84         33.4049
305.30        34.00161
305.75          34.581
306.20        34.90941
306.66        34.96357
307.11        34.80886
307.57        34.60793
308.02        34.52214
308.47        34.62545
308.93        34.85798
309.38        35.15699
309.83        35.45932
310.29        35.72261
310.74        35.95499
311.19        36.13826
311.65        36.24111
312.10         36.2574
312.55        36.19346
313.00        36.05797
313.46        35.88182
313.91        35.67664
314.36        35.46102
314.82        35.28426
315.27        35.19713
315.72        35.21691
316.18         35.3261
316.63        35.47919
317.08        35.57567
317.53        35.58113
317.99        35.50408
318.44        35.39756
318.89        35.35293
319.35        35.37884
319.80        35.45531
320.25        35.48705
320.70        35.32449
321.16        34.94852
321.61        34.41603
322.06        33.86333
322.51        33.49408
322.97        33.34317
323.42         33.3664
323.87        33.43915
324.32        33.34987
324.78        33.04266
325.23        32.59319
325.68        32.11075
326.13        31.77883
326.59        31.64098
327.04        31.65529
327.49        31.73876
327.94        31.76135
328.39        31.68099
328.85        31.52822
329.30        31.37532
329.75        31.29502
330.20        31.31325
330.66        31.38181
331.11        31.48503
331.56        31.55371
332.01        31.56292
332.46        31.51871
332.92          31.432
333.37        31.36538
333.82        31.32337
334.27        31.30948
334.72        31.27293
335.17        31.13234
335.63        30.87728
336.08        30.53812
336.53        30.23911
336.98        30.18251
337.43        30.39912
337.88        30.83179
338.34        31.26596
338.79        31.39952
339.24        31.13535
339.69        30.55983
340.14        29.90996
340.59        29.60354
341.05        29.74043
341.50        30.18769
341.95        30.71005
342.40        30.96291
342.85        30.86785
343.30        30.54551
343.75        30.12476
344.20        29.82986
344.66        29.73553
345.11        29.72666
345.56        29.77094
346.01        29.82218
346.46         29.8474
346.91         29.8885
347.36        29.84731
347.81        29.55773
348.26          29.025
348.72        28.33165
349.17        27.66612
349.62        27.42001
350.07         27.6717
350.52        28.28768
350.97        29.02978
351.42        29.52928
351.87        29.68064
352.32        29.58501
352.77         29.3406
353.22        29.11115
353.67        28.95576
354.13        28.82426
354.58         28.6922
355.03        28.56606
355.48        28.44344
355.93        28.34911
356.38        28.26417
356.83        28.14266
357.28        27.97442
357.73        27.76241
358.18        27.54267
358.63        27.37509
359.08         27.2721
359.53        27.22298
359.98        27.16934
360.43        27.02034
360.88        26.76177
361.33        26.41745
361.78        26.08016
362.23        25.90045
362.68        25.90131
363.13        26.02747
363.58        26.15423
364.03        26.08683
364.48        25.78661
364.93        25.32447
365.38        24.80911
365.83        24.41605
366.28        24.19756
366.73        24.09469
367.18        24.06481
367.63        24.03738
368.08        23.98006
368.53        23.92313
368.98        23.84145
369.43        23.68678
369.88        23.46343
370.33        23.18726
370.78        22.92246
371.23          22.785
371.68        22.80135
372.13        22.92863
372.58        23.12126
373.03         23.2957
373.48        23.40946
373.93        23.48139
374.38        23.47774
374.83          23.351
375.28        23.10566
375.72        22.74376
376.17         22.3766
376.62        22.14805
377.07        22.09496
377.52         22.1807
377.97        22.31453
378.42        22.34292
378.87        22.22804
379.32        22.02015
379.77        21.78798
380.22        21.63052
380.67         21.5669
381.11        21.55904
381.56        21.55724
382.01        21.49208
382.46        21.34641
382.91        21.15072
383.36        20.93927
383.81         20.7626
384.26        20.64009
384.71        20.55848
385.15        20.49748
385.60        20.44266
386.05         20.3755
386.50        20.29229
386.95        20.20424
387.40        20.13091
387.85        20.07984
388.29        20.04661
388.74        20.00637
389.19        19.88908
389.64        19.69061
390.09        19.42165
390.54        19.17339
390.98        19.09942
391.43        19.23136
391.88        19.50315
392.33        19.77093
392.78        19.82183
393.23        19.63282
393.67        19.28099
394.12        18.92332
394.57        18.71195
395.02        18.68297
395.47         18.7767
395.91        18.94633
396.36        19.08187
396.81         19.1436
397.26        19.15045
397.71        19.10829
398.15        19.00613
398.60        18.88085
399.05        18.74086
399.50        18.58804
399.95        18.37334
400.39        18.18174
400.84         17.9607
401.29        17.78433
401.74        17.74886
402.18        17.87935
402.63        18.12144
403.08        18.38922
403.53        18.53906
403.97        18.53434
404.42        18.41785
404.87        18.23891
405.32        18.08943
405.76        18.00219
406.21        17.95164
406.66        17.94086
407.11         17.9819
407.55         18.0732
408.00        18.21316
408.45        18.34848
408.90        18.36436
409.34        18.23609
409.79        18.00249
410.24        17.76295
410.68        17.65857
411.13        17.71868
411.58        17.90241
412.03        18.13125
412.47        18.26537
412.92         18.2488
413.37        18.13104
413.81        17.97579
414.26        17.89793
414.71        17.91551
415.15        17.98777
415.60        18.06088
416.05        18.07097
416.49        17.99929
416.94        17.88782
417.39        17.74524
417.83        17.58399
418.28        17.42981
418.73        17.27245
419.17        17.16649
419.62        17.18704
420.07        17.33606
420.51        17.58787
420.96        17.84076
421.41        17.91761
421.85        17.77719
422.30        17.50402
422.74         17.1976
423.19        17.03731
423.64         17.0447
424.08        17.17396
424.53        17.35189
424.98        17.48437
425.42         17.5394
425.87        17.53564
426.31        17.48586
426.76        17.45856
427.21        17.44099
427.65        17.29663
428.10        17.11724
428.54        17.16641
428.99         17.4648
429.44        17.89038
429.88        18.25558
430.33        18.35576
430.77        18.13484
431.22        17.60486
431.66        17.00315
432.11         16.8124
432.56        17.07113
433.00        17.52494
433.45        17.96155
433.89        18.26178
434.34        18.29934
434.78        17.95607
435.23        17.50048
435.67        17.48624
436.12        17.85702
436.57        17.99529
437.01        17.84405
437.46         17.7578
437.90        17.77346
438.35        17.78688
438.79        17.78014
439.24        17.77593
439.68        17.78284
440.13        17.72499
440.57        17.64528
441.02        17.85069
441.46        18.20724
441.91        18.06922
442.35        17.54564
442.80        17.32514
443.24        17.38556
443.69        17.46276
444.13        17.47831
444.58        17.30407
445.02        17.00848
445.47        16.97528
445.91        17.15571
446.36        17.16083
446.80        16.97217
447.24        16.81918
447.69        16.74903
448.13        16.72323
448.58        16.75555
449.02          16.849
449.47        16.96082
449.91         17.0193
450.36        17.00872
450.80        16.94202
451.25        16.86032
451.69        16.81741
452.13        16.83084
452.58        16.87349
453.02         16.9217
453.47        16.93721
453.91         16.9132
454.36        16.86889
454.80        16.81133
455.24        16.74894
455.69        16.69698
456.13        16.64261
456.58        16.61944
457.02         16.6523
457.46         16.7485
457.91        16.89158
458.35        17.03321
458.79        17.09176
459.24         17.0607
459.68         16.9487
460.13        16.82475
460.57         16.7552
461.01        16.77364
461.46         16.8531
461.90        16.94915
462.34        16.98323
462.79        16.93357
463.23        16.81821
463.68        16.70134
464.12        16.69385
464.56        16.81888
465.01        17.04818
465.45        17.25748
465.89         17.3288
466.34        17.25522
466.78        16.98278
467.22          16.664
467.67        16.71285
468.11        17.08478
468.55        17.26416
468.99        17.19504
469.44        17.13877
469.88        17.15285
470.32        17.29591
470.77        17.50391
471.21        17.54475
471.65        17.39438
472.10        17.22984
472.54        17.10705
472.98         17.0585
473.42        17.10539
473.87        17.24415
474.31        17.40997
474.75        17.49515
475.20        17.48184
475.64         17.3945
476.08        17.29615
476.52         17.2829
476.97         17.3774
477.41        17.55132
477.85        17.74231
478.29        17.88481
478.74         17.9591
479.18        17.89524
479.62         17.7532
480.06        17.92691
480.50         18.0612
480.95        18.19121
481.39        18.16137
481.83         18.1111
482.27        18.04089
482.72        17.80444
483.16        17.50829
483.60         17.5629
484.04        17.99095
484.48        18.22729
484.93        18.44228
485.37         18.9225
485.81        19.55233
486.25        19.43891
486.69        25.49413
487.14        20.41758
487.58        13.26713
488.02        16.47151
488.46        18.81265
488.90        18.89962
489.34        18.98541
489.79        18.81062
490.23        19.78875
490.67        20.30248
491.11         20.1363
491.55        20.04986
491.99        19.98487
492.43        19.83958
492.88        19.68165
493.32        19.68297
493.76        19.73077
494.20        19.95219
494.64        20.28818
495.08        20.69569
495.52        21.12226
495.96        21.51315
496.41        21.78546
496.85        21.93381
497.29        21.96737
497.73        21.66283
498.17        21.30568
498.61        21.48564
499.05        22.19239
499.49        22.31388
499.93        22.38113
500.37        22.47108
500.82        22.53095
501.26         22.7775
501.70        23.09566
502.14          23.295
502.58        23.33564
503.02        23.37828
503.46        23.42642
503.90        23.36779
504.34        23.24885
504.78        23.20362
505.22        23.25484
505.66        23.37148
506.10        23.51154
506.54         23.6009
506.98        23.62085
507.42         23.5991
507.86        23.58134
508.30        23.63589
508.74         23.7751
509.18        23.96902
509.62        24.17661
510.06        24.33251
510.50        24.41845
510.94        24.46119
511.38        24.47565
511.82        24.48475
512.26        24.49992
512.70        24.50642
513.14        24.52762
513.58        24.60386
514.02        24.72731
514.46        24.88146
514.90        25.00801
515.34        24.97962
515.78        24.75349
516.22        24.52049
516.66        24.36777
517.10        24.00554
517.54        23.46137
517.98        24.25978
518.42        24.12297
518.86        24.48075
519.30        24.63282
519.74         24.8006
520.18        24.94508
520.62        24.97609
521.06        24.91087
521.50        24.75298
521.93        24.55463
522.37        24.41444
522.81        24.35917
523.25        24.36588
523.69        24.40973
524.13        24.44745
524.57        24.46213
525.01        24.46679
525.45         24.4561
525.89         24.4212
526.32        24.35877
526.76        24.26613
527.20        24.15572
527.64        24.05872
528.08        23.98674
528.52        23.91376
528.96        23.81705
529.40         23.7248
529.83        23.64971
530.27        23.35137
530.71         23.3141
531.15          23.198
531.59        23.14958
532.03        23.14029
532.46        23.17994
532.90        23.28111
533.34        23.42181
533.78        23.58883
534.22        23.72153
534.66        23.73379
535.09        23.60876
535.53        23.38374
535.97        23.11708
536.41        22.90943
536.85        22.79569
537.28        22.75726
537.72        22.76873
538.16        22.78552
538.60        22.79446
539.04        22.79383
539.47        22.80263
539.91        22.90637
540.35        23.08207
540.79        23.21627
541.22        23.29463
541.66        23.39074
542.10        23.49965
542.54        23.56808
542.97        23.61336
543.41        23.70299
543.85        23.84324
544.29        24.02824
544.72        24.21696
545.16        24.35503
545.60        24.43033
546.04        24.45309
546.47        24.49382
546.91        24.67407
547.35        24.99968
547.79        25.43564
548.22        25.85625
548.66        26.04548
549.10        25.98177
549.53        25.77356
549.97        25.56708
550.41        25.52359
550.84         25.6943
551.28        26.04185
551.72        26.48164
552.15        26.85614
552.59        27.10657
553.03        27.27467
553.46        27.38416
553.90        27.49555
554.34        27.63148
554.77        27.73952
555.21         27.8131
555.65        27.93027
556.08        28.10603
556.52        27.98543
556.96        28.22459
557.39        28.29372
557.83        28.39646
558.27        28.50461
558.70        28.63401
559.14        28.79339
559.57        28.96691
560.01        29.16238
560.45        29.33088
560.88        29.39484
561.32        29.36848
561.75        29.26498
562.19        29.16641
562.63        29.15193
563.06        29.23921
563.50        29.41987
563.93        29.64017
564.37        29.81665
564.80        29.91599
565.24        29.97951
565.68        30.01689
566.11        30.04147
566.55        30.08447
566.98        30.13344
567.42        30.21303
567.85        30.35332
568.29        30.57664
568.72        30.79181
569.16        31.02567
569.60        31.38844
570.03        31.72762
570.47        31.76243
570.90        31.65698
571.34        31.13406
571.77        31.67454
572.21        31.80333
572.64        31.97039
573.08        31.43263
573.51        30.27661
573.95        31.61827
574.38        33.81049
574.82         33.1827
