SpectraSmart Spectrum 2.9.0.0
--------- Device Information -----------
Spectrum Name :  反射率_0
Saving Time :  2024/04/26 00:18:21
Spectro-Module Model Name : SE2030-DUVN
Spectro-Module Serial Number : OS361AC55029948
Wavelength Start : 200
Wavelength End : 1025
Wavelength Unit : Wavelength(nm)
Spectrum Unit : Reflectance(%)
-----------Spectrum Setting ------------
Integration Time : 20ms
Average : 10
Boxcar : 0
Background removal :  enabled
linearity correction :  enabled
SC :  disabled
Intensity correction :  disabled
DWT denoise :  enabled
savitzky-golay :  disabled
FFT :  disabled
Running average :  disabled
Kalman :  disabled
High pass :  disabled
---------------BEGIN--------------------
Wavelength(nm)             Reflectance(%)
200.29               0
200.75        90.78798
201.21        81.35062
201.67        70.17113
202.13        62.13731
202.58        57.96101
203.04        56.63791
203.50        57.75836
203.96        60.40768
204.42        63.53631
204.88        66.96488
205.34        69.90727
205.80         71.7899
206.26         72.8101
206.72        72.91676
207.18        71.20668
207.64         67.2766
208.10        64.18463
208.55        63.22783
209.01        63.45552
209.47        64.11319
209.93         65.0065
210.39        66.69222
210.85        68.06653
211.31        66.69791
211.77         62.2681
212.23        55.64956
212.69        49.88965
213.14        49.87857
213.60        56.06028
214.06        67.09924
214.52        79.02335
214.98        85.68203
215.44        85.60106
215.90        80.76079
216.36        74.11215
216.81        69.78135
217.27        68.97994
217.73        70.24242
218.19        71.51914
218.65        70.11223
219.11        64.94779
219.57        55.39317
220.02        42.64293
220.48        34.51312
220.94         35.5311
221.40        43.99627
221.86        52.15537
222.32        51.74636
222.77         43.8797
223.23        33.25211
223.69        24.74143
224.15        23.31157
224.61        28.28386
225.06        37.00538
225.52        45.83437
225.98        50.16202
226.44           49.14
226.90        44.77067
227.36        39.46289
227.81        36.44451
228.27        36.76753
228.73        39.09897
229.19        42.34732
229.65        44.95204
230.10        46.35251
230.56        47.05765
231.02        47.44246
231.48        47.87245
231.93        48.40834
232.39        48.93631
232.85        49.16933
233.31        48.75587
233.77         47.6446
234.22        45.92672
234.68        44.10782
235.14        43.12425
235.60          43.276
236.05        44.33847
236.51        45.60482
236.97        45.97017
237.43         45.1566
237.88        43.36819
238.34        41.06957
238.80        39.89278
239.26        40.71554
239.71        43.19304
240.17        46.43089
240.63        49.17504
241.08        50.91973
241.54        51.94456
242.00        52.27568
242.46        51.84337
242.91        50.48228
243.37        46.46601
243.83        36.79398
244.28        24.74907
244.74        46.93641
245.20        79.88598
245.66        88.17722
246.11        89.42323
246.57        88.63368
247.03        83.98232
247.48        60.74565
247.94        40.74625
248.40        57.77774
248.85        66.33389
249.31        70.61149
249.77        73.41946
250.22        76.08173
250.68        79.67807
251.14        83.61528
251.59         83.1981
252.05         75.9361
252.51        65.27333
252.96        55.94096
253.42        51.76813
253.88        51.85494
254.33        54.48695
254.79         59.3743
255.25        65.33975
255.70        70.98175
256.16         76.2123
256.62        79.04164
257.07        77.46635
257.53        72.65907
257.99        65.69373
258.44        59.12977
258.90        56.70797
259.35        57.42573
259.81        59.54039
260.27        60.67809
260.72         58.5956
261.18        54.06846
261.63        48.22261
262.09        42.82418
262.55         39.2759
263.00        37.56638
263.46        37.04808
263.91        36.79892
264.37        36.06158
264.83        34.67848
265.28        32.85039
265.74        31.15423
266.19        30.21127
266.65         30.1638
267.11        30.61029
267.56         31.0146
268.02        30.74264
268.47        29.70806
268.93        28.14755
269.38         26.3964
269.84        25.24784
270.30         24.9147
270.75        25.17561
271.21        25.63589
271.66        25.71148
272.12        25.23878
272.57        24.40834
273.03        23.51582
273.48        22.92185
273.94        22.73891
274.39        22.80848
274.85         22.9167
275.31        22.76068
275.76        22.27305
276.22        21.58058
276.67        20.87897
277.13        20.52192
277.58        20.51273
278.04         20.7438
278.49        20.93353
278.95        20.73576
279.40        20.08992
279.86        19.18408
280.31        18.23984
280.77        17.68358
281.22        17.55707
281.68        17.72494
282.13        17.98828
282.59        18.08843
283.04         17.9628
283.50        17.73026
283.95        17.44299
284.41        17.18755
284.86        16.99221
285.32        16.81996
285.77         16.7142
286.22        16.80125
286.68         17.0577
287.13        17.42884
287.59        17.74214
288.04        17.73632
288.50        17.39656
288.95         16.8041
289.41        16.16354
289.86        15.69174
290.32        15.49347
290.77        15.48658
291.22        15.62166
291.68        15.78484
292.13        15.94519
292.59        16.13747
293.04        16.38402
293.50        16.71531
293.95        17.12069
294.40        17.55097
294.86        17.95879
295.31        18.29202
295.77        18.54286
296.22        18.73589
296.68        18.88875
297.13        19.00201
297.58        19.10609
298.04         19.2178
298.49        19.39155
298.95        19.74033
299.40        20.26715
299.85        20.93403
300.31        21.63294
300.76        22.20554
301.21        22.59264
301.67        22.85228
302.12        23.02048
302.58        23.19778
303.03        23.39724
303.48        23.59583
303.94        23.82068
304.39        24.08481
304.84        24.39022
305.30        24.73186
305.75        25.03657
306.20         25.1963
306.66        25.21438
307.11        25.11631
307.57         25.0018
308.02        24.95731
308.47        25.02937
308.93        25.18347
309.38        25.38438
309.83         25.6029
310.29        25.80589
310.74        25.99046
311.19        26.12485
311.65        26.16137
312.10        26.09413
312.55        25.93999
313.00        25.72039
313.46         25.4821
313.91        25.24437
314.36        25.02114
314.82        24.85525
315.27        24.79684
315.72        24.85241
316.18        24.99786
316.63        25.18076
317.08        25.29186
317.53        25.29407
317.99         25.2031
318.44        25.05861
318.89        24.93076
319.35        24.83357
319.80        24.75039
320.25        24.64264
320.70        24.45285
321.16        24.17822
321.61        23.84932
322.06        23.51856
322.51        23.25754
322.97         23.0737
323.42         22.9512
323.87        22.84632
324.32        22.68958
324.78        22.46281
325.23        22.19139
325.68        21.90347
326.13        21.64714
326.59        21.43445
327.04        21.26794
327.49        21.13344
327.94        21.00968
328.39        20.89195
328.85        20.78025
329.30        20.71217
329.75        20.71901
330.20        20.80255
330.66        20.92964
331.11        21.07043
331.56        21.13603
332.01        21.09959
332.46        20.96829
332.92        20.78124
333.37        20.63416
333.82        20.55554
334.27        20.54045
334.72        20.53044
335.17        20.42421
335.63        20.20212
336.08        19.89807
336.53        19.62589
336.98        19.56617
337.43        19.74882
337.88        20.12189
338.34        20.49816
338.79        20.61496
339.24        20.38782
339.69         19.8899
340.14        19.33605
340.59        19.10312
341.05        19.27011
341.50        19.71257
341.95        20.20366
342.40         20.4107
342.85        20.26065
343.30        19.87536
343.75        19.38142
344.20        19.00068
344.66        18.81436
345.11        18.71774
345.56        18.70452
346.01        18.76385
346.46        18.86223
346.91        19.02342
347.36        19.11339
347.81        18.90977
348.26        18.40444
348.72        17.70115
349.17        17.00246
349.62        16.72849
350.07        16.97202
350.52        17.58921
350.97        18.35946
351.42        18.94209
351.87        19.22861
352.32        19.30891
352.77        19.23637
353.22        19.10212
353.67        18.94924
354.13        18.74752
354.58        18.51691
355.03        18.33326
355.48        18.21593
355.93        18.17384
356.38        18.16153
356.83         18.0895
357.28        17.93662
357.73        17.72024
358.18        17.50247
358.63        17.38187
359.08        17.37557
359.53         17.4554
359.98        17.52855
360.43        17.45264
360.88         17.2055
361.33        16.83259
361.78        16.45866
362.23        16.28599
362.68        16.34999
363.13        16.57207
363.58        16.81546
364.03        16.86773
364.48        16.67887
364.93        16.32802
365.38        15.90009
365.83        15.52951
366.28         15.2707
366.73        15.08414
367.18        14.97714
367.63        14.96383
368.08        15.02589
368.53        15.15299
368.98        15.28554
369.43        15.32269
369.88        15.24532
370.33        15.08815
370.78        14.87899
371.23        14.67496
371.68        14.50432
372.13         14.3422
372.58        14.24525
373.03        14.30495
373.48        14.51885
373.93        14.85637
374.38        15.17049
374.83        15.23293
375.28        15.00571
375.72        14.54795
376.17         14.0448
376.62        13.76135
377.07        13.77021
377.52        13.98598
377.97         14.2864
378.42         14.4719
378.87        14.48082
379.32        14.38052
379.77         14.2267
380.22        14.09471
380.67        14.00981
381.11        13.94407
381.56        13.88153
382.01        13.81277
382.46        13.73282
382.91          13.648
383.36        13.57333
383.81        13.52453
384.26        13.50373
384.71        13.51044
385.15        13.50291
385.60        13.42754
386.05        13.27424
386.50        13.05327
386.95        12.84048
387.40        12.76653
387.85        12.85293
388.29        13.04969
388.74        13.24623
389.19        13.29013
389.64        13.16206
390.09         12.9031
390.54        12.62281
390.98        12.50545
391.43        12.60049
391.88        12.83628
392.33        13.08114
392.78         13.1428
393.23        12.99546
393.67        12.70822
394.12         12.4174
394.57        12.26366
395.02        12.27668
395.47        12.40441
395.91        12.57776
396.36        12.65815
396.81        12.60645
397.26        12.45917
397.71        12.27889
398.15        12.14296
398.60        12.09063
399.05        12.09794
399.50        12.11057
399.95        12.01976
400.39        11.86593
400.84        11.63895
401.29        11.43293
401.74         11.3936
402.18        11.56039
402.63        11.86428
403.08        12.19342
403.53        12.36915
403.97         12.3459
404.42        12.17934
404.87        11.94566
405.32        11.77976
405.76        11.72643
406.21         11.7447
406.66        11.80293
407.11        11.86138
407.55        11.90813
408.00        11.95692
408.45        11.99774
408.90        11.99864
409.34        11.95364
409.79        11.86884
410.24        11.77974
410.68         11.7396
411.13        11.76135
411.58        11.83529
412.03        11.92724
412.47        11.97737
412.92        11.95959
413.37        11.88916
413.81        11.81025
414.26        11.80385
414.71        11.87689
415.15        12.00986
415.60        12.12366
416.05        12.11215
416.49        11.95364
416.94         11.6928
417.39        11.41339
417.83        11.25869
418.28        11.27174
418.73        11.39653
419.17        11.56353
419.62        11.65746
420.07        11.65222
420.51        11.58796
420.96        11.48367
421.41         11.3685
421.85        11.25919
422.30        11.15814
422.74        11.08562
423.19        11.10286
423.64        11.20239
424.08        11.37579
424.53        11.55712
424.98        11.65048
425.42        11.63151
425.87        11.52052
426.31        11.36305
426.76        11.27037
427.21        11.25029
427.65         11.1995
428.10        11.16166
428.54        11.26828
428.99        11.51649
429.44        11.84637
429.88        12.12803
430.33        12.19247
430.77        12.01614
431.22        11.65028
431.66        11.25764
432.11        11.13357
432.56         11.3046
433.00        11.62684
433.45         11.9416
433.89        12.12481
434.34        12.08525
434.78        11.76473
435.23         11.3762
435.67        11.31758
436.12        11.55832
436.57        11.68695
437.01        11.64014
437.46        11.60504
437.90        11.59254
438.35        11.54757
438.79        11.48108
439.24        11.44469
439.68         11.4511
440.13        11.43749
440.57        11.40995
441.02        11.53238
441.46        11.70895
441.91        11.53765
442.35        11.11396
442.80        10.90931
443.24        10.90912
443.69        10.94184
444.13        10.93743
444.58         10.7887
445.02        10.53383
445.47        10.42256
445.91        10.44624
446.36        10.40566
446.80        10.29653
447.24        10.24341
447.69        10.24764
448.13        10.23868
448.58        10.21685
449.02        10.20062
449.47        10.18848
449.91        10.17563
450.36        10.16564
450.80        10.15276
451.25        10.15279
451.69        10.18267
452.13        10.24436
452.58        10.31818
453.02        10.38882
453.47        10.42464
453.91        10.42245
454.36        10.39779
454.80        10.34795
455.24        10.27128
455.69        10.18308
456.13        10.08119
456.58        10.01743
457.02        10.05104
457.46        10.19028
457.91        10.40724
458.35        10.63336
458.79        10.74923
459.24        10.73743
459.68          10.622
460.13        10.48323
460.57        10.41405
461.01        10.45205
461.46        10.55891
461.90        10.68889
462.34        10.75662
462.79        10.74046
463.23         10.6623
463.68        10.57742
464.12         10.5731
464.56        10.67162
465.01        10.84493
465.45        11.00541
465.89        11.06377
466.34         11.0148
466.78        10.83247
467.22        10.62207
467.67        10.66063
468.11        10.92255
468.55        11.07162
468.99        11.06865
469.44        11.07642
469.88        11.12934
470.32        11.26858
470.77        11.43834
471.21        11.46688
471.65        11.33684
472.10         11.1744
472.54        11.04381
472.98         11.0175
473.42        11.11744
473.87        11.32128
474.31        11.55423
474.75        11.69036
475.20        11.70445
475.64        11.62931
476.08        11.52785
476.52        11.49762
476.97        11.56403
477.41        11.69979
477.85        11.85528
478.29        11.97408
478.74        12.03924
479.18        12.00865
479.62        11.92841
480.06        12.07121
480.50        12.19891
480.95        12.33071
481.39        12.35044
481.83        12.33686
482.27        12.28815
482.72        12.11456
483.16        11.90223
483.60          11.937
484.04        12.22086
484.48         12.4458
484.93        12.75359
485.37        13.06308
485.81         13.2623
486.25        13.68461
486.69        17.98531
487.14        14.06805
487.58         9.50262
488.02        11.57963
488.46        13.24256
488.90        13.30873
489.34        13.35048
489.79        13.25225
490.23        13.92083
490.67        14.33061
491.11        14.28769
491.55         14.2045
491.99        14.05436
492.43         13.8968
492.88        13.79458
493.32        13.78972
493.76        13.80927
494.20         13.9859
494.64        14.27948
495.08        14.64506
495.52        15.03294
495.96        15.38811
496.41        15.64542
496.85        15.79779
497.29        15.85208
497.73        15.67015
498.17        15.45071
498.61        15.57574
499.05        16.05447
499.49        16.15369
499.93         16.2658
500.37        16.41137
500.82         16.5295
501.26        16.76003
501.70        17.01182
502.14        17.15149
502.58        17.16621
503.02        17.20178
503.46        17.26675
503.90        17.26701
504.34         17.2263
504.78        17.22737
505.22        17.28246
505.66        17.37806
506.10        17.48033
506.54        17.52868
506.98        17.51315
507.42        17.45634
507.86        17.41402
508.30        17.47218
508.74        17.64225
509.18        17.88709
509.62        18.14598
510.06        18.31882
510.50         18.3799
510.94         18.3707
511.38        18.31763
511.82        18.26264
512.26        18.22737
512.70         18.1914
513.14        18.19451
513.58        18.30312
514.02        18.50751
514.46        18.77981
514.90        19.02368
515.34        19.04932
515.78        18.79852
516.22        18.49104
516.66        18.24766
517.10         17.8015
517.54        17.19743
517.98        18.07236
518.42        17.94937
518.86        18.35459
519.30        18.52324
519.74         18.7014
520.18        18.85172
520.62        18.88219
521.06        18.81321
521.50          18.647
521.93        18.43265
522.37        18.26698
522.81        18.17924
523.25        18.14968
523.69        18.16785
524.13        18.21215
524.57        18.26633
525.01        18.33318
525.45        18.38835
525.89        18.39094
526.32        18.33087
526.76        18.21973
527.20        18.07767
527.64        17.94763
528.08         17.8476
528.52        17.75089
528.96        17.65632
529.40        17.60855
529.83         17.6161
530.27         17.4909
530.71         17.5558
531.15        17.49442
531.59        17.40579
532.03        17.28625
532.46        17.18764
532.90        17.19777
533.34        17.31986
533.78        17.52149
534.22        17.71761
534.66        17.78326
535.09        17.69103
535.53        17.48846
535.97        17.24862
536.41        17.09123
536.85        17.05339
537.28        17.10566
537.72        17.20193
538.16        17.26678
538.60        17.27936
539.04        17.25022
539.47        17.22338
539.91        17.30604
540.35        17.49048
540.79        17.68001
541.22        17.82858
541.66        17.93744
542.10        17.99305
542.54        17.96967
542.97        17.92803
543.41         17.9944
543.85        18.18551
544.29          18.473
544.72        18.76593
545.16        18.92901
545.60        18.93763
546.04        18.83536
546.47        18.73812
546.91        18.83795
547.35        19.16045
547.79        19.63947
548.22        20.13734
548.66        20.42113
549.10        20.45218
549.53        20.33801
549.97         20.1935
550.41        20.14076
550.84        20.22863
551.28        20.42968
551.72        20.71428
552.15        21.02387
552.59        21.32122
553.03        21.61647
553.46        21.88084
553.90        22.08865
554.34        22.24222
554.77        22.32029
555.21        22.34245
555.65        22.41175
556.08        22.55374
556.52        22.47048
556.96        22.68174
557.39        22.75404
557.83        22.84707
558.27        22.94309
558.70        23.05408
559.14        23.18126
559.57        23.31168
560.01        23.45278
560.45         23.5668
560.88        23.59521
561.32        23.55372
561.75        23.45188
562.19         23.3589
562.63        23.34735
563.06        23.42945
563.50        23.58484
563.93         23.7746
564.37        23.94696
564.80        24.07523
565.24        24.18476
565.68        24.27224
566.11        24.33456
566.55        24.39589
566.98        24.44997
567.42        24.53474
567.85        24.70201
568.29        24.97126
568.72        25.25637
569.16        25.56126
569.60        25.93652
570.03         26.2494
570.47        26.31419
570.90        26.27989
571.34        25.78303
571.77        26.30706
572.21        26.41316
572.64        26.57033
573.08        26.15755
573.51        25.34931
573.95        26.51042
574.38        28.29549
574.82        27.70539
