SpectraSmart Spectrum 2.9.0.0
--------- Device Information -----------
Spectrum Name :  反射率_0
Saving Time :  2024/04/25 23:56:32
Spectro-Module Model Name : SE2030-DUVN
Spectro-Module Serial Number : OS361AC55029948
Wavelength Start : 200
Wavelength End : 1025
Wavelength Unit : Wavelength(nm)
Spectrum Unit : Reflectance(%)
-----------Spectrum Setting ------------
Integration Time : 20ms
Average : 10
Boxcar : 0
Background removal :  enabled
linearity correction :  enabled
SC :  disabled
Intensity correction :  disabled
DWT denoise :  enabled
savitzky-golay :  disabled
FFT :  disabled
Running average :  disabled
Kalman :  disabled
High pass :  disabled
---------------BEGIN--------------------
Wavelength(nm)             Reflectance(%)
200.29               0
200.75        76.91027
201.21        69.90742
201.67         61.8096
202.13        57.04007
202.58        56.11892
203.04        58.15278
203.50        61.60951
203.96        63.72346
204.42        63.72712
204.88         62.6655
205.34        61.61336
205.80         61.7027
206.26        63.49454
206.72        67.92332
207.18        76.72058
207.64        84.72369
208.10        80.03634
208.55        69.59807
209.01        62.89886
209.47        60.85999
209.93        61.54595
210.39        64.08981
210.85        66.63657
211.31        65.39473
211.77        59.59778
212.23        50.96652
212.69        43.02184
213.14        41.15687
213.60        46.11748
214.06        56.41665
214.52        68.50733
214.98        76.90572
215.44        79.80552
215.90        78.49351
216.36        74.90314
216.81        71.69911
217.27          69.966
217.73        69.03568
218.19        67.28539
218.65        62.23856
219.11        52.73858
219.57        37.66474
220.02        18.95059
220.48        8.043757
220.94        11.67499
221.40        26.84215
221.86        42.60025
222.32        47.46526
222.77        42.19083
223.23        32.40163
223.69        23.57179
224.15        21.23298
224.61        24.95222
225.06        32.00465
225.52        38.95327
225.98        41.56979
226.44         39.1475
226.90        33.73552
227.36        27.60784
227.81         23.7106
228.27        23.06274
228.73        24.45664
229.19        27.08661
229.65        29.78287
230.10        31.92498
230.56        33.66311
231.02        35.00179
231.48        35.89314
231.93        36.39914
232.39        36.56875
232.85        36.33796
233.31        35.67161
233.77        34.62811
234.22        33.21661
234.68        31.91889
235.14        31.55646
235.60        32.34653
236.05        34.07964
236.51         36.0596
236.97        37.25253
237.43         37.4785
237.88        37.00788
238.34        36.31684
238.80        36.77161
239.26        38.97847
239.71         42.4943
240.17        46.55812
240.63        50.28616
241.08        53.27072
241.54        55.61915
242.00        57.24863
242.46        58.13289
242.91        58.52756
243.37        57.89399
243.83        57.10693
244.28        69.06344
244.74        109.9441
245.20        120.8336
245.66         114.827
246.11        113.0087
246.57        115.5742
247.03        124.7969
247.48        141.7104
247.94        96.30176
248.40        69.36787
248.85        65.23866
249.31        65.82739
249.77        68.36206
250.22        72.69613
250.68         79.9724
251.14        90.12556
251.59        96.44865
252.05        92.60386
252.51        81.75125
252.96        69.97083
253.42        63.07675
253.88        60.63755
254.33         60.5505
254.79        62.95581
255.25        67.40163
255.70        72.58022
256.16         78.1043
256.62        81.66609
257.07        80.92424
257.53        76.89333
257.99        70.60432
258.44        64.42008
258.90        61.90997
259.35        62.14609
259.81        63.61122
260.27        64.09334
260.72        61.49829
261.18        56.61768
261.63        50.48967
262.09        44.89809
262.55        41.25034
263.00        39.50948
263.46        39.02936
263.91        38.79095
264.37        37.94557
264.83        36.33303
265.28        34.17382
265.74        32.16456
266.19        31.11413
266.65        31.17076
267.11        31.83943
267.56        32.42008
268.02        32.09019
268.47        30.74899
268.93        28.70027
269.38        26.40744
269.84        24.90809
270.30        24.49417
270.75        24.86527
271.21        25.51307
271.66        25.67528
272.12        25.14213
272.57        24.17466
273.03        23.11356
273.48        22.38314
273.94        22.11946
274.39        22.12915
274.85        22.21389
275.31        22.10407
275.76        21.72141
276.22         21.1762
276.67        20.59951
277.13        20.24751
277.58        20.11438
278.04        20.13148
278.49        20.08821
278.95        19.73332
279.40        19.03132
279.86        18.14777
280.31        17.26332
280.77        16.74069
281.22        16.60796
281.68        16.74292
282.13        16.99488
282.59        17.17011
283.04        17.20862
283.50        17.20156
283.95        17.12288
284.41        16.94071
284.86         16.6717
285.32        16.32767
285.77         16.0506
286.22        16.11427
286.68        16.51983
287.13        17.15323
287.59        17.76324
288.04        17.97211
288.50         17.7327
288.95        17.16688
289.41        16.50621
289.86        16.00466
290.32        15.78792
290.77        15.76522
291.22        15.90181
291.68        16.10956
292.13        16.35964
292.59        16.67993
293.04         17.0789
293.50        17.55955
293.95        18.09953
294.40        18.65611
294.86        19.17258
295.31        19.58532
295.77        19.89004
296.22        20.11438
296.68        20.30712
297.13         20.5183
297.58        20.78852
298.04        21.12388
298.49        21.53792
298.95        22.08184
299.40        22.74321
299.85        23.49565
300.31        24.27274
300.76        24.98196
301.21        25.57065
301.67        26.07135
302.12         26.4579
302.58          26.748
303.03        26.94555
303.48        27.06826
303.94        27.20951
304.39        27.47853
304.84        27.89778
305.30        28.42323
305.75        28.93665
306.20        29.26297
306.66        29.38221
307.11        29.33888
307.57        29.23646
308.02        29.15914
308.47        29.16609
308.93        29.22621
309.38          29.333
309.83        29.50777
310.29         29.7286
310.74        29.97845
311.19        30.19907
311.65        30.29783
312.10        30.25368
312.55        30.09365
313.00        29.84817
313.46        29.58213
313.91        29.31885
314.36        29.06241
314.82        28.85154
315.27        28.72802
315.72        28.69998
316.18        28.75289
316.63        28.83696
317.08        28.84544
317.53        28.74563
317.99        28.55096
318.44        28.31834
318.89        28.14369
319.35        28.04097
319.80        27.98783
320.25        27.90453
320.70         27.6659
321.16        27.25612
321.61        26.72503
322.06         26.1806
322.51        25.78043
322.97        25.54871
323.42        25.44611
323.87        25.37465
324.32        25.17229
324.78        24.79757
325.23        24.30807
325.68        23.78535
326.13        23.36381
326.59         23.0781
327.04        22.90299
327.49        22.78561
327.94        22.64068
328.39        22.44279
328.85         22.2142
329.30        22.01071
329.75         21.8925
330.20         21.8754
330.66        21.91335
331.11         21.9824
331.56        22.00416
332.01        21.94803
332.46         21.8194
332.92        21.63007
333.37        21.42741
333.82        21.22689
334.27         21.0362
334.72        20.83211
335.17        20.57623
335.63        20.27071
336.08        19.93611
336.53        19.66313
336.98        19.59206
337.43        19.73824
337.88         20.0591
338.34        20.37757
338.79        20.44769
339.24        20.18822
339.69        19.66287
340.14        19.07329
340.59        18.77854
341.05        18.85704
341.50        19.19679
341.95        19.58809
342.40        19.71861
342.85        19.51937
343.30        19.10565
343.75        18.59709
344.20        18.20447
344.66        18.00281
345.11        17.88774
345.56        17.85261
346.01        17.88592
346.46        17.95401
346.91        18.08169
347.36        18.13013
347.81        17.87046
348.26        17.29577
348.72        16.51233
349.17        15.74013
349.62         15.4279
350.07        15.67281
350.52        16.32118
350.97        17.12584
351.42        17.70512
351.87        17.94106
352.32        17.93483
352.77        17.76239
353.22        17.55159
353.67        17.35597
354.13        17.13596
354.58        16.89496
355.03        16.68149
355.48         16.5107
355.93        16.40432
356.38        16.33613
356.83        16.24509
357.28        16.11567
357.73        15.95251
358.18        15.80161
358.63        15.73748
359.08        15.76787
359.53        15.86969
359.98        15.95265
360.43          15.879
360.88        15.62979
361.33        15.24936
361.78        14.86489
362.23        14.68381
362.68        14.74314
363.13        14.96325
363.58        15.20897
364.03        15.26918
364.48        15.09233
364.93        14.75674
365.38        14.33895
365.83        13.95992
366.28         13.6728
366.73        13.44394
367.18        13.29334
367.63        13.25575
368.08        13.31961
368.53        13.46987
368.98        13.64007
369.43        13.71803
369.88        13.68047
370.33        13.56426
370.78        13.39776
371.23        13.23951
371.68        13.11567
372.13        12.99586
372.58        12.93235
373.03        13.01142
373.48        13.22908
373.93        13.55842
374.38        13.85214
374.83        13.88107
375.28        13.61064
375.72        13.10293
376.17        12.55718
376.62        12.25956
377.07        12.28737
377.52        12.55057
377.97        12.90981
378.42         13.1365
378.87        13.16182
379.32        13.06055
379.77        12.90344
380.22        12.78997
380.67        12.74861
381.11        12.74001
381.56         12.7349
382.01        12.70211
382.46        12.63049
382.91        12.53628
383.36        12.43772
383.81        12.35591
384.26        12.29804
384.71        12.26088
385.15         12.2171
385.60        12.13332
386.05        11.99993
386.50        11.82081
386.95        11.64554
387.40        11.55959
387.85        11.58012
388.29         11.6818
388.74        11.78303
389.19        11.76975
389.64        11.63052
390.09        11.39668
390.54        11.16896
390.98         11.1152
391.43        11.27507
391.88        11.57723
392.33         11.8895
392.78        12.02007
393.23        11.93877
393.67        11.70833
394.12         11.4575
394.57        11.32174
395.02        11.33271
395.47         11.4455
395.91        11.59514
396.36        11.65205
396.81        11.58181
397.26        11.41734
397.71        11.23324
398.15        11.12372
398.60        11.12426
399.05        11.20522
399.50        11.28178
399.95        11.20436
400.39        11.00587
400.84        10.69075
401.29        10.39066
401.74         10.3227
402.18        10.54393
402.63        10.96116
403.08        11.41569
403.53        11.65649
403.97        11.61953
404.42        11.38419
404.87        11.05398
405.32        10.81132
405.76        10.72006
406.21        10.72398
406.66        10.78546
407.11        10.85651
407.55        10.91997
408.00        10.99522
408.45        11.06493
408.90        11.08046
409.34        11.03066
409.79        10.92333
410.24        10.80392
410.68        10.74189
411.13        10.75339
411.58        10.82545
412.03         10.9175
412.47        10.95774
412.92        10.91925
413.37        10.82328
413.81        10.72276
414.26        10.71084
414.71        10.79605
415.15        10.95192
415.60        11.09355
416.05        11.10583
416.49        10.96336
416.94        10.71563
417.39        10.44097
417.83        10.27392
418.28        10.25958
418.73        10.34556
419.17        10.48152
419.62        10.58051
420.07        10.61916
420.51        10.62606
420.96        10.59707
421.41        10.52072
421.85        10.40313
422.30        10.26134
422.74        10.13062
423.19        10.09021
423.64        10.13926
424.08        10.26202
424.53        10.39899
424.98        10.46622
425.42        10.44035
425.87        10.34089
426.31        10.19735
426.76        10.09067
427.21        10.02365
427.65        9.909306
428.10         9.80281
428.54        9.846987
428.99        10.04665
429.44        10.34133
429.88        10.60741
430.33        10.67868
430.77        10.53048
431.22        10.21447
431.66        9.874273
432.11         9.77081
432.56        9.928421
433.00        10.21708
433.45        10.50352
433.89        10.69227
434.34        10.70111
434.78        10.46986
435.23        10.16552
435.67        10.11543
436.12        10.28841
436.57         10.3232
437.01         10.1884
437.46        10.09031
437.90        10.05039
438.35        10.01281
438.79         9.96644
439.24        9.923144
439.68        9.886799
440.13        9.814555
440.57        9.733876
441.02        9.816089
441.46        9.986705
441.91        9.891896
442.35        9.584541
442.80        9.437943
443.24        9.432574
443.69        9.427879
444.13        9.384136
444.58        9.245977
445.02        9.052718
445.47        9.009089
445.91        9.078309
446.36        9.040028
446.80        8.882528
447.24        8.730239
447.69        8.626928
448.13        8.577515
448.58        8.595504
449.02        8.675441
449.47        8.767355
449.91        8.788561
450.36        8.723926
450.80          8.5934
451.25        8.458945
451.69        8.409479
452.13        8.465083
452.58        8.584001
453.02        8.714621
453.47        8.768803
453.91        8.730359
454.36        8.632753
454.80        8.505791
455.24        8.401437
455.69         8.34565
456.13        8.315084
456.58        8.324719
457.02        8.384163
457.46        8.491361
457.91        8.637691
458.35        8.782063
458.79        8.846187
459.24        8.823398
459.68        8.723771
460.13        8.613441
460.57        8.566555
461.01        8.613699
461.46        8.724893
461.90        8.855271
462.34        8.917768
462.79        8.892979
463.23        8.800297
463.68        8.703756
464.12        8.705181
464.56        8.827727
465.01        9.034324
465.45        9.226562
465.89        9.293126
466.34        9.225427
466.78         9.01658
467.22        8.775568
467.67         8.76441
468.11        8.970676
468.55         9.10747
468.99        9.133618
469.44        9.166956
469.88         9.22984
470.32         9.36334
470.77        9.514503
471.21        9.530707
471.65        9.396564
472.10        9.218492
472.54        9.066804
472.98        9.033413
473.42        9.141963
473.87        9.365049
474.31        9.615211
474.75        9.745257
475.20        9.727339
475.64        9.602675
476.08        9.453596
476.52        9.408032
476.97        9.495648
477.41        9.677546
477.85        9.883768
478.29        10.02042
478.74        10.06144
479.18         9.98785
479.62        9.858748
480.06        9.931951
480.50        10.01815
480.95        10.11853
481.39        10.13459
481.83        10.12451
482.27        10.08895
482.72        9.970406
483.16        9.819836
483.60        9.855834
484.04        10.08078
484.48        10.19872
484.93        10.38211
485.37        10.77411
485.81        11.24647
486.25        11.79383
486.69        15.27372
487.14         12.1007
487.58         8.12726
488.02        9.872303
488.46        11.16769
488.90        11.16188
489.34         11.2259
489.79        11.29294
490.23        12.07675
490.67        12.53477
491.11        12.47556
491.55        12.36085
491.99        12.19585
492.43        12.02837
492.88        11.92964
493.32        11.94467
493.76        12.00434
494.20        12.20372
494.64        12.50233
495.08        12.86893
495.52         13.2563
495.96        13.60872
496.41        13.86828
496.85        14.02879
497.29        14.10088
497.73        13.97205
498.17        13.81992
498.61         13.9819
499.05        14.46633
499.49        14.60625
499.93        14.75029
500.37        14.92061
500.82        15.05526
501.26        15.27399
501.70        15.49363
502.14        15.59153
502.58        15.57669
503.02        15.61484
503.46        15.71805
503.90        15.79281
504.34        15.82454
504.78        15.83032
505.22        15.81257
505.66        15.77976
506.10        15.74815
506.54        15.74212
506.98        15.77381
507.42        15.83723
507.86        15.94349
508.30        16.10944
508.74        16.32499
509.18        16.57176
509.62        16.80614
510.06        16.95717
510.50        17.00871
510.94        16.98899
511.38        16.92046
511.82        16.84108
512.26        16.77269
512.70        16.70489
513.14        16.67657
513.58        16.74855
514.02        16.91426
514.46        17.14821
514.90        17.37064
515.34        17.41751
515.78        17.23028
516.22         17.0179
516.66        16.87385
517.10        16.47953
517.54         15.8666
517.98        16.71296
518.42        16.51623
518.86        16.85202
519.30        16.95623
519.74        17.07768
520.18        17.18851
520.62        17.21067
521.06        17.16574
521.50        17.04942
521.93        16.90183
522.37        16.80197
522.81        16.76979
523.25        16.78908
523.69         16.8358
524.13        16.87065
524.57        16.87801
525.01        16.86382
525.45        16.83791
525.89        16.81558
526.32        16.79736
526.76        16.77993
527.20          16.737
527.64        16.63601
528.08        16.47987
528.52        16.26745
528.96        16.04617
529.40        15.93297
529.83        15.95122
530.27        15.90219
530.71        16.03728
531.15        16.00444
531.59        15.87864
532.03        15.68147
532.46        15.48418
532.90        15.40745
533.34        15.46887
533.78        15.62282
534.22        15.79191
534.66        15.86339
535.09         15.8063
535.53        15.66529
535.97        15.48292
536.41        15.32812
536.85        15.22972
537.28        15.17304
537.72         15.1523
538.16         15.1587
538.60        15.18733
539.04        15.22951
539.47        15.29328
539.91        15.42589
540.35        15.60829
540.79        15.76905
541.22        15.88457
541.66        15.98269
542.10         16.0593
542.54        16.08135
542.97        16.09324
543.41        16.19425
543.85        16.39648
544.29        16.68216
544.72        16.97588
545.16         17.1651
545.60        17.22836
546.04        17.19621
546.47        17.17122
546.91        17.32492
547.35        17.67686
547.79        18.16983
548.22        18.66479
548.66        18.92718
549.10        18.92282
549.53        18.75825
549.97        18.57115
550.41        18.52216
550.84        18.66511
551.28        18.96201
551.72        19.34854
552.15        19.70709
552.59        19.98589
553.03        20.21279
553.46         20.3967
553.90         20.5668
554.34        20.73706
554.77        20.86982
555.21        20.95606
555.65         21.0484
556.08        21.16016
556.52         21.0298
556.96        21.16915
557.39         21.2078
557.83        21.30547
558.27        21.43676
558.70        21.59598
559.14        21.75746
559.57        21.90146
560.01        22.04052
560.45        22.15745
560.88        22.22557
561.32        22.26083
561.75        22.25748
562.19        22.25021
562.63          22.263
563.06        22.30179
563.50        22.36648
563.93        22.45153
564.37        22.55726
564.80         22.6734
565.24        22.80916
565.68        22.94684
566.11         23.0601
566.55        23.16292
566.98        23.25673
567.42        23.37553
567.85        23.56471
568.29        23.84505
568.72        24.12871
569.16        24.41347
569.60        24.80057
570.03        25.17505
570.47        25.24285
570.90        25.12124
571.34        24.94605
571.77        25.29872
572.21        25.47261
572.64        25.66574
573.08        25.31085
573.51        24.57517
573.95        25.71013
574.38        27.42312
574.82        26.95886
