SpectraSmart Spectrum 2.9.0.0
--------- Device Information -----------
Spectrum Name :  反射率_0
Saving Time :  2024/04/26 00:56:23
Spectro-Module Model Name : SE2030-DUVN
Spectro-Module Serial Number : OS361AC55029948
Wavelength Start : 200
Wavelength End : 1025
Wavelength Unit : Wavelength(nm)
Spectrum Unit : Reflectance(%)
-----------Spectrum Setting ------------
Integration Time : 20ms
Average : 10
Boxcar : 0
Background removal :  enabled
linearity correction :  enabled
SC :  disabled
Intensity correction :  disabled
DWT denoise :  enabled
savitzky-golay :  disabled
FFT :  disabled
Running average :  disabled
Kalman :  disabled
High pass :  disabled
---------------BEGIN--------------------
Wavelength(nm)             Reflectance(%)
200.29               0
200.75        90.87019
201.21         88.3531
201.67        84.80154
202.13        82.46867
202.58        81.76296
203.04        82.47301
203.50        83.71716
203.96        84.12514
204.42        83.46144
204.88        82.22184
205.34         81.4323
205.80        82.32794
206.26        85.65385
206.72        93.35052
207.18        108.0812
207.64        119.5023
208.10        108.3997
208.55        89.22953
209.01        77.69608
209.47        74.08048
209.93        75.04881
210.39        79.12427
210.85        84.27513
211.31        86.09077
211.77        83.14487
212.23        77.10358
212.69        71.35941
213.14        71.22108
213.60        77.36357
214.06        88.08215
214.52        99.65446
214.98        106.5141
215.44        107.2316
215.90         103.684
216.36        98.40576
216.81        94.78729
217.27        94.07551
217.73        95.15709
218.19        96.41721
218.65        95.79018
219.11        92.55164
219.57        86.27056
220.02        78.55535
220.48        76.29124
220.94         82.3697
221.40        94.12011
221.86         103.439
222.32        102.5366
222.77        93.12622
223.23        80.61781
223.69        70.25931
224.15        67.44966
224.61        71.57758
225.06        79.86222
225.52        88.79968
225.98        93.80415
226.44        93.94076
226.90        91.06577
227.36        87.29858
227.81        85.47365
228.27        86.52388
228.73        89.06686
229.19        92.05278
229.65        94.02492
230.10        94.55006
230.56        94.51299
231.02        94.17109
231.48        93.78973
231.93        93.42569
232.39        92.99887
232.85        92.65669
233.31        92.80936
233.77        93.44747
234.22        94.48874
234.68        95.35427
235.14        94.98258
235.60        93.17593
236.05         90.4182
236.51        87.38412
236.97        84.86458
237.43        82.97796
237.88        81.48865
238.34        80.33312
238.80        80.00352
239.26         80.6538
239.71        82.58007
240.17        84.49467
240.63        84.64977
241.08        82.79427
241.54        79.38416
242.00        75.85994
242.46        74.11396
242.91        75.12067
243.37        79.95702
243.83        96.78361
244.28        151.0323
244.74        208.6755
245.20        172.8958
245.66        141.1233
246.11        129.8541
246.57        127.9689
247.03        132.6238
247.48         140.875
247.94        98.55991
248.40        79.81994
248.85        78.36121
249.31        80.24659
249.77        83.72794
250.22        89.11439
250.68        97.83456
251.14        109.4261
251.59        115.2403
252.05        107.8009
252.51        91.86181
252.96         76.1219
253.42        68.18286
253.88        67.34472
254.33        70.88021
254.79        77.70387
255.25        85.48042
255.70        92.38793
256.16         98.6884
256.62        102.8166
257.07        103.1849
257.53        100.8544
257.99        96.39089
258.44        91.45872
258.90        89.08839
259.35        88.41589
259.81        88.60555
260.27         88.0123
260.72        85.02559
261.18        80.48338
261.63         75.0403
262.09        70.12433
262.55        66.58499
263.00        64.36297
263.46        63.13779
263.91        62.23341
264.37        61.36108
264.83         60.2561
265.28         58.9299
265.74        57.58781
266.19        56.19938
266.65        55.02104
267.11        53.99318
267.56        53.02688
268.02        52.04902
268.47        50.94069
268.93        49.76109
269.38        48.58147
269.84        47.72689
270.30        47.26749
270.75        47.13152
271.21        47.11194
271.66         46.8885
272.12        46.37932
272.57        45.65324
273.03        44.92252
273.48        44.41055
273.94        44.19924
274.39        44.14993
274.85         44.1043
275.31        43.79442
275.76        43.15372
276.22        42.31464
276.67         41.4042
277.13        40.73828
277.58        40.30242
278.04        40.04956
278.49        39.76517
278.95        39.24977
279.40        38.43101
279.86        37.48093
280.31         36.4963
280.77        35.76321
281.22        35.28719
281.68        35.01175
282.13         34.8372
282.59        34.69364
283.04        34.51525
283.50        34.36035
283.95        34.14949
284.41        33.80493
284.86        33.30758
285.32        32.69833
285.77        32.09159
286.22        31.74099
286.68        31.66433
287.13        31.75634
287.59        31.83252
288.04        31.58623
288.50        31.00196
288.95        30.16958
289.41        29.29477
289.86        28.56299
290.32        28.08728
290.77        27.77454
291.22        27.60619
291.68        27.51517
292.13        27.46925
292.59        27.49301
293.04        27.56462
293.50        27.65402
293.95        27.73863
294.40        27.79432
294.86        27.82562
295.31        27.85126
295.77        27.88217
296.22        27.92358
296.68        27.95137
297.13        27.89791
297.58        27.78047
298.04        27.64311
298.49        27.58072
298.95        27.77316
299.40        28.22774
299.85        28.87038
300.31        29.55517
300.76        30.06557
301.21        30.32502
301.67        30.42045
302.12        30.38115
302.58        30.30912
303.03        30.22544
303.48        30.11811
303.94        30.06377
304.39        30.14655
304.84        30.37812
305.30        30.72469
305.75        31.05718
306.20        31.18391
306.66        31.08793
307.11         30.8197
307.57         30.5042
308.02        30.25506
308.47        30.13699
308.93        30.10868
309.38         30.1492
309.83        30.25827
310.29        30.40657
310.74         30.5817
311.19        30.72884
311.65        30.76029
312.10        30.65603
312.55        30.44076
313.00        30.14385
313.46        29.83012
313.91         29.5258
314.36        29.23916
314.82        29.01359
315.27        28.89654
315.72        28.89659
316.18        28.99551
316.63         29.1423
317.08        29.22686
317.53        29.21344
317.99        29.11664
318.44        28.98277
318.89        28.89385
319.35        28.86147
319.80        28.86278
320.25        28.83919
320.70        28.70061
321.16        28.43548
321.61        28.08389
322.06        27.71472
322.51        27.42682
322.97        27.23686
323.42        27.12564
323.87        27.04715
324.32        26.92649
324.78        26.74239
325.23        26.52514
325.68        26.30159
326.13        26.11738
326.59         25.9823
327.04        25.89907
327.49        25.84903
327.94        25.80777
328.39         25.7679
328.85        25.72398
329.30        25.72029
329.75        25.79189
330.20        25.94009
330.66        26.13081
331.11        26.32346
331.56        26.40929
332.01        26.36152
332.46        26.19485
332.92        25.97094
333.37        25.83789
333.82        25.83365
334.27        25.94032
334.72         26.0708
335.17        26.07203
335.63        25.90749
336.08        25.62948
336.53        25.36316
336.98        25.31289
337.43        25.51707
337.88        25.90918
338.34        26.31519
338.79        26.49959
339.24        26.37902
339.69        26.02978
340.14        25.61569
340.59        25.42203
341.05        25.51707
341.50        25.80681
341.95        26.15594
342.40        26.36973
342.85        26.39791
343.30        26.31553
343.75        26.15993
344.20        25.99489
344.66        25.85306
345.11        25.68017
345.56        25.52871
346.01        25.47901
346.46        25.53031
346.91        25.67803
347.36        25.78584
347.81        25.63005
348.26        25.19552
348.72        24.59146
349.17        23.99912
349.62        23.79462
350.07        24.05948
350.52        24.65723
350.97        25.38839
351.42        25.95052
351.87        26.24313
352.32        26.34162
352.77        26.28743
353.22        26.15233
353.67        25.97519
354.13        25.73955
354.58        25.46321
355.03         25.2193
355.48        25.03062
355.93         24.9042
356.38        24.82023
356.83         24.7298
357.28        24.61583
357.73        24.48501
358.18        24.35217
358.63        24.23987
359.08        24.15339
359.53        24.09007
359.98        24.01409
360.43        23.87374
360.88        23.66391
361.33        23.39479
361.78        23.14265
362.23        23.03158
362.68        23.07392
363.13        23.22035
363.58        23.35171
364.03        23.28168
364.48        22.97594
364.93        22.50571
365.38        21.97679
365.83        21.55949
366.28        21.31062
366.73        21.17991
367.18        21.14099
367.63        21.14776
368.08        21.16866
368.53        21.21667
368.98        21.25112
369.43         21.2024
369.88        21.06318
370.33        20.85271
370.78        20.61796
371.23        20.44828
371.68        20.37132
372.13         20.3563
372.58        20.39874
373.03        20.48542
373.48        20.59432
373.93        20.72681
374.38        20.81943
374.83         20.7743
375.28        20.58056
375.72        20.25642
376.17        19.91661
376.62        19.71056
377.07        19.67894
377.52        19.77647
377.97        19.92633
378.42        20.00089
378.87        19.96174
379.32        19.84893
379.77        19.70255
380.22        19.57855
380.67        19.49143
381.11        19.42048
381.56        19.34248
382.01        19.23264
382.46        19.08645
382.91        18.91736
383.36        18.75034
383.81        18.62014
384.26        18.53658
384.71        18.49353
385.15         18.4555
385.60        18.38119
386.05        18.25503
386.50        18.08377
386.95        17.91342
387.40        17.82562
387.85        17.83587
388.29        17.90931
388.74        17.98543
389.19         17.9579
389.64        17.81443
390.09        17.58328
390.54         17.3441
390.98        17.23104
391.43        17.28258
391.88        17.44201
392.33         17.6157
392.78        17.66558
393.23        17.57111
393.67        17.37689
394.12        17.17929
394.57        17.05239
395.02        17.01676
395.47        17.03823
395.91        17.09757
396.36         17.1397
396.81        17.14891
397.26        17.13059
397.71        17.08813
398.15        17.00738
398.60        16.91686
399.05        16.82698
399.50        16.72911
399.95        16.56273
400.39        16.40225
400.84        16.20411
401.29         16.0449
401.74        16.03028
402.18        16.18761
402.63        16.45878
403.08        16.75434
403.53         16.9287
403.97         16.9405
404.42        16.82694
404.87        16.63871
405.32        16.46964
405.76          16.356
406.21        16.28232
406.66        16.23412
407.11        16.19305
407.55        16.15785
408.00        16.13445
408.45         16.1324
408.90        16.15338
409.34        16.19257
409.79        16.24009
410.24        16.29107
410.68        16.34345
411.13        16.40013
411.58        16.46284
412.03        16.51674
412.47        16.54134
412.92        16.52222
413.37        16.46484
413.81        16.40328
414.26        16.40723
414.71        16.47571
415.15        16.58931
415.60        16.67556
416.05        16.63515
416.49        16.45065
416.94         16.1738
417.39        15.86571
417.83        15.63177
418.28        15.51908
418.73        15.48855
419.17        15.53949
419.62        15.66148
420.07        15.83479
420.51         16.0576
420.96        16.25362
421.41         16.2899
421.85        16.14075
422.30        15.87233
422.74        15.57606
423.19        15.41891
423.64        15.42037
424.08          15.543
424.53        15.71601
424.98        15.84297
425.42        15.89286
425.87        15.88593
426.31        15.84002
426.76        15.82943
427.21        15.84297
427.65        15.74883
428.10        15.62392
428.54        15.69319
428.99         15.9702
429.44        16.36203
429.88        16.69215
430.33        16.73613
430.77        16.46229
431.22        15.94875
431.66        15.41236
432.11        15.24353
432.56        15.47645
433.00        15.91268
433.45        16.35005
433.89         16.6414
434.34        16.66319
434.78        16.31967
435.23        15.86839
435.67        15.82734
436.12         16.1474
436.57        16.26178
437.01        16.11608
437.46        16.02644
437.90        16.02381
438.35        16.01869
438.79        15.98966
439.24         15.9481
439.68        15.90257
440.13        15.78901
440.57        15.66257
441.02        15.82088
441.46        16.14938
441.91        16.06656
442.35        15.64615
442.80        15.47388
443.24        15.52358
443.69        15.56675
444.13        15.54327
444.58        15.35912
445.02         15.0805
445.47        15.04142
445.91        15.18972
446.36         15.1683
446.80        14.95934
447.24        14.77264
447.69        14.65884
448.13        14.59619
448.58        14.60111
449.02        14.67267
449.47        14.76838
449.91        14.81685
450.36        14.80236
450.80        14.73938
451.25         14.6673
451.69        14.63789
452.13        14.66683
452.58        14.72454
453.02        14.78945
453.47         14.8258
453.91        14.82656
454.36        14.80986
454.80        14.77548
455.24        14.72046
455.69        14.65945
456.13        14.58751
456.58        14.54876
457.02        14.58628
457.46        14.71004
457.91        14.89631
458.35        15.09287
458.79        15.20988
459.24        15.23428
459.68        15.17601
460.13         15.0949
460.57        15.04625
461.01        15.06251
461.46        15.12025
461.90        15.18859
462.34        15.20896
462.79        15.16638
463.23        15.07544
463.68        14.99141
464.12        15.00574
464.56        15.13654
465.01        15.35943
465.45        15.56313
465.89        15.64209
466.34        15.58975
466.78        15.35477
467.22         15.0743
467.67        15.12301
468.11        15.45983
468.55        15.61878
468.99        15.54655
469.44        15.47475
469.88        15.45698
470.32        15.55022
470.77        15.70429
471.21        15.72359
471.65        15.59011
472.10        15.45988
472.54        15.37878
472.98        15.36995
473.42        15.44881
473.87        15.61223
474.31        15.79816
474.75        15.90362
475.20        15.91039
475.64        15.83808
476.08        15.74929
476.52        15.74137
476.97        15.83573
477.41        16.00498
477.85        16.18027
478.29        16.28196
478.74        16.29122
479.18        16.15494
479.62        15.94955
480.06           16.06
480.50        16.17406
480.95        16.31493
481.39        16.32599
481.83        16.30192
482.27        16.23675
482.72          16.016
483.16        15.74331
483.60        15.77934
484.04        16.12984
484.48        16.35638
484.93         16.6235
485.37        17.01161
485.81        17.47362
486.25        17.83592
486.69        23.37391
487.14          18.906
487.58        12.16056
488.02         14.6492
488.46         16.7722
488.90        16.68425
489.34        16.90464
489.79        16.78758
490.23         17.6464
490.67        18.12079
491.11        17.99826
491.55        17.87428
491.99        17.71081
492.43        17.50633
492.88        17.33708
493.32        17.32835
493.76        17.36671
494.20        17.53531
494.64        17.77638
495.08        18.07962
495.52        18.40593
495.96        18.69258
496.41        18.88249
496.85        19.00764
497.29        19.06918
497.73        18.84379
498.17        18.56208
498.61        18.71345
499.05        19.29636
499.49        19.39472
499.93        19.47451
500.37        19.56502
500.82        19.61721
501.26        19.83321
501.70        20.11058
502.14        20.28149
502.58        20.30104
503.02         20.2928
503.46        20.26021
503.90        20.11432
504.34        19.91994
504.78        19.82956
505.22        19.87139
505.66        20.00995
506.10        20.18677
506.54        20.29847
506.98         20.3164
507.42        20.27402
507.86        20.22765
508.30        20.26381
508.74         20.3989
509.18        20.59588
509.62        20.80413
510.06        20.94374
510.50         20.9942
510.94        20.99015
511.38        20.95711
511.82        20.93325
512.26        20.93459
512.70         20.9416
513.14        20.97311
513.58        21.06166
514.02        21.19486
514.46        21.35724
514.90        21.48883
515.34        21.45802
515.78        21.22094
516.22        20.97695
516.66        20.81555
517.10        20.43188
517.54        19.85427
517.98        20.67818
518.42        20.52471
518.86        20.90064
519.30        21.07367
519.74        21.27499
520.18        21.44946
520.62        21.47944
521.06        21.38062
521.50        21.16489
521.93        20.91206
522.37        20.76633
522.81        20.76332
523.25        20.86439
523.69        21.01489
524.13        21.12646
524.57        21.16982
525.01        21.16995
525.45        21.14098
525.89         21.1051
526.32        21.06945
526.76        21.02415
527.20        20.96548
527.64        20.89985
528.08        20.83323
528.52        20.74893
528.96        20.64996
529.40        20.59448
529.83        20.59738
530.27        20.43622
530.71        20.49762
531.15        20.42837
531.59        20.34805
532.03        20.25094
532.46        20.18756
532.90        20.23968
533.34        20.40484
533.78        20.64743
534.22        20.87864
534.66         20.9694
535.09        20.89035
535.53        20.69161
535.97        20.44065
536.41        20.25075
536.85        20.16055
537.28        20.14316
537.72        20.17055
538.16        20.19669
538.60        20.20607
539.04        20.19944
539.47        20.19544
539.91        20.26989
540.35        20.40418
540.79        20.50164
541.22        20.54563
541.66        20.59449
542.10         20.6454
542.54        20.65269
542.97        20.65166
543.41        20.73247
543.85        20.90276
544.29        21.14719
544.72        21.39419
545.16        21.54023
545.60         21.5646
546.04        21.49334
546.47        21.42724
546.91         21.5367
547.35        21.83973
547.79        22.28234
548.22        22.72134
548.66        22.91397
549.10        22.82858
549.53        22.58156
549.97        22.31914
550.41         22.2069
550.84        22.30058
551.28        22.56051
551.72        22.91894
552.15         23.2508
552.59        23.50204
553.03         23.7028
553.46        23.85651
553.90        23.98777
554.34        24.11031
554.77        24.18516
555.21        24.21255
555.65        24.27175
556.08        24.38192
556.52        24.23363
556.96        24.40392
557.39         24.4464
557.83        24.53884
558.27        24.65577
558.70        24.79613
559.14        24.94177
559.57        25.07257
560.01        25.19852
560.45        25.29635
560.88        25.33031
561.32         25.3187
561.75        25.26207
562.19        25.20346
562.63        25.17409
563.06        25.18262
563.50        25.22658
563.93        25.30411
564.37        25.42325
564.80        25.56994
565.24        25.74903
565.68        25.92496
566.11        26.04546
566.55        26.12074
566.98        26.15746
567.42        26.20598
567.85        26.33968
568.29        26.58848
568.72         26.8481
569.16        27.10959
569.60        27.47359
570.03        27.81209
570.47        27.80392
570.90        27.58143
571.34        27.33215
571.77          27.702
572.21        27.83325
572.64        27.92811
573.08        27.67459
573.51        26.76085
573.95        27.91071
574.38        29.63636
574.82        29.03538
