SpectraSmart Spectrum 2.9.0.0
--------- Device Information -----------
Spectrum Name :  反射率_0
Saving Time :  2024/04/26 00:49:09
Spectro-Module Model Name : SE2030-DUVN
Spectro-Module Serial Number : OS361AC55029948
Wavelength Start : 200
Wavelength End : 1025
Wavelength Unit : Wavelength(nm)
Spectrum Unit : Reflectance(%)
-----------Spectrum Setting ------------
Integration Time : 20ms
Average : 10
Boxcar : 0
Background removal :  enabled
linearity correction :  enabled
SC :  disabled
Intensity correction :  disabled
DWT denoise :  enabled
savitzky-golay :  disabled
FFT :  disabled
Running average :  disabled
Kalman :  disabled
High pass :  disabled
---------------BEGIN--------------------
Wavelength(nm)             Reflectance(%)
200.29               0
200.75          87.631
201.21         80.1752
201.67        71.12149
202.13        65.47164
202.58        63.88454
203.04        65.24027
203.50        67.87082
203.96        68.98351
204.42        67.90598
204.88        65.80424
205.34        63.75767
205.80        62.64235
206.26        62.61508
206.72        63.82798
207.18        66.19442
207.64        65.87964
208.10        59.87284
208.55         53.9882
209.01        51.67144
209.47        52.69839
209.93        56.00203
210.39        61.54778
210.85        67.32045
211.31        68.55244
211.77        63.82992
212.23         54.8058
212.69         45.9426
213.14        44.21655
213.60        50.62779
214.06        63.28933
214.52        77.00793
214.98        83.76852
215.44        81.82871
215.90        73.93661
216.36        64.41598
216.81        59.32191
217.27        59.89951
217.73        63.72438
218.19        67.43914
218.65         66.7091
219.11        60.05097
219.57        47.03171
220.02        29.22847
220.48        17.01185
220.94        17.15002
221.40        27.52156
221.86        39.29168
222.32        42.82571
222.77        38.57348
223.23        31.17867
223.69        25.28479
224.15        25.64735
224.61        31.70345
225.06        40.94863
225.52        49.90618
225.98        54.16907
226.44        52.95891
226.90        48.25995
227.36        42.46769
227.81        38.78114
228.27        38.28186
228.73        39.71461
229.19        42.15663
229.65        44.24916
230.10        45.50154
230.56        46.39845
231.02        47.10189
231.48        47.73833
231.93        48.34034
232.39         48.7921
232.85        49.08071
233.31        49.29493
233.77        49.41876
234.22        49.43172
234.68        49.23917
235.14         48.6246
235.60         47.6106
236.05        46.38404
236.51        45.12939
236.97        43.96342
237.43        42.91873
237.88        42.02277
238.34        41.40255
238.80        41.54104
239.26        42.62056
239.71         44.5457
240.17        46.87191
240.63        49.23331
241.08        51.44147
241.54        53.43178
242.00        54.92566
242.46        55.63012
242.91        55.55814
243.37        53.78289
243.83        50.06638
244.28        55.84793
244.74        96.05465
245.20         115.468
245.66        112.8889
246.11        110.7427
246.57        110.2597
247.03        110.0976
247.48        98.37009
247.94        60.02462
248.40        61.69987
248.85        67.09336
249.31        71.09692
249.77        74.81473
250.22        79.35532
250.68        86.23581
251.14        95.01553
251.59        98.62598
252.05        91.36354
252.51        77.12686
252.96        63.10529
253.42        55.42939
253.88        53.30139
254.33        54.62797
254.79        58.53917
255.25        63.12416
255.70        67.21139
256.16        71.12895
256.62        73.60584
257.07        73.35169
257.53        71.09246
257.99        67.16454
258.44        63.17679
258.90         61.8398
259.35        62.27938
259.81        63.49308
260.27        63.63298
260.72        60.92533
261.18        56.17987
261.63        50.28152
262.09        44.97298
262.55         41.6332
263.00        40.16953
263.46        39.92232
263.91        39.84196
264.37        39.04561
264.83        37.38943
265.28        35.14204
265.74        32.99651
266.19        31.76248
266.65        31.63054
267.11        32.11845
267.56        32.61779
268.02        32.41901
268.47        31.41385
268.93        29.86943
269.38        28.11511
269.84        26.93066
270.30         26.5309
270.75        26.68955
271.21        27.04716
271.66        27.07483
272.12          26.622
272.57        25.87298
273.03        25.07445
273.48        24.50949
273.94        24.27612
274.39        24.22728
274.85        24.22482
275.31        24.07492
275.76        23.71921
276.22        23.25014
276.67        22.74281
277.13        22.38137
277.58        22.15603
278.04        22.03332
278.49        21.88537
278.95        21.58126
279.40        21.08568
279.86        20.51017
280.31        19.92708
280.77        19.54301
281.22         19.3571
281.68        19.31473
282.13         19.3422
282.59        19.36314
283.04         19.3406
283.50        19.32065
283.95        19.25372
284.41         19.0788
284.86        18.79348
285.32        18.42691
285.77        18.09112
286.22        18.01223
286.68        18.19757
287.13         18.5568
287.59        18.90235
288.04        18.94967
288.50        18.67088
288.95        18.15478
289.41        17.58593
289.86        17.14631
290.32        16.93584
290.77        16.87298
291.22        16.93751
291.68        17.06457
292.13        17.22967
292.59        17.45386
293.04         17.7229
293.50        18.00867
293.95        18.29465
294.40        18.56201
294.86        18.80785
295.31        19.04516
295.77        19.28373
296.22        19.52641
296.68        19.77314
297.13        19.99352
297.58        20.20251
298.04        20.42623
298.49        20.70437
298.95        21.12892
299.40        21.70168
299.85        22.38541
300.31        23.10102
300.76           23.74
301.21        24.24747
301.67        24.66128
302.12        24.97854
302.58        25.24566
303.03        25.46636
303.48        25.64404
303.94        25.83186
304.39        26.07916
304.84        26.40292
305.30        26.78742
305.75        27.16177
306.20        27.42248
306.66        27.56694
307.11        27.61397
307.57         27.6421
308.02        27.70282
308.47        27.83643
308.93        28.01517
309.38        28.22066
309.83        28.45394
310.29        28.69174
310.74        28.92575
311.19        29.11083
311.65        29.17748
312.10         29.1169
312.55        28.95442
313.00        28.73434
313.46        28.54029
313.91        28.39295
314.36        28.28611
314.82        28.23066
315.27        28.22637
315.72        28.27316
316.18        28.37129
316.63        28.48483
317.08        28.53183
317.53        28.49004
317.99         28.3636
318.44        28.22049
318.89         28.1755
319.35        28.24161
319.80        28.39155
320.25        28.51072
320.70        28.41146
321.16        28.06218
321.61        27.52986
322.06        26.96199
322.51        26.58124
322.97        26.43106
323.42        26.45681
323.87        26.53813
324.32        26.47108
324.78        26.19878
325.23        25.79272
325.68        25.34738
326.13         25.0178
326.59        24.84447
327.04        24.79249
327.49        24.79838
327.94        24.76363
328.39         24.6569
328.85        24.50192
329.30        24.36126
329.75        24.30154
330.20        24.34074
330.66        24.43198
331.11        24.54433
331.56        24.58764
332.01        24.53203
332.46        24.38788
332.92         24.1867
333.37        24.01474
333.82        23.89621
334.27        23.83241
334.72        23.76985
335.17        23.61668
335.63        23.35997
336.08        23.03397
336.53        22.76291
336.98        22.74457
337.43        23.00724
337.88        23.48876
338.34         23.9784
338.79        24.17773
339.24        23.98952
339.69        23.49623
340.14        22.91971
340.59        22.65233
341.05        22.78612
341.50        23.19603
341.95        23.66814
342.40        23.88937
342.85        23.78693
343.30        23.47342
343.75        23.06169
344.20        22.74622
344.66        22.59724
345.11        22.51928
345.56        22.49657
346.01        22.50578
346.46        22.52024
346.91        22.57023
347.36        22.56344
347.81        22.34262
348.26        21.90962
348.72        21.34747
349.17        20.80655
349.62         20.6184
350.07        20.85005
350.52        21.38013
350.97        22.03018
351.42        22.52621
351.87        22.77773
352.32        22.85657
352.77        22.78728
353.22        22.61557
353.67        22.37856
354.13        22.06951
354.58        21.74265
355.03        21.52492
355.48        21.44589
355.93        21.49248
356.38        21.59035
356.83        21.60627
357.28        21.50205
357.73        21.30447
358.18           21.08
358.63        20.93558
359.08        20.89455
359.53        20.92728
359.98        20.94812
360.43         20.8267
360.88        20.54606
361.33        20.15351
361.78        19.77423
362.23        19.60779
362.68        19.68754
363.13        19.93377
363.58        20.20649
364.03        20.28873
364.48        20.12709
364.93        19.79819
365.38        19.38317
365.83        19.01289
366.28        18.74004
366.73        18.52444
367.18        18.37762
367.63        18.32069
368.08         18.3405
368.53        18.43171
368.98        18.52995
369.43        18.52529
369.88        18.39798
370.33        18.18284
370.78        17.92846
371.23        17.72557
371.68        17.60672
372.13        17.53813
372.58        17.53345
373.03        17.61197
373.48        17.75755
373.93        17.96343
374.38        18.13979
374.83        18.14628
375.28        17.96356
375.72        17.62256
376.17        17.25969
376.62        17.06091
377.07        17.07438
377.52         17.2373
377.97        17.45846
378.42        17.58796
378.87        17.57922
379.32        17.48365
379.77        17.33702
380.22        17.18678
380.67        17.05362
381.11        16.92274
381.56        16.79875
382.01        16.70313
382.46        16.63829
382.91        16.59874
383.36        16.57793
383.81        16.55886
384.26        16.53278
384.71        16.50593
385.15        16.45145
385.60        16.34064
386.05        16.16801
386.50        15.93957
386.95        15.71489
387.40        15.59931
387.85        15.61629
388.29         15.7289
388.74        15.85968
389.19        15.88846
389.64        15.79551
390.09        15.60443
390.54        15.39897
390.98        15.31846
391.43        15.40086
391.88        15.59506
392.33        15.77903
392.78        15.77504
393.23        15.56846
393.67        15.22225
394.12        14.89877
394.57        14.76933
395.02        14.86401
395.47        15.12181
395.91        15.43254
396.36        15.57706
396.81        15.49503
397.26        15.24552
397.71        14.93943
398.15        14.72699
398.60        14.66693
399.05        14.71089
399.50        14.77455
399.95        14.69958
400.39        14.53016
400.84        14.26541
401.29        14.01916
401.74        13.96424
402.18        14.14983
402.63        14.49184
403.08        14.87268
403.53        15.10773
403.97        15.14474
404.42        15.03868
404.87        14.84934
405.32         14.6838
405.76        14.58346
406.21        14.52086
406.66        14.48845
407.11        14.48083
407.55        14.49524
408.00        14.53688
408.45          14.587
408.90        14.59517
409.34         14.5474
409.79        14.45464
410.24        14.35738
410.68        14.31468
411.13        14.34117
411.58        14.42448
412.03        14.52162
412.47        14.56025
412.92        14.51174
413.37        14.39746
413.81        14.28006
414.26        14.26964
414.71        14.37624
415.15        14.56983
415.60        14.74924
416.05        14.77192
416.49         14.6086
416.94        14.31776
417.39        13.99856
417.83        13.81982
418.28         13.8348
418.73        13.97775
419.17        14.18099
419.62        14.33644
420.07         14.4118
420.51        14.44155
420.96        14.42177
421.41         14.3419
421.85        14.21042
422.30        14.04986
422.74        13.89767
423.19        13.84377
423.64        13.88839
424.08        14.01608
424.53        14.17136
424.98        14.28109
425.42        14.32227
425.87        14.30421
426.31         14.2394
426.76        14.19343
427.21        14.15835
427.65        14.02482
428.10        13.87262
428.54        13.91495
428.99        14.16744
429.44        14.54092
429.88        14.87685
430.33        14.97138
430.77        14.78932
431.22        14.39559
431.66         13.9681
432.11        13.83694
432.56        14.02993
433.00        14.37265
433.45        14.69936
433.89        14.91615
434.34        14.92677
434.78        14.63587
435.23        14.26165
435.67        14.25028
436.12        14.55472
436.57        14.67279
437.01        14.55404
437.46        14.48108
437.90        14.48263
438.35        14.47541
438.79         14.4497
439.24        14.43403
439.68        14.43589
440.13        14.38751
440.57        14.31995
441.02        14.47541
441.46         14.7418
441.91         14.6007
442.35        14.13856
442.80        13.90745
443.24        13.88923
443.69         13.8795
444.13        13.82721
444.58        13.65412
445.02        13.41886
445.47        13.41416
445.91        13.59903
446.36        13.66117
446.80         13.5761
447.24        13.52482
447.69        13.52434
448.13        13.50877
448.58        13.48761
449.02        13.47639
449.47         13.4747
449.91         13.4809
450.36        13.49699
450.80        13.51533
451.25        13.54638
451.69        13.59523
452.13        13.66193
452.58        13.73227
453.02         13.7901
453.47        13.80619
453.91        13.77948
454.36        13.72438
454.80         13.6512
455.24        13.57808
455.69        13.52286
456.13        13.47482
456.58         13.4644
457.02        13.51402
457.46        13.62801
457.91        13.79016
458.35          13.953
458.79        14.03349
459.24         14.0238
459.68        13.93436
460.13        13.83073
460.57         13.7789
461.01        13.81125
461.46        13.89938
461.90        14.00569
462.34         14.0599
462.79        14.04253
463.23        13.96935
463.68        13.89173
464.12        13.89478
464.56        13.99847
465.01        14.18169
465.45         14.3463
465.89        14.40003
466.34        14.33926
466.78        14.11806
467.22        13.86442
467.67        13.92512
468.11        14.26284
468.55        14.44638
468.99        14.42165
469.44        14.39683
469.88        14.41818
470.32        14.53738
470.77        14.70477
471.21        14.73433
471.65        14.60902
472.10        14.47818
472.54        14.38714
472.98        14.36264
473.42         14.4224
473.87        14.56309
474.31        14.73217
474.75        14.84002
475.20        14.86921
475.64         14.8353
476.08        14.78645
476.52        14.79777
476.97        14.88616
477.41        15.03096
477.85        15.17716
478.29        15.26654
478.74          15.286
479.18        15.18008
479.62        15.01467
480.06         15.1435
480.50        15.27077
480.95        15.42161
481.39        15.44764
481.83        15.44244
482.27        15.39826
482.72        15.19326
483.16        14.93621
483.60         14.9957
484.04        15.38641
484.48        15.68171
484.93        16.02789
485.37        16.43041
485.81        16.74665
486.25        16.93064
486.69        22.20335
487.14        17.46171
487.58        11.80009
488.02        14.59932
488.46        16.32419
488.90        16.39845
489.34        16.58135
489.79        16.52606
490.23        17.33017
490.67        17.80524
491.11        17.73227
491.55        17.62101
491.99        17.45359
492.43        17.29513
492.88         17.2208
493.32        17.30434
493.76        17.42123
494.20        17.66784
494.64        17.98214
495.08        18.33271
495.52        18.69102
495.96        19.03986
496.41         19.3152
496.85        19.49386
497.29        19.57415
497.73        19.36644
498.17        19.10756
498.61        19.27673
499.05        19.88236
499.49        20.00854
499.93        20.13882
500.37        20.29675
500.82        20.41473
501.26        20.67767
501.70        20.97627
502.14        21.14374
502.58        21.15675
503.02        21.18181
503.46        21.22812
503.90        21.18663
504.34        21.09738
504.78        21.07788
505.22        21.14684
505.66        21.28171
506.10        21.43476
506.54        21.52086
506.98        21.52236
507.42        21.46956
507.86        21.42826
508.30        21.49989
508.74        21.70044
509.18        21.98673
509.62        22.29095
510.06        22.50331
510.50        22.59219
510.94        22.59752
511.38        22.55065
511.82        22.50088
512.26        22.47184
512.70        22.44547
513.14        22.44561
513.58        22.51298
514.02        22.63895
514.46        22.80672
514.90        22.96124
515.34        22.97734
515.78         22.8081
516.22        22.64444
516.66        22.55321
517.10        22.20333
517.54        21.61676
517.98        22.36546
518.42        22.14598
518.86        22.47161
519.30        22.63572
519.74        22.85301
520.18        23.05924
520.62         23.1218
521.06        23.04804
521.50        22.85498
521.93        22.61535
522.37        22.46079
522.81        22.42674
523.25        22.47821
523.69        22.57424
524.13        22.64859
524.57         22.6778
525.01        22.68186
525.45         22.6664
525.89        22.63903
526.32        22.60111
526.76        22.54534
527.20        22.47216
527.64         22.3946
528.08        22.32053
528.52        22.23043
528.96        22.11923
529.40        22.03742
529.83        22.00043
530.27        21.77571
530.71        21.79218
531.15        21.69893
531.59        21.62596
532.03          21.557
532.46        21.52503
532.90        21.58204
533.34        21.71804
533.78        21.90942
534.22        22.07723
534.66        22.10691
535.09        21.97588
535.53        21.73116
535.97        21.44744
536.41         21.2496
536.85        21.17705
537.28        21.20077
537.72        21.27876
538.16         21.3406
538.60        21.36563
539.04        21.36109
539.47        21.35826
539.91        21.45696
540.35        21.64172
540.79        21.80086
541.22        21.91126
541.66        22.02787
542.10        22.14201
542.54        22.20579
542.97        22.24739
543.41        22.34825
543.85        22.51674
544.29        22.74306
544.72        22.96703
545.16        23.10402
545.60        23.13937
546.04        23.09521
546.47        23.07135
546.91        23.23485
547.35        23.60043
547.79        24.11577
548.22        24.62761
548.66          24.877
549.10        24.82862
549.53        24.60135
549.97        24.35582
550.41        24.27782
550.84        24.42715
551.28         24.7607
551.72        25.18795
552.15        25.54362
552.59        25.76847
553.03        25.90914
553.46        26.00254
553.90        26.12476
554.34        26.29889
554.77        26.46671
555.21        26.60019
555.65        26.73933
556.08        26.89069
556.52        26.72564
556.96        26.89404
557.39        26.92561
557.83        27.02222
558.27        27.14499
558.70        27.29156
559.14        27.44208
559.57        27.57487
560.01        27.70897
560.45        27.80997
560.88        27.82245
561.32        27.76722
561.75         27.6498
562.19        27.54597
562.63        27.53377
563.06        27.62558
563.50        27.80151
563.93        28.01537
564.37        28.20609
564.80        28.34235
565.24        28.45186
565.68        28.53647
566.11        28.60269
566.55         28.6778
566.98        28.74972
567.42        28.84717
567.85        29.00915
568.29        29.25686
568.72        29.49456
569.16        29.73957
569.60        30.10089
570.03        30.43774
570.47        30.45915
570.90        30.31085
571.34         29.8674
571.77        30.38902
572.21        30.47097
572.64        30.50209
573.08        30.21404
573.51        29.24247
573.95        30.43142
574.38        32.12987
574.82        31.58174
