SpectraSmart Spectrum 2.9.0.0
--------- Device Information -----------
Spectrum Name :  反射率_0
Saving Time :  2024/04/25 23:36:57
Spectro-Module Model Name : SE2030-DUVN
Spectro-Module Serial Number : OS361AC55029948
Wavelength Start : 200
Wavelength End : 1025
Wavelength Unit : Wavelength(nm)
Spectrum Unit : Reflectance(%)
-----------Spectrum Setting ------------
Integration Time : 20ms
Average : 10
Boxcar : 0
Background removal :  enabled
linearity correction :  enabled
SC :  disabled
Intensity correction :  disabled
DWT denoise :  enabled
savitzky-golay :  disabled
FFT :  disabled
Running average :  disabled
Kalman :  disabled
High pass :  disabled
---------------BEGIN--------------------
Wavelength(nm)             Reflectance(%)
200.29               0
200.75        89.67061
201.21        87.24715
201.67        83.07763
202.13        79.09269
202.58        75.77168
203.04        73.04781
203.50        70.74488
203.96        68.92417
204.42        67.71143
204.88        67.06094
205.34         67.0239
205.80        67.68057
206.26        69.26228
206.72        72.82661
207.18        79.27917
207.64        83.05334
208.10        75.92642
208.55        65.74306
209.01        60.11433
209.47        59.15725
209.93        61.02601
210.39        65.19745
210.85         69.6962
211.31        70.11182
211.77        65.24837
212.23        56.76601
212.69         48.6676
213.14        47.17979
213.60        53.18269
214.06        64.98019
214.52        78.08955
214.98        85.59907
215.44        85.81028
215.90        80.91546
216.36        74.31067
216.81        70.70782
217.27        71.24921
217.73        74.10892
218.19        76.68515
218.65        75.60323
219.11        69.64339
219.57        58.20757
220.02        42.74737
220.48         32.5144
220.94         33.1996
221.40        42.73679
221.86        52.61922
222.32        53.68016
222.77        46.75238
223.23        36.75642
223.69        28.46888
224.15        26.71613
224.61        30.91389
225.06        38.50096
225.52        46.07793
225.98        49.42582
226.44         47.7911
226.90        43.07611
227.36        37.51548
227.81        34.07318
228.27        33.73047
228.73        35.23434
229.19        37.68894
229.65        39.80169
230.10        41.07059
230.56        41.91586
231.02        42.44265
231.48        42.69423
231.93        42.73457
232.39        42.52889
232.85        42.14981
233.31        41.80321
233.77        41.52695
234.22        41.26285
234.68        41.02354
235.14        40.74236
235.60        40.44025
236.05          40.247
236.51        40.09624
236.97        39.80285
237.43        39.37282
237.88        38.86654
238.34        38.65691
238.80        39.73529
239.26        42.43695
239.71        46.51008
240.17        50.90577
240.63        54.27134
241.08        56.16144
241.54        56.70089
242.00        56.45699
242.46        56.31321
242.91        56.78767
243.37        57.99079
243.83        62.71217
244.28        83.46188
244.74        116.7749
245.20        111.4379
245.66        100.5611
246.11        97.98175
246.57        101.6251
247.03        115.3322
247.48         155.908
247.94        137.9603
248.40        95.27205
248.85        81.73972
249.31         78.0817
249.77        78.74429
250.22        82.21581
250.68        88.73965
251.14        97.84431
251.59        102.6119
252.05        96.98729
252.51        84.76127
252.96        72.21913
253.42         64.8593
253.88        62.08886
254.33        61.97329
254.79        64.36747
255.25        68.44756
255.70        72.98698
256.16        77.71728
256.62        80.84556
257.07        80.56693
257.53        77.70177
257.99        72.92667
258.44        67.96181
258.90        65.68333
259.35        65.31586
259.81         65.8504
260.27        65.57193
260.72        62.84019
261.18        58.35788
261.63        52.85698
262.09        47.87217
262.55         44.5223
263.00        42.75632
263.46        42.09614
263.91        41.62231
264.37        40.59677
264.83        38.86979
265.28        36.62868
265.74        34.55206
266.19        33.42478
266.65        33.40495
267.11        34.00655
267.56        34.55688
268.02        34.27217
268.47        33.04325
268.93        31.16427
269.38        29.04298
269.84        27.61401
270.30        27.14813
270.75        27.38149
271.21        27.88512
271.66        28.01702
272.12        27.59247
272.57        26.82383
273.03        25.99456
273.48        25.44113
273.94        25.27039
274.39        25.30836
274.85        25.37491
275.31        25.21908
275.76        24.77798
276.22        24.17354
276.67        23.53457
277.13        23.12124
277.58        22.93632
278.04        22.92118
278.49        22.89573
278.95         22.6623
279.40        22.16676
279.86        21.53279
280.31        20.87518
280.77        20.46624
281.22        20.31249
281.68        20.34367
282.13        20.41823
282.59        20.36457
283.04        20.14603
283.50        19.85764
283.95        19.55289
284.41        19.32577
284.86        19.19759
285.32        19.13418
285.77        19.14822
286.22        19.32006
286.68         19.6139
287.13        19.97565
287.59        20.26334
288.04        20.25968
288.50        19.96194
288.95        19.44261
289.41        18.86653
289.86        18.38669
290.32        18.10629
290.77         17.9628
291.22        17.98381
291.68        18.16842
292.13        18.50068
292.59        18.98186
293.04         19.5314
293.50        20.01826
293.95        20.39874
294.40        20.67436
294.86        20.91288
295.31        21.24056
295.77        21.68744
296.22        22.21894
296.68        22.74534
297.13        23.09207
297.58        23.24639
298.04        23.28923
298.49        23.36243
298.95        23.71543
299.40        24.38613
299.85        25.28618
300.31        26.25995
300.76        27.07308
301.21         27.6368
301.67        28.03765
302.12        28.31074
302.58        28.56347
303.03        28.81316
303.48        29.03375
303.94        29.27517
304.39        29.58612
304.84        29.97146
305.30        30.41047
305.75          30.799
306.20        30.98295
306.66         30.9594
307.11        30.77538
307.57        30.54764
308.02         30.3748
308.47        30.32267
308.93        30.36085
309.38        30.48191
309.83        30.70445
310.29        30.99632
310.74        31.32601
311.19        31.62353
311.65        31.78158
312.10        31.77119
312.55        31.62392
313.00        31.35252
313.46        30.99728
313.91        30.58875
314.36        30.14784
314.82        29.76934
315.27        29.57577
315.72        29.59153
316.18        29.78233
316.63        30.04448
317.08        30.17728
317.53        30.12145
317.99        29.91492
318.44        29.65912
318.89        29.52407
319.35        29.54098
319.80        29.66054
320.25         29.7638
320.70        29.66049
321.16        29.31589
321.61        28.80452
322.06        28.26238
322.51        27.89086
322.97        27.72733
323.42        27.71556
323.87        27.75347
324.32        27.67093
324.78        27.41822
325.23         27.0617
325.68        26.65869
326.13        26.30379
326.59        26.02748
327.04        25.81379
327.49        25.65959
327.94        25.56676
328.39        25.52821
328.85         25.5396
329.30        25.59398
329.75        25.63467
330.20        25.64265
330.66        25.60461
331.11        25.55304
331.56        25.50019
332.01        25.44704
332.46        25.37667
332.92        25.27519
333.37        25.15026
333.82        24.99834
334.27        24.84479
334.72         24.6809
335.17        24.48842
335.63        24.27288
336.08        24.04135
336.53        23.86882
336.98        23.87852
337.43        24.08072
337.88         24.4392
338.34        24.78468
338.79        24.88593
339.24        24.66841
339.69        24.19771
340.14         23.6724
340.59        23.44367
341.05        23.58875
341.50        23.99465
341.95        24.46351
342.40        24.70451
342.85        24.64964
343.30         24.4027
343.75        24.05497
344.20        23.76782
344.66        23.60221
345.11        23.46956
345.56        23.38613
346.01        23.37593
346.46        23.42177
346.91        23.54476
347.36        23.60905
347.81        23.38903
348.26        22.87586
348.72        22.17248
349.17        21.49449
349.62        21.27964
350.07         21.6137
350.52        22.33694
350.97        23.18781
351.42        23.76597
351.87        23.95566
352.32        23.87221
352.77        23.60978
353.22        23.32505
353.67        23.08427
354.13        22.84131
354.58        22.60818
355.03        22.44694
355.48          22.365
355.93        22.37291
356.38        22.40808
356.83        22.35151
357.28        22.17743
357.73        21.91302
358.18        21.63285
358.63        21.45883
359.08        21.41817
359.53        21.47529
359.98        21.54852
360.43        21.51267
360.88        21.34077
361.33        21.06818
361.78        20.78515
362.23        20.63776
362.68        20.64981
363.13        20.76186
363.58        20.86682
364.03        20.80015
364.48        20.52923
364.93        20.12257
365.38        19.66325
365.83        19.28047
366.28        19.02427
366.73        18.85943
367.18        18.78286
367.63        18.78859
368.08        18.85333
368.53        18.96895
368.98         19.0857
369.43        19.12181
369.88        19.06079
370.33        18.92817
370.78        18.74443
371.23        18.55425
371.68        18.38251
372.13        18.21291
372.58         18.0975
373.03        18.12047
373.48        18.28164
373.93        18.55005
374.38        18.80587
374.83        18.86214
375.28        18.68447
375.72        18.32081
376.17        17.90755
376.62         17.6305
377.07         17.5469
377.52        17.59642
377.97        17.71815
378.42        17.81102
378.87        17.83622
379.32        17.82944
379.77        17.78983
380.22         17.7111
380.67         17.5984
381.11        17.44589
381.56        17.27968
382.01        17.15765
382.46        17.09343
382.91        17.07582
383.36         17.0702
383.81         17.0157
384.26        16.90159
384.71        16.75296
385.15          16.597
385.60        16.48303
386.05         16.4134
386.50        16.36293
386.95        16.32397
387.40        16.28643
387.85         16.2468
388.29        16.21553
388.74        16.17404
389.19        16.07063
389.64        15.90443
390.09        15.68253
390.54        15.48009
390.98        15.42454
391.43         15.5437
391.88        15.78192
392.33        16.02283
392.78        16.09414
393.23         15.9734
393.67        15.71736
394.12        15.44896
394.57        15.28549
395.02        15.25419
395.47        15.30811
395.91        15.40583
396.36        15.45445
396.81        15.42609
397.26        15.34077
397.71        15.21992
398.15        15.07666
398.60        14.94568
399.05         14.8301
399.50        14.71327
399.95        14.52862
400.39        14.33838
400.84        14.10948
401.29        13.92244
401.74        13.89411
402.18         14.0548
402.63        14.34373
403.08        14.66206
403.53        14.85034
403.97        14.86444
404.42        14.74669
404.87        14.55609
405.32        14.40109
405.76        14.31965
406.21        14.28525
406.66        14.27624
407.11        14.26552
407.55        14.24724
408.00        14.23018
408.45        14.21603
408.90         14.1951
409.34        14.16475
409.79        14.12319
410.24        14.08315
410.68        14.06377
411.13         14.0716
411.58         14.1061
412.03        14.14432
412.47        14.15022
412.92        14.10644
413.37        14.02082
413.81        13.93869
414.26        13.94436
414.71        14.04054
415.15        14.20636
415.60        14.34852
416.05         14.3361
416.49         14.1446
416.94        13.82895
417.39        13.48753
417.83        13.28913
418.28        13.28685
418.73        13.41586
419.17        13.60822
419.62        13.75381
420.07         13.8186
420.51        13.83556
420.96        13.79842
421.41        13.69395
421.85        13.53194
422.30        13.33752
422.74        13.15054
423.19        13.06135
423.64        13.07063
424.08        13.16188
424.53        13.28489
424.98        13.37462
425.42        13.41094
425.87        13.40438
426.31        13.35734
426.76        13.31742
427.21        13.27353
427.65        13.12281
428.10        12.95811
428.54        13.00838
428.99        13.29144
429.44        13.71381
429.88        14.09359
430.33        14.19007
430.77        13.96484
431.22        13.49717
431.66        12.99462
432.11        12.82102
432.56        13.01374
433.00        13.39977
433.45        13.78796
433.89         14.0184
434.34        13.97865
434.78        13.60343
435.23        13.14976
435.67         13.0945
436.12        13.40348
436.57        13.59578
437.01        13.57482
437.46        13.52134
437.90        13.44486
438.35        13.29837
438.79        13.12829
439.24        13.04324
439.68        13.06864
440.13        13.11499
440.57        13.16964
441.02        13.39213
441.46        13.66013
441.91        13.51146
442.35        13.04856
442.80        12.81401
443.24        12.79609
443.69        12.79335
444.13        12.74646
444.58        12.56731
445.02        12.30778
445.47        12.24771
445.91        12.35493
446.36         12.3544
446.80        12.22874
447.24        12.13634
447.69        12.09595
448.13        12.05376
448.58        12.01688
449.02        11.99824
449.47        11.98123
449.91        11.93738
450.36        11.86776
450.80        11.77855
451.25        11.70646
451.69        11.69782
452.13        11.76217
452.58        11.87067
453.02         11.9914
453.47        12.06934
453.91         12.0926
454.36        12.07975
454.80        12.03628
455.24        11.97395
455.69        11.90975
456.13        11.83456
456.58        11.78665
457.02        11.80363
457.46        11.89492
457.91        12.04467
458.35        12.20457
458.79        12.28777
459.24        12.28336
459.68        12.20016
460.13        12.10678
460.57        12.07579
461.01        12.13731
461.46        12.26096
461.90        12.39158
462.34         12.4304
462.79        12.35661
463.23        12.19576
463.68        12.03189
464.12        12.00524
464.56        12.14686
465.01        12.41001
465.45        12.66687
465.89        12.77731
466.34        12.72676
466.78        12.49598
467.22        12.21503
467.67        12.21548
468.11        12.47289
468.55        12.59814
468.99         12.5529
469.44        12.53162
469.88        12.57352
470.32        12.72429
470.77        12.91489
471.21        12.93759
471.65        12.77117
472.10        12.56359
472.54        12.39097
472.98        12.33881
473.42         12.4357
473.87        12.65561
474.31        12.92213
474.75        13.10765
475.20        13.18195
475.64        13.17314
476.08        13.13437
476.52        13.14897
476.97        13.23823
477.41        13.37702
477.85        13.51747
478.29        13.61145
478.74        13.64714
479.18        13.57498
479.62        13.44816
480.06        13.57456
480.50        13.68555
480.95        13.80446
481.39        13.80552
481.83         13.7792
482.27        13.72696
482.72        13.55261
483.16        13.33589
483.60        13.39029
484.04        13.73704
484.48        13.93226
484.93          14.135
485.37        14.60422
485.81        15.26386
486.25         15.3376
486.69        20.30544
487.14        16.14099
487.58         10.6327
488.02        12.85146
488.46        14.60575
488.90        14.68189
489.34         14.7901
489.79        14.72747
490.23         15.4882
490.67        16.00628
491.11        16.04238
491.55        15.92988
491.99         15.6668
492.43        15.46588
492.88        15.41219
493.32        15.48743
493.76        15.57562
494.20        15.79085
494.64        16.07695
495.08         16.4012
495.52        16.73874
495.96        17.07264
496.41        17.34362
496.85        17.53083
497.29        17.62661
497.73        17.45102
498.17        17.21617
498.61        17.35678
499.05        17.88604
499.49        17.99082
499.93        18.11053
500.37        18.26392
500.82         18.3854
501.26        18.63516
501.70        18.91178
502.14        19.06519
502.58         19.0775
503.02        19.10372
503.46        19.15299
503.90        19.12661
504.34        19.05225
504.78        19.02302
505.22        19.05504
505.66        19.13252
506.10        19.23028
506.54        19.30115
506.98        19.33518
507.42        19.34972
507.86        19.38126
508.30        19.48595
508.74        19.66875
509.18        19.89969
509.62        20.13466
510.06        20.30299
510.50        20.38552
510.94        20.41189
511.38        20.39548
511.82        20.35796
512.26        20.31476
512.70        20.25416
513.14        20.21823
513.58        20.27643
514.02        20.42509
514.46        20.63824
514.90        20.83123
515.34         20.8327
515.78        20.58789
516.22        20.30758
516.66         20.1001
517.10        19.68774
517.54        19.10746
517.98        19.96058
518.42         19.8299
518.86         20.2111
519.30        20.36065
519.74         20.5208
520.18        20.65383
520.62        20.66877
521.06        20.58613
521.50        20.40596
521.93        20.18955
522.37        20.05194
522.81        20.02116
523.25        20.07018
523.69        20.15542
524.13        20.20469
524.57        20.19585
525.01        20.15006
525.45        20.08544
525.89        20.03096
526.32        19.99323
526.76        19.96015
527.20        19.91844
527.64        19.85794
528.08        19.77989
528.52        19.67244
528.96        19.54304
529.40        19.45515
529.83        19.42583
530.27        19.24192
530.71         19.2689
531.15        19.17621
531.59        19.07544
532.03        18.96111
532.46         18.8756
532.90        18.88794
533.34        18.99569
533.78        19.17028
534.22        19.33568
534.66        19.38075
535.09        19.28129
535.53        19.08285
535.97        18.84706
536.41         18.6767
536.85        18.60662
537.28        18.61208
537.72        18.66738
538.16        18.72974
538.60        18.78263
539.04         18.8235
539.47        18.86576
539.91        18.97574
540.35        19.13562
540.79        19.25646
541.22        19.32387
541.66        19.39494
542.10        19.46835
542.54        19.49989
542.97        19.52505
543.41         19.6328
543.85        19.82992
544.29        20.10067
544.72        20.37189
545.16        20.53646
545.60         20.5747
546.04        20.51693
546.47        20.46512
546.91        20.59088
547.35        20.91485
547.79        21.38268
548.22        21.86001
548.66        22.11765
549.10        22.12249
549.53        21.98203
549.97        21.82558
550.41        21.79502
550.84        21.93975
551.28          22.226
551.72        22.59624
552.15        22.94294
552.59        23.21884
553.03        23.45125
553.46        23.63987
553.90        23.80381
554.34        23.95675
554.77        24.06252
555.21        24.12819
555.65        24.24198
556.08        24.42161
556.52        24.34974
556.96        24.59114
557.39        24.67702
557.83        24.78302
558.27        24.89158
558.70        25.01328
559.14        25.14796
559.57        25.28276
560.01        25.42596
560.45        25.55293
560.88        25.62008
561.32        25.64175
561.75        25.63146
562.19        25.63136
562.63        25.63713
563.06        25.67119
563.50        25.80515
563.93        26.00385
564.37        26.15702
564.80        26.24271
565.24        26.32797
565.68        26.41566
566.11        26.49175
566.55        26.58166
566.98        26.68201
567.42         26.8197
567.85        27.02979
568.29        27.32829
568.72        27.61776
569.16        27.90968
569.60        28.31338
570.03        28.68595
570.47        28.76485
570.90        28.68383
571.34        28.33665
571.77        28.59251
572.21        28.95776
572.64        28.87417
573.08        28.51464
573.51        27.75036
573.95        29.04501
574.38        30.97673
574.82        30.10906
