SpectraSmart Spectrum 2.9.0.0
--------- Device Information -----------
Spectrum Name :  反射率_0
Saving Time :  2024/04/25 22:58:53
Spectro-Module Model Name : SE2030-DUVN
Spectro-Module Serial Number : OS361AC55029948
Wavelength Start : 200
Wavelength End : 1025
Wavelength Unit : Wavelength(nm)
Spectrum Unit : Reflectance(%)
-----------Spectrum Setting ------------
Integration Time : 20ms
Average : 10
Boxcar : 0
Background removal :  enabled
linearity correction :  enabled
SC :  disabled
Intensity correction :  disabled
DWT denoise :  enabled
savitzky-golay :  disabled
FFT :  disabled
Running average :  disabled
Kalman :  disabled
High pass :  disabled
---------------BEGIN--------------------
Wavelength(nm)             Reflectance(%)
200.29               0
200.75        102.7443
201.21        97.04636
201.67        89.44592
202.13        84.55182
202.58        83.14539
203.04        84.43714
203.50        86.58521
203.96        86.66451
204.42        84.32865
204.88        80.88533
205.34        78.28384
205.80        78.60311
206.26        82.85289
206.72        93.63453
207.18        115.0028
207.64        132.7737
208.10        118.5822
208.55        91.93365
209.01        75.47631
209.47        70.07669
209.93        71.03561
210.39        76.08266
210.85         82.3214
211.31        83.66218
211.77        78.29237
212.23        68.70235
212.69        59.54007
213.14        57.90857
213.60        64.91683
214.06        78.28097
214.52        93.39281
214.98        103.2748
215.44        105.8953
215.90        103.4123
216.36        98.41613
216.81        94.38017
217.27        92.74276
217.73        92.46203
218.19        92.08786
218.65        89.66341
219.11        84.30257
219.57        75.25578
220.02         64.1034
220.48        58.73689
220.94        63.04267
221.40        74.49906
221.86        84.15582
222.32        82.99149
222.77        72.65339
223.23        58.86442
223.69        47.24037
224.15        43.46814
224.61        46.89902
225.06        54.57567
225.52        62.78588
225.98        66.81112
226.44        65.74599
226.90        61.60377
227.36        56.70004
227.81        54.11005
228.27        54.80924
228.73        57.38403
229.19        60.71004
229.65        63.21071
230.10        64.34708
230.56         64.7899
231.02        64.84961
231.48        64.82612
231.93        64.80226
232.39        64.70296
232.85        64.49028
233.31         64.2332
233.77        63.92551
234.22        63.55919
234.68        63.16096
235.14        62.75288
235.60        62.37115
236.05        62.08799
236.51        61.76615
236.97        61.10303
237.43        60.01678
237.88        58.54856
238.34          56.961
238.80        56.42298
239.26        57.49334
239.71         60.0494
240.17        63.11066
240.63        65.35492
241.08         66.3951
241.54        66.55105
242.00        66.25061
242.46        66.07938
242.91        66.52722
243.37        67.43852
243.83        72.42744
244.28        102.2533
244.74         160.651
245.20        158.8098
245.66        142.4908
246.11        137.5516
246.57        140.8304
247.03        154.8239
247.48        186.1409
247.94        131.1869
248.40        88.14775
248.85        79.22549
249.31         78.4875
249.77        80.74879
250.22        85.35799
250.68        93.65739
251.14        105.2729
251.59        111.8706
252.05        105.9879
252.51        91.56396
252.96         77.3615
253.42        71.60848
253.88        73.37057
254.33        79.30376
254.79        86.84708
255.25        91.87914
255.70        93.32211
256.16        93.22688
256.62        91.57914
257.07        88.13268
257.53        83.73923
257.99        78.27148
258.44        73.09617
258.90        70.77814
259.35        70.36633
259.81         70.9834
260.27        70.72629
260.72        67.74085
261.18        62.83723
261.63        56.83554
262.09        51.47742
262.55        48.11119
263.00        46.61316
263.46        46.33096
263.91        46.21007
264.37        45.42065
264.83        43.79582
265.28        41.59264
265.74        39.45168
266.19        38.07761
266.65        37.70211
267.11        37.90529
267.56        38.16484
268.02        37.88914
268.47        36.96025
268.93        35.60672
269.38        34.10751
269.84        33.14258
270.30        32.88489
270.75        33.13337
271.21        33.53186
271.66        33.55865
272.12        33.07785
272.57        32.25855
273.03        31.38984
273.48        30.81645
273.94        30.64547
274.39        30.70515
274.85        30.80462
275.31        30.65452
275.76        30.18529
276.22        29.54064
276.67        28.84411
277.13        28.36604
277.58        28.10732
278.04        28.00603
278.49        27.90783
278.95        27.66939
279.40        27.22567
279.86         26.6885
280.31        26.09591
280.77        25.61733
281.22        25.24923
281.68        24.97677
282.13        24.74445
282.59        24.51443
283.04         24.2651
283.50        24.04592
283.95        23.84178
284.41        23.65052
284.86        23.46231
285.32        23.27807
285.77        23.13442
286.22        23.15215
286.68        23.31215
287.13        23.54519
287.59        23.70912
288.04        23.58376
288.50        23.16701
288.95        22.52888
289.41        21.84304
289.86        21.26453
290.32        20.89904
290.77        20.68584
291.22        20.62938
291.68        20.69346
292.13        20.85929
292.59        21.13713
293.04        21.49999
293.50        21.90417
293.95        22.31648
294.40        22.70878
294.86        23.06992
295.31        23.40136
295.77        23.71069
296.22        24.00697
296.68        24.27792
297.13        24.47559
297.58        24.62279
298.04        24.75897
298.49         24.9754
298.95        25.44538
299.40        26.17822
299.85        27.10533
300.31        28.08332
300.76        28.89483
301.21        29.45922
301.67        29.85881
302.12        30.12046
302.58        30.34684
303.03        30.55856
303.48        30.73881
303.94        30.96564
304.39         31.3247
304.84        31.82547
305.30        32.43485
305.75        33.00768
306.20        33.32733
306.66        33.37648
307.11        33.21424
307.57        32.99579
308.02        32.87788
308.47        32.93426
308.93        33.10855
309.38        33.35481
309.83        33.63263
310.29        33.90233
310.74        34.16652
311.19        34.38126
311.65        34.47487
312.10        34.43624
312.55        34.28627
313.00        34.06439
313.46        33.85302
313.91        33.67445
314.36        33.52467
314.82        33.42801
315.27        33.39973
315.72        33.44348
316.18        33.55399
316.63        33.68174
317.08        33.72024
317.53        33.64203
317.99        33.46095
318.44        33.25769
318.89        33.16713
319.35         33.2086
319.80         33.3526
320.25        33.48233
320.70         33.4054
321.16        33.08871
321.61        32.60151
322.06        32.08807
322.51        31.76833
322.97         31.6807
323.42        31.76445
323.87        31.90097
324.32        31.89083
324.78        31.67476
325.23        31.32878
325.68        30.92315
326.13         30.5763
326.59        30.32643
327.04        30.15387
327.49        30.05032
327.94        30.00996
328.39         30.0232
328.85         30.0891
329.30         30.2064
329.75        30.31666
330.20        30.40264
330.66        30.45282
331.11        30.50027
331.56        30.55859
332.01        30.63052
332.46        30.69352
332.92        30.74005
333.37        30.80048
333.82        30.86119
334.27        30.93535
334.72        30.96826
335.17        30.86782
335.63        30.62569
336.08        30.27806
336.53        29.95535
336.98        29.87353
337.43        30.07133
337.88        30.48808
338.34        30.93327
338.79        31.14004
339.24        31.01518
339.69        30.63997
340.14        30.19212
340.59        29.98532
341.05        30.09552
341.50        30.41623
341.95        30.79796
342.40        31.02671
342.85        31.04831
343.30        30.94547
343.75        30.76188
344.20        30.57291
344.66         30.4159
345.11        30.22965
345.56        30.06744
346.01        30.01112
346.46        30.05858
346.91        30.20752
347.36        30.31031
347.81        30.12422
348.26        29.63379
348.72        28.95514
349.17         28.2936
349.62        28.06422
350.07        28.35561
350.52        29.01632
350.97        29.82273
351.42         30.4346
351.87        30.74173
352.32        30.83294
352.77         30.7568
353.22         30.5978
353.67        30.39996
354.13        30.13795
354.58        29.84068
355.03        29.60139
355.48        29.44287
355.93        29.36896
356.38        29.32695
356.83        29.21402
357.28        29.00688
357.73        28.73152
358.18        28.45037
358.63        28.26239
359.08        28.18731
359.53        28.19404
359.98         28.2058
360.43        28.10546
360.88        27.87111
361.33        27.53946
361.78        27.20098
362.23        27.00271
362.68         26.9709
363.13        27.04619
363.58        27.13177
364.03        27.07807
364.48        26.84956
364.93        26.50413
365.38        26.09789
365.83        25.71921
366.28        25.40592
366.73        25.13093
367.18        24.91357
367.63        24.78668
368.08        24.74425
368.53        24.77798
368.98        24.82215
369.43        24.76701
369.88        24.59122
370.33        24.32632
370.78        24.02909
371.23        23.80281
371.68        23.67952
372.13        23.62254
372.58        23.61704
373.03        23.63598
373.48        23.65853
373.93        23.69682
374.38        23.70877
374.83        23.62469
375.28        23.44032
375.72        23.16708
376.17        22.89886
376.62         22.7522
377.07        22.75431
377.52        22.85914
377.97        23.00653
378.42        23.09839
378.87        23.09708
379.32        23.03032
379.77        22.90219
380.22        22.71618
380.67         22.4845
381.11        22.21179
381.56        21.92658
382.01        21.68776
382.46        21.51644
382.91        21.40398
383.36        21.33929
383.81        21.29625
384.26        21.26121
384.71        21.23881
385.15        21.20537
385.60        21.14297
386.05        21.03724
386.50        20.88172
386.95        20.70443
387.40        20.56227
387.85        20.47681
388.29        20.43797
388.74         20.4138
389.19         20.3194
389.64        20.14738
390.09        19.91593
390.54        19.71236
390.98        19.68089
391.43        19.85079
391.88        20.15456
392.33        20.45813
392.78         20.5663
393.23        20.45324
393.67        20.18192
394.12        19.89587
394.57        19.72848
395.02        19.71255
395.47        19.79631
395.91        19.93459
396.36        20.02013
396.81        20.02197
397.26        19.96412
397.71        19.87045
398.15        19.75282
398.60        19.65263
399.05        19.57248
399.50        19.49633
399.95        19.34829
400.39        19.21218
400.84        19.03554
401.29         18.9064
401.74        18.94193
402.18        19.16733
402.63        19.51585
403.08         19.8748
403.53        20.06335
403.97        20.03957
404.42         19.8591
404.87        19.60228
405.32        19.41245
405.76        19.33809
406.21        19.34149
406.66        19.40144
407.11         19.4959
407.55        19.61506
408.00        19.76467
408.45        19.90864
408.90        19.95946
409.34        19.89722
409.79        19.75084
410.24        19.59058
410.68        19.51943
411.13        19.56494
411.58        19.69732
412.03        19.87853
412.47        20.04111
412.92        20.13848
413.37        20.18778
413.81        20.20004
414.26        20.21043
414.71        20.22264
415.15        20.23508
415.60        20.21646
416.05        20.13842
416.49        20.00471
416.94        19.84253
417.39        19.70917
417.83        19.69485
418.28        19.82122
418.73        20.04259
419.17        20.30027
419.62        20.50758
420.07        20.63816
420.51        20.71488
420.96        20.73279
421.41        20.68575
421.85        20.57986
422.30        20.44498
422.74        20.31365
423.19        20.27938
423.64        20.34161
424.08        20.49074
424.53        20.67147
424.98         20.8196
425.42        20.91726
425.87        20.96379
426.31        20.97176
426.76        21.02463
427.21        21.10576
427.65        21.05427
428.10        20.95964
428.54        21.10817
428.99        21.51485
429.44        22.03324
429.88         22.4613
430.33        22.59631
430.77        22.38276
431.22        21.82749
431.66        21.18303
432.11         21.0146
432.56        21.36973
433.00         21.8563
433.45        22.26858
433.89        22.79615
434.34        23.20035
434.78        22.78124
435.23        21.93743
435.67        21.85078
436.12        22.45969
436.57         22.7241
437.01        22.55183
437.46        22.48932
437.90        22.57939
438.35        22.66489
438.79        22.70761
439.24        22.71099
439.68        22.68565
440.13        22.54857
440.57        22.38825
441.02        22.64503
441.46        23.16031
441.91        23.09829
442.35        22.55378
442.80        22.34516
443.24         22.4435
443.69        22.53604
444.13        22.54648
444.58        22.33613
445.02         22.0026
445.47        22.03068
445.91        22.34681
446.36         22.4229
446.80        22.22688
447.24         22.0688
447.69        22.00765
448.13        21.99062
448.58        22.03637
449.02        22.14719
449.47        22.28596
449.91        22.38961
450.36        22.44259
450.80        22.45825
451.25        22.45556
451.69        22.45034
452.13        22.45793
452.58        22.46317
453.02        22.48156
453.47        22.54271
453.91        22.64683
454.36        22.78625
454.80        22.91893
455.24        22.96588
455.69        22.92253
456.13         22.8096
456.58        22.69467
457.02        22.64438
457.46        22.68733
457.91        22.79028
458.35        22.92609
458.79        23.05017
459.24        23.15385
459.68        23.23279
460.13        23.29426
460.57        23.29888
461.01        23.26807
461.46        23.20754
461.90        23.14895
462.34        23.14201
462.79        23.18887
463.23        23.26628
463.68        23.36905
464.12         23.4916
464.56        23.62093
465.01        23.78403
465.45        23.88221
465.89        23.85568
466.34        23.71898
466.78        23.35803
467.22        22.96433
467.67        23.08208
468.11        23.63943
468.55        23.94074
468.99         23.8859
469.44        23.79979
469.88        23.76028
470.32        23.85471
470.77        24.04533
471.21        24.09687
471.65        23.99394
472.10        23.95099
472.54        23.98358
472.98        24.02855
473.42        24.08952
473.87        24.19555
474.31        24.31361
474.75        24.38868
475.20        24.41666
475.64        24.39919
476.08        24.37391
476.52         24.3991
476.97        24.48902
477.41        24.62841
477.85        24.77366
478.29        24.90136
478.74        25.00398
479.18        24.96791
479.62        24.83666
480.06        25.09892
480.50        25.24783
480.95        25.35669
481.39        25.25613
481.83        25.21028
482.27         25.2272
482.72        25.06885
483.16        24.83272
483.60        25.00101
484.04         25.5674
484.48        25.83258
484.93        26.11909
485.37        26.55771
485.81        27.04774
486.25        27.16494
486.69        36.34739
487.14        28.44291
487.58        18.89137
488.02        23.03241
488.46        26.05564
488.90        26.37672
489.34        26.75622
489.79          26.561
490.23        27.59336
490.67        28.18165
491.11        28.04972
491.55        27.96511
491.99        27.85698
492.43        27.70295
492.88        27.59164
493.32        27.74255
493.76        27.93492
494.20         28.2313
494.64        28.52924
495.08        28.83379
495.52        29.14712
495.96        29.45816
496.41        29.70393
496.85        29.95864
497.29        30.17905
497.73        29.82786
498.17        29.29408
498.61        29.59137
499.05        30.69786
499.49        30.90966
499.93        30.94746
500.37        30.99936
500.82        31.01089
501.26        31.27483
501.70        31.64363
502.14        31.86286
502.58        31.87983
503.02         31.9129
503.46         31.9669
503.90           31.89
504.34        31.74466
504.78        31.71226
505.22        31.81939
505.66        32.01648
506.10        32.24118
506.54        32.38627
506.98        32.42252
507.42        32.39026
507.86        32.34466
508.30        32.36857
508.74        32.48256
509.18        32.65255
509.62        32.84832
510.06          33.023
510.50        33.15795
510.94        33.27247
511.38        33.36039
511.82          33.409
512.26        33.42282
512.70        33.40172
513.14        33.38093
513.58        33.42247
514.02        33.52974
514.46        33.67827
514.90        33.82453
515.34        33.86791
515.78        33.76773
516.22        33.68998
516.66        33.67686
517.10        33.41728
517.54        32.92525
517.98        33.55303
518.42        33.34985
518.86        33.64537
519.30        33.83977
519.74        34.10152
520.18        34.35648
520.62        34.46062
521.06         34.4119
521.50        34.23877
521.93        34.00659
522.37        33.83204
522.81        33.75399
523.25        33.74165
523.69        33.78319
524.13        33.85771
524.57        33.94753
525.01        34.05762
525.45        34.15474
525.89        34.18263
526.32        34.12578
526.76        33.99635
527.20        33.82808
527.64        33.68937
528.08         33.6074
528.52        33.53856
528.96        33.45303
529.40        33.39552
529.83        33.37735
530.27        33.05091
530.71        33.08921
531.15        32.99362
531.59        32.96619
532.03        32.97469
532.46        33.02407
532.90        33.11455
533.34        33.22528
533.78        33.35046
534.22        33.44915
534.66        33.46474
535.09        33.38293
535.53        33.23399
535.97        33.05246
536.41        32.90384
536.85        32.81356
537.28        32.77258
537.72         32.7682
538.16        32.78051
538.60        32.80279
539.04        32.81616
539.47        32.83332
539.91        32.95853
540.35        33.15625
540.79        33.27811
541.22        33.31656
541.66         33.3952
542.10        33.51192
542.54        33.58405
542.97        33.63514
543.41        33.75742
543.85         33.9544
544.29        34.21604
544.72        34.47334
545.16        34.62656
545.60        34.65641
546.04        34.60583
546.47        34.58574
546.91        34.74194
547.35        35.11175
547.79        35.73401
548.22          36.411
548.66        36.72726
549.10        36.63651
549.53        36.34839
549.97        36.06413
550.41        35.97805
550.84        36.15172
551.28        36.57367
551.72        37.14077
552.15        37.53925
552.59        37.67405
553.03        38.07677
553.46        37.98756
553.90        38.13739
554.34         38.3157
554.77        38.48766
555.21        38.58841
555.65        38.73819
556.08        38.94326
556.52         38.7569
556.96        39.07961
557.39        39.04599
557.83        38.99945
558.27        39.17147
558.70        39.53141
559.14        39.78292
559.57        39.88181
560.01        40.00081
560.45         40.1345
560.88        40.18517
561.32        40.17716
561.75        40.17419
562.19        40.20349
562.63        40.11642
563.06        39.98352
563.50        40.12626
563.93        40.47954
564.37        40.69056
564.80        40.72085
565.24        40.78088
565.68        40.87783
566.11        40.95106
566.55        41.03511
566.98        41.12031
567.42        41.24239
567.85        41.47244
568.29        41.82317
568.72        42.11076
569.16        42.38906
569.60        42.80489
570.03        43.13163
570.47        43.13633
570.90        43.09831
571.34        41.99945
571.77        42.79177
572.21        43.22547
572.64        43.27321
573.08        42.57104
573.51         41.0929
573.95        42.83321
574.38        45.70732
574.82        44.32732
