SpectraSmart Spectrum 2.9.0.0
--------- Device Information -----------
Spectrum Name :  反射率_0
Saving Time :  2024/04/26 00:52:22
Spectro-Module Model Name : SE2030-DUVN
Spectro-Module Serial Number : OS361AC55029948
Wavelength Start : 200
Wavelength End : 1025
Wavelength Unit : Wavelength(nm)
Spectrum Unit : Reflectance(%)
-----------Spectrum Setting ------------
Integration Time : 20ms
Average : 10
Boxcar : 0
Background removal :  enabled
linearity correction :  enabled
SC :  disabled
Intensity correction :  disabled
DWT denoise :  enabled
savitzky-golay :  disabled
FFT :  disabled
Running average :  disabled
Kalman :  disabled
High pass :  disabled
---------------BEGIN--------------------
Wavelength(nm)             Reflectance(%)
200.29               0
200.75        77.30585
201.21        71.74622
201.67        65.38911
202.13        61.53081
202.58        60.61155
203.04        62.03896
203.50        64.80764
203.96        67.10775
204.42         68.1635
204.88        68.35542
205.34        68.39976
205.80        69.20769
206.26        71.29655
206.72        75.70727
207.18        82.91513
207.64        84.26256
208.10        71.34257
208.55        57.57228
209.01        50.90238
209.47        50.03469
209.93        52.55178
210.39        57.79366
210.85        63.96219
211.31        66.67072
211.77        64.40658
212.23        58.81876
212.69         52.9149
213.14        51.54115
213.60        55.38525
214.06        62.85571
214.52        71.53978
214.98        77.80618
215.44        80.34287
215.90        80.24769
216.36        78.13347
216.81        74.67108
217.27        70.90741
217.73        66.93755
218.19        62.82396
218.65        58.38158
219.11        53.06629
219.57        45.90667
220.02        37.53276
220.48        33.00733
220.94         34.8381
221.40        42.21007
221.86        49.01415
222.32        48.83582
222.77        42.69277
223.23         34.1504
223.69        27.53709
224.15        27.42721
224.61        33.10499
225.06        42.16736
225.52        51.00513
225.98        54.92856
226.44        53.15636
226.90        47.79648
227.36        41.33717
227.81        37.13646
228.27        36.31684
228.73        37.51295
229.19         39.9348
229.65        42.41722
230.10         44.3407
230.56        46.01071
231.02        47.22738
231.48        47.67621
231.93        47.44148
232.39        46.66242
232.85        45.64228
233.31        44.95887
233.77        44.74755
234.22         44.8265
234.68        45.12996
235.14        45.41539
235.60        45.57975
236.05        45.79037
236.51        45.88246
236.97        45.53907
237.43        44.72459
237.88        43.41582
238.34        42.09128
238.80        42.25441
239.26        44.55446
239.71        48.76573
240.17        53.47095
240.63        56.53463
241.08        57.34779
241.54        56.36608
242.00        54.59579
242.46        53.41261
242.91        53.38593
243.37        54.43481
243.83        59.80161
244.28        84.31962
244.74        124.4296
245.20        118.9881
245.66        105.6283
246.11        100.6592
246.57        100.4755
247.03        103.5691
247.48        108.1367
247.94        84.53217
248.40        74.11575
248.85        73.48411
249.31        74.57291
249.77        76.19172
250.22        78.57608
250.68        82.47756
251.14        87.77909
251.59        90.69264
252.05        88.01479
252.51        81.57609
252.96        75.16003
253.42        72.82207
253.88        73.92047
254.33        76.70688
254.79        80.38869
255.25        83.29144
255.70        84.76923
256.16        85.73758
256.62        85.43472
257.07        82.96247
257.53        79.11187
257.99        74.09947
258.44        69.44092
258.90        67.76974
259.35        68.09785
259.81        69.39709
260.27        69.72917
260.72         67.2361
261.18        62.73907
261.63        57.09293
262.09        52.01572
262.55        48.81794
263.00        47.38687
263.46        47.09131
263.91        46.94614
264.37        46.20788
264.83        44.69376
265.28        42.61776
265.74        40.53185
266.19        39.00635
266.65        38.29345
267.11        38.07436
267.56        37.91251
268.02        37.28714
268.47        36.08569
268.93        34.50904
269.38        32.84712
269.84        31.80912
270.30        31.57108
270.75        31.92079
271.21        32.45861
271.66        32.59634
272.12        32.17128
272.57        31.35426
273.03        30.44744
273.48        29.82306
273.94         29.6003
274.39        29.61147
274.85         29.6481
275.31        29.39905
275.76        28.79925
276.22        27.99792
276.67        27.18187
277.13        26.70628
277.58        26.57271
278.04        26.68245
278.49        26.77914
278.95         26.5698
279.40        25.98425
279.86        25.19906
280.31        24.36623
280.77        23.82444
281.22        23.59647
281.68        23.58391
282.13        23.65638
282.59        23.67034
283.04        23.57149
283.50        23.44654
283.95        23.26885
284.41        23.01471
284.86        22.69255
285.32        22.31855
285.77        22.00491
286.22        21.98696
286.68        22.26404
287.13        22.73177
287.59        23.17819
288.04        23.27439
288.50        22.98824
288.95         22.4202
289.41        21.77538
289.86        21.25822
290.32        20.98634
290.77        20.87559
291.22        20.91617
291.68        21.05616
292.13        21.26961
292.59         21.5734
293.04        21.94402
293.50        22.33938
293.95        22.73091
294.40        23.09718
294.86        23.42327
295.31        23.70448
295.77        23.95084
296.22        24.17108
296.68        24.38049
297.13        24.57546
297.58        24.77868
298.04        25.00853
298.49         25.2999
298.95        25.73958
299.40        26.32097
299.85        27.00641
300.31        27.70485
300.76        28.28642
301.21        28.69866
301.67        28.99801
302.12          29.193
302.58        29.35379
303.03        29.48959
303.48        29.59889
303.94        29.74874
304.39        30.00584
304.84        30.38139
305.30         30.8455
305.75        31.28514
306.20        31.53672
306.66        31.58701
307.11        31.47303
307.57        31.31058
308.02        31.19913
308.47        31.19976
308.93        31.27979
309.38        31.40965
309.83        31.57493
310.29        31.74838
310.74        31.92207
311.19        32.07045
311.65        32.15081
312.10        32.15115
312.55        32.08492
313.00        31.94333
313.46        31.72727
313.91        31.44455
314.36        31.11724
314.82        30.82973
315.27        30.69205
315.72        30.72716
316.18        30.90023
316.63        31.11462
317.08        31.18591
317.53        31.06481
317.99        30.79276
318.44        30.47981
318.89        30.30494
319.35        30.30233
319.80        30.42402
320.25        30.54531
320.70        30.46419
321.16         30.1384
321.61        29.63815
322.06        29.10138
322.51        28.73426
322.97        28.57493
323.42        28.57005
323.87        28.60126
324.32        28.47299
324.78        28.13475
325.23        27.66044
325.68        27.15342
326.13        26.78153
326.59        26.58835
327.04        26.53879
327.49        26.56047
327.94        26.53919
328.39        26.43563
328.85        26.27069
329.30         26.1121
329.75        26.03441
330.20        26.05771
330.66        26.13554
331.11        26.22244
331.56         26.2032
332.01        26.04689
332.46        25.77259
332.92        25.44899
333.37        25.23239
333.82        25.16363
334.27        25.22218
334.72        25.30542
335.17        25.23566
335.63        24.97032
336.08        24.56658
336.53        24.17208
336.98        24.02588
337.43        24.17402
337.88        24.54273
338.34        24.92949
338.79        25.05055
339.24        24.81201
339.69         24.3018
340.14        23.72755
340.59        23.45078
341.05        23.55686
341.50        23.92733
341.95        24.36744
342.40        24.59453
342.85        24.53917
343.30        24.30026
343.75         23.9662
344.20        23.69153
344.66        23.53304
345.11          23.405
345.56        23.31109
346.01        23.25752
346.46        23.22709
346.91        23.24524
347.36        23.20631
347.81        22.93197
348.26        22.42135
348.72        21.76548
349.17        21.14011
349.62        20.91584
350.07         21.1672
350.52        21.76104
350.97        22.48222
351.42        23.00086
351.87        23.21564
352.32        23.21412
352.77        23.05975
353.22        22.86105
353.67        22.66675
354.13        22.44618
354.58        22.21233
355.03        22.02865
355.48        21.90848
355.93           21.86
356.38        21.84042
356.83         21.7648
357.28        21.61234
357.73        21.40027
358.18        21.17826
358.63        21.02649
359.08        20.96235
359.53        20.96448
359.98        20.96835
360.43        20.87556
360.88        20.66911
361.33        20.37763
361.78        20.08968
362.23        19.94835
362.68        19.97563
363.13        20.11506
363.58        20.25638
364.03        20.22857
364.48        19.99637
364.93        19.62594
365.38         19.2011
365.83        18.85534
366.28        18.63602
366.73        18.50142
367.18        18.44201
367.63        18.44243
368.08        18.47872
368.53        18.55174
368.98        18.61312
369.43        18.58063
369.88        18.44488
370.33        18.23713
370.78        17.99938
371.23        17.81082
371.68        17.70103
372.13         17.6384
372.58        17.64927
373.03        17.77316
373.48        17.99079
373.93        18.28054
374.38        18.52254
374.83        18.53244
375.28        18.28559
375.72        17.83489
376.17        17.34216
376.62        17.03424
377.07         16.9794
377.52        17.10703
377.97        17.33618
378.42         17.5311
378.87        17.63364
379.32        17.67699
379.77        17.66121
380.22        17.58393
380.67        17.45317
381.11        17.26777
381.56        17.04144
382.01        16.81417
382.46        16.60742
382.91        16.42325
383.36        16.28174
383.81        16.20496
384.26        16.19246
384.71        16.23813
385.15        16.29551
385.60        16.30554
386.05        16.24693
386.50        16.12479
386.95        15.97937
387.40        15.88643
387.85        15.86633
388.29        15.89592
388.74        15.92533
389.19        15.86698
389.64        15.71135
390.09        15.48018
390.54        15.25517
390.98        15.17168
391.43        15.26281
391.88        15.47046
392.33        15.67888
392.78        15.71853
393.23        15.56843
393.67        15.28708
394.12              15
394.57        14.82697
395.02        14.79563
395.47        14.86036
395.91        14.97306
396.36        15.02986
396.81         14.9997
397.26        14.90307
397.71        14.77709
398.15        14.65844
398.60        14.58282
399.05        14.54593
399.50        14.50411
399.95        14.35506
400.39        14.15605
400.84        13.88265
401.29         13.6502
401.74        13.63758
402.18        13.88742
402.63        14.31771
403.08         14.7746
403.53        15.01468
403.97        14.97743
404.42        14.73243
404.87        14.39131
405.32        14.15292
405.76        14.07976
406.21        14.11271
406.66        14.19196
407.11        14.23617
407.55        14.22466
408.00         14.1863
408.45        14.12984
408.90        14.05835
409.34        13.98096
409.79         13.8917
410.24        13.81703
410.68        13.79736
411.13        13.83992
411.58        13.93948
412.03        14.05397
412.47        14.10893
412.92          14.075
413.37        13.97137
413.81        13.85711
414.26        13.83986
414.71        13.92974
415.15        14.09623
415.60        14.24837
416.05        14.25948
416.49        14.10309
416.94        13.83583
417.39        13.53827
417.83        13.34768
418.28        13.31298
418.73        13.38002
419.17         13.5105
419.62        13.63864
420.07        13.73925
420.51        13.83218
420.96        13.88517
421.41        13.83973
421.85        13.69136
422.30        13.47823
422.74        13.26128
423.19        13.16068
423.64         13.1841
424.08        13.30713
424.53        13.46258
424.98        13.55677
425.42        13.56203
425.87        13.49784
426.31         13.3925
426.76        13.33181
427.21        13.31299
427.65        13.22324
428.10        13.12217
428.54        13.18637
428.99        13.42171
429.44        13.74983
429.88        14.02971
430.33        14.08118
430.77        13.87737
431.22        13.47986
431.66        13.05173
432.11        12.89548
432.56        13.03569
433.00        13.31024
433.45        13.58097
433.89        13.78972
434.34        13.85059
434.78         13.6605
435.23        13.38712
435.67        13.40613
436.12        13.66664
436.57        13.70526
437.01        13.50369
437.46        13.37562
437.90         13.3621
438.35         13.3743
438.79        13.37759
439.24        13.35861
439.68        13.31556
440.13        13.19936
440.57        13.06621
441.02        13.17736
441.46        13.43897
441.91        13.36438
442.35        12.99656
442.80        12.79809
443.24        12.74511
443.69        12.66295
444.13         12.5336
444.58        12.33643
445.02        12.13522
445.47        12.17708
445.91        12.39624
446.36        12.46248
446.80         12.3421
447.24        12.21677
447.69        12.12611
448.13        12.04744
448.58        11.99968
449.02        11.98419
449.47        11.98563
449.91        11.97833
450.36        11.95916
450.80        11.93353
451.25        11.92025
451.69        11.93676
452.13        11.98672
452.58        12.04751
453.02        12.10755
453.47        12.14459
453.91        12.15525
454.36        12.15213
454.80        12.12352
455.24        12.05108
455.69        11.94833
456.13        11.82041
456.58        11.72953
457.02        11.74763
457.46        11.88731
457.91        12.11447
458.35        12.35994
458.79        12.50478
459.24        12.52774
459.68        12.44964
460.13        12.33897
460.57        12.26827
461.01        12.27382
461.46        12.32513
461.90        12.39111
462.34        12.41067
462.79         12.3689
463.23        12.28316
463.68        12.20354
464.12        12.20854
464.56        12.31606
465.01        12.50247
465.45        12.67645
465.89        12.74984
466.34         12.7171
466.78        12.53862
467.22         12.3247
467.67        12.37969
468.11        12.67006
468.55        12.81327
468.99        12.77051
469.44        12.74055
469.88        12.76764
470.32        12.89475
470.77        13.06801
471.21        13.10589
471.65        12.98922
472.10        12.85765
472.54        12.76104
472.98        12.74042
473.42        12.81518
473.87        12.97492
474.31        13.16538
474.75        13.29417
475.20        13.34179
475.64        13.32588
476.08        13.29193
476.52         13.3108
476.97        13.39978
477.41        13.54038
477.85         13.6837
478.29        13.77858
478.74        13.81308
479.18        13.73509
479.62        13.60507
480.06        13.74519
480.50        13.88531
480.95        14.04764
481.39        14.08946
481.83        14.07968
482.27         14.0141
482.72        13.80128
483.16        13.54617
483.60        13.58038
484.04        13.91747
484.48        14.18116
484.93        14.51687
485.37        14.91297
485.81        15.32185
486.25        15.66086
486.69           20.94
487.14        16.53734
487.58        10.91384
488.02        13.13873
488.46        14.98041
488.90        15.07893
489.34         15.1874
489.79        15.18418
490.23        16.05544
490.67        16.53414
491.11        16.41567
491.55        16.30062
491.99        16.17231
492.43        16.01229
492.88        15.89648
493.32        15.94604
493.76        16.05571
494.20          16.301
494.64        16.62437
495.08        17.00001
495.52        17.38932
495.96        17.75507
496.41        18.03143
496.85        18.20182
497.29        18.26553
497.73        18.04975
498.17        17.78081
498.61        17.90472
499.05        18.43985
499.49        18.55787
499.93        18.71237
500.37        18.91912
500.82        19.09887
501.26        19.40048
501.70        19.71395
502.14        19.88552
502.58        19.90077
503.02        19.93052
503.46        19.98657
503.90        19.96184
504.34        19.88422
504.78        19.84905
505.22        19.87385
505.66        19.94698
506.10        20.03968
506.54        20.09809
506.98        20.11185
507.42        20.09754
507.86        20.10776
508.30        20.22359
508.74        20.45201
509.18        20.75662
509.62         21.0605
510.06        21.23889
510.50        21.26379
510.94         21.1833
511.38        21.05673
511.82        20.97835
512.26        20.98057
512.70         21.0297
513.14        21.12664
513.58        21.27205
514.02        21.44036
514.46        21.62354
514.90        21.76523
515.34        21.73944
515.78        21.50393
516.22        21.25351
516.66        21.07418
517.10        20.65865
517.54        20.03885
517.98         20.8159
518.42        20.62645
518.86        20.98871
519.30        21.17447
519.74        21.40689
520.18        21.63037
520.62        21.72643
521.06         21.7036
521.50        21.56989
521.93        21.38069
522.37        21.24233
522.81        21.18501
523.25        21.18269
523.69        21.21367
524.13        21.24118
524.57        21.24875
525.01         21.2478
525.45        21.23118
525.89        21.18487
526.32        21.10586
526.76        20.99768
527.20        20.86918
527.64        20.74467
528.08        20.63674
528.52          20.523
528.96        20.40193
529.40        20.32561
529.83        20.30568
530.27        20.12279
530.71        20.16122
531.15        20.07781
531.59        19.98913
532.03        19.88734
532.46        19.81016
532.90        19.81963
533.34        19.91382
533.78        20.06849
534.22        20.21656
534.66        20.26065
535.09        20.17724
535.53        20.00391
535.97         19.7957
536.41        19.64505
536.85        19.58252
537.28        19.58877
537.72        19.63009
538.16        19.65139
538.60        19.63976
539.04        19.59922
539.47        19.57029
539.91        19.66125
540.35        19.85909
540.79        20.05823
541.22        20.21513
541.66        20.34361
542.10        20.42979
542.54        20.44059
542.97        20.42878
543.41        20.51329
543.85        20.70951
544.29        20.99139
544.72        21.27981
545.16        21.45937
545.60          21.508
546.04        21.46276
546.47        21.42523
546.91        21.56451
547.35        21.90171
547.79        22.38148
548.22        22.87634
548.66        23.16868
549.10        23.22495
549.53        23.14785
549.97        23.05249
550.41        23.05681
550.84        23.20573
551.28        23.47349
551.72        23.81344
552.15        24.13694
552.59         24.4029
553.03        24.63174
553.46        24.82046
553.90        24.98474
554.34        25.13687
554.77        25.24523
555.21         25.3098
555.65        25.40968
556.08        25.56433
556.52        25.44578
556.96        25.66544
557.39        25.76607
557.83        25.93357
558.27        26.13483
558.70         26.3536
559.14        26.54723
559.57        26.69051
560.01        26.80476
560.45        26.87896
560.88        26.89699
561.32        26.88504
561.75         26.8363
562.19        26.79786
562.63        26.80455
563.06        26.86287
563.50        26.97166
563.93         27.1118
564.37        27.26382
564.80        27.40882
565.24        27.55975
565.68        27.70654
566.11        27.83742
566.55         27.9711
566.98        28.10143
567.42        28.25119
567.85        28.44923
568.29        28.71754
568.72        28.96181
569.16         29.2016
569.60        29.58442
570.03        29.97612
570.47        30.02616
570.90        29.86623
571.34        29.62406
571.77        29.98417
572.21        30.21577
572.64        30.33212
573.08        29.93594
573.51        28.99718
573.95        30.27654
574.38         32.2254
574.82        31.72249
