SpectraSmart Spectrum 2.9.0.0
--------- Device Information -----------
Spectrum Name :  反射率_0
Saving Time :  2024/04/26 00:41:24
Spectro-Module Model Name : SE2030-DUVN
Spectro-Module Serial Number : OS361AC55029948
Wavelength Start : 200
Wavelength End : 1025
Wavelength Unit : Wavelength(nm)
Spectrum Unit : Reflectance(%)
-----------Spectrum Setting ------------
Integration Time : 20ms
Average : 10
Boxcar : 0
Background removal :  enabled
linearity correction :  enabled
SC :  disabled
Intensity correction :  disabled
DWT denoise :  enabled
savitzky-golay :  disabled
FFT :  disabled
Running average :  disabled
Kalman :  disabled
High pass :  disabled
---------------BEGIN--------------------
Wavelength(nm)             Reflectance(%)
200.29               0
200.75        93.09564
201.21         87.3464
201.67          79.965
202.13        74.68264
202.58        72.17271
203.04        71.82867
203.50        72.91117
203.96        74.21384
204.42        75.15075
204.88        75.88246
205.34        76.87968
205.80        78.97654
206.26         82.9989
206.72        90.94186
207.18        105.1086
207.64        114.7438
208.10        102.0202
208.55        82.50669
209.01         71.0971
209.47        67.55558
209.93        68.44054
210.39        72.22817
210.85        77.13022
211.31         79.1477
211.77        76.91553
212.23        72.09668
212.69        67.03808
213.14        65.47018
213.60        67.91656
214.06         73.1598
214.52        79.75307
214.98        85.56358
215.44         89.5061
215.90        92.02207
216.36        92.92204
216.81        91.69069
217.27        89.15578
217.73        85.86903
218.19        82.34621
218.65        79.07283
219.11        75.92455
219.57        72.12415
220.02        68.66896
220.48        69.73907
220.94        76.25957
221.40        86.47496
221.86        94.11774
222.32        93.41087
222.77        85.83799
223.23         75.4848
223.69        66.88807
224.15        64.81041
224.61        68.70036
225.06        76.31225
225.52         84.1928
225.98        87.77723
226.44        86.31227
226.90        81.68156
227.36        76.56837
227.81         74.6252
228.27        76.79243
228.73        81.36785
229.19        86.47313
229.65        89.38407
230.10        89.55346
230.56        88.44382
231.02        86.95557
231.48        86.08655
231.93        85.97819
232.39         86.2161
232.85        86.78776
233.31        87.87767
233.77        89.37602
234.22        91.32325
234.68        92.98991
235.14        92.95934
235.60        90.96636
236.05        87.56649
236.51        83.80341
236.97        81.05444
237.43        79.58031
237.88        79.05493
238.34        79.22028
238.80        79.82507
239.26         80.5702
239.71        81.97144
240.17        82.83813
240.63        81.68625
241.08        78.52627
241.54        73.77287
242.00        69.31433
242.46        67.70015
242.91        70.39547
243.37        80.36375
243.83        111.7417
244.28        201.1607
244.74         276.478
245.20        202.8329
245.66        149.9517
246.11        133.4464
246.57        134.1244
247.03        152.4034
247.48        206.1893
247.94         155.622
248.40        91.63611
248.85        74.93236
249.31        71.60384
249.77        73.90079
250.22        80.22572
250.68        91.67842
251.14        108.0359
251.59        118.7823
252.05        113.4743
252.51        96.92242
252.96        79.32317
253.42        70.15076
253.88        68.89149
254.33        72.08961
254.79         78.3857
255.25        85.22612
255.70        90.93912
256.16        96.19448
256.62        99.47101
257.07        99.13665
257.53        96.23966
257.99        91.31171
258.44        86.22224
258.90         84.1852
259.35        84.21715
259.81        85.24424
260.27        85.29343
260.72        82.46982
261.18         77.6692
261.63        71.71774
262.09        66.32623
262.55         62.6763
263.00        60.69185
263.46        59.89348
263.91        59.34047
264.37         58.4404
264.83         56.9593
265.28        55.02535
265.74        53.15181
266.19        51.78886
266.65        51.17746
267.11        51.01026
267.56        50.82267
268.02         50.1149
268.47        48.76049
268.93        46.97404
269.38        45.09021
269.84        43.91193
270.30        43.64153
270.75        44.02607
271.21        44.62229
271.66        44.76011
272.12         44.2611
272.57        43.32893
273.03        42.25664
273.48         41.3841
273.94         40.8574
274.39        40.51118
274.85         40.2477
275.31         39.9013
275.76        39.41052
276.22        38.87529
276.67         38.3292
277.13        37.93045
277.58         37.6324
278.04        37.42166
278.49        37.14737
278.95        36.70058
279.40        36.02499
279.86        35.24545
280.31        34.41951
280.77        33.77221
281.22        33.30106
281.68        32.98354
282.13        32.74172
282.59        32.52421
283.04        32.28387
283.50        32.07527
283.95        31.84506
284.41        31.55214
284.86         31.1757
285.32        30.73239
285.77        30.29822
286.22        30.06573
286.68        30.03531
287.13        30.12058
287.59        30.14418
288.04        29.81747
288.50        29.13621
288.95        28.18974
289.41        27.21017
289.86        26.42448
290.32        25.95208
290.77        25.69952
291.22        25.60953
291.68        25.55311
292.13        25.48942
292.59         25.4576
293.04        25.49162
293.50        25.64859
293.95        25.91799
294.40        26.24222
294.86        26.54779
295.31        26.73735
295.77         26.7974
296.22        26.76808
296.68        26.70129
297.13        26.65247
297.58        26.67023
298.04        26.76183
298.49        26.95393
298.95         27.3209
299.40        27.84889
299.85         28.5031
300.31        29.19998
300.76        29.81703
301.21        30.29658
301.67        30.68685
302.12        30.96319
302.58        31.15457
303.03        31.26518
303.48        31.30782
303.94        31.39242
304.39        31.65095
304.84        32.10533
305.30        32.70203
305.75        33.28277
306.20        33.61428
306.66        33.66872
307.11        33.50779
307.57        33.28089
308.02        33.13329
308.47        33.14036
308.93        33.25333
309.38        33.43035
309.83        33.64074
310.29        33.84901
310.74        34.05017
311.19        34.21823
311.65        34.30801
312.10        34.30677
312.55        34.22913
313.00        34.06383
313.46        33.80972
313.91        33.47967
314.36        33.10252
314.82        32.77787
315.27        32.63545
315.72          32.702
316.18        32.93451
316.63        33.22429
317.08        33.36624
317.53        33.29941
317.99        33.06451
318.44        32.76878
318.89        32.58961
319.35        32.56148
319.80        32.63874
320.25        32.69775
320.70        32.54053
321.16        32.13339
321.61        31.55364
322.06        30.95398
322.51        30.55971
322.97         30.4108
323.42        30.44745
323.87        30.53828
324.32        30.46354
324.78        30.16228
325.23        29.71427
325.68        29.21928
326.13        28.84338
326.59        28.63142
327.04        28.54609
327.49        28.53383
327.94        28.51277
328.39        28.45263
328.85        28.37353
329.30         28.3128
329.75        28.28576
330.20        28.29952
330.66        28.32042
331.11        28.35767
331.56        28.38553
332.01        28.39127
332.46         28.3675
332.92        28.30792
333.37          28.239
333.82        28.15539
334.27        28.06986
334.72        27.95197
335.17        27.75202
335.63        27.47226
336.08        27.14008
336.53        26.85688
336.98        26.78621
337.43        26.95318
337.88        27.31111
338.34        27.69087
338.79        27.86168
339.24        27.73964
339.69        27.38672
340.14         26.9703
340.59        26.78801
341.05        26.90516
341.50        27.22391
341.95         27.5807
342.40        27.73701
342.85        27.64109
343.30        27.38666
343.75        27.05605
344.20        26.79328
344.66        26.65164
345.11        26.54577
345.56        26.49428
346.01        26.52372
346.46        26.61419
346.91        26.78088
347.36         26.8734
347.81        26.64695
348.26        26.09021
348.72        25.31246
349.17        24.55159
349.62        24.28034
350.07        24.59607
350.52        25.33425
350.97        26.21241
351.42        26.79672
351.87         26.9632
352.32        26.83297
352.77        26.52625
353.22        26.24121
353.67        26.04819
354.13        25.88574
354.58        25.72174
355.03        25.54982
355.48        25.36869
355.93        25.21792
356.38        25.08641
356.83         24.9374
357.28        24.76276
357.73        24.55466
358.18        24.35842
358.63         24.2495
359.08        24.23487
359.53        24.29706
359.98        24.33354
360.43        24.18558
360.88        23.83195
361.33        23.32048
361.78        22.80848
362.23        22.55205
362.68        22.59842
363.13        22.85815
363.58        23.15047
364.03        23.19114
364.48        22.91599
364.93        22.42435
365.38        21.85239
365.83        21.41889
366.28        21.19366
366.73        21.10462
367.18        21.10343
367.63        21.11348
368.08        21.09634
368.53        21.08069
368.98        21.04394
369.43        20.94087
369.88        20.77084
370.33        20.54439
370.78        20.30177
371.23        20.12081
371.68          20.026
372.13        19.99467
372.58        20.01945
373.03        20.08164
373.48        20.16039
373.93        20.25519
374.38        20.32095
374.83         20.2892
375.28        20.15009
375.72        19.91119
376.17         19.6517
376.62        19.46291
377.07        19.37407
377.52        19.35964
377.97        19.38269
378.42        19.38063
378.87        19.33187
379.32        19.25523
379.77        19.16466
380.22          19.077
380.67        18.99675
381.11        18.91881
381.56        18.82748
382.01        18.70864
382.46        18.56318
382.91        18.39762
383.36        18.24282
383.81        18.14548
384.26        18.11281
384.71         18.1312
385.15        18.14812
385.60        18.09747
386.05        17.95845
386.50        17.74536
386.95        17.51425
387.40        17.36617
387.85         17.3292
388.29         17.3699
388.74         17.4262
389.19        17.38972
389.64        17.24576
390.09        17.02103
390.54        16.80031
390.98        16.72365
391.43        16.82704
391.88        17.05128
392.33        17.28006
392.78        17.34417
393.23        17.22215
393.67        16.96923
394.12        16.71778
394.57         16.5939
395.02        16.62588
395.47        16.76683
395.91        16.95548
396.36        17.05911
396.81         17.0411
397.26         16.9319
397.71        16.78667
398.15         16.6695
398.60        16.62189
399.05        16.62358
399.50         16.6256
399.95        16.51348
400.39        16.35063
400.84        16.11337
401.29        15.89939
401.74        15.85114
402.18        16.00909
402.63        16.30163
403.08         16.6291
403.53        16.83072
403.97         16.8613
404.42        16.76871
404.87        16.60092
405.32        16.44554
405.76        16.33816
406.21        16.25848
406.66        16.21107
407.11        16.20834
407.55        16.25183
408.00        16.34195
408.45        16.44641
408.90        16.48761
409.34        16.44422
409.79        16.33658
410.24        16.22578
410.68        16.20152
411.13        16.28427
411.58        16.44967
412.03        16.63847
412.47        16.74739
412.92        16.73505
413.37         16.6358
413.81         16.5146
414.26        16.48813
414.71        16.56989
415.15        16.72126
415.60        16.86329
416.05        16.88932
416.49        16.77515
416.94         16.5763
417.39        16.33989
417.83        16.14533
418.28        16.03397
418.73        15.97151
419.17         15.9778
419.62        16.07549
420.07        16.25272
420.51        16.50097
420.96        16.72671
421.41         16.7673
421.85        16.59092
422.30        16.27522
422.74        15.93209
423.19         15.7566
423.64        15.77177
424.08        15.93116
424.53         16.1436
424.98        16.27682
425.42        16.29169
425.87        16.22297
426.31        16.11232
426.76        16.07016
427.21        16.09552
427.65         16.0442
428.10        15.98323
428.54        16.12278
428.99        16.46625
429.44        16.92061
429.88        17.30039
430.33        17.37084
430.77        17.09883
431.22        16.56408
431.66        15.99601
432.11        15.80635
432.56         16.0336
433.00        16.47446
433.45        16.91799
433.89        17.20779
434.34        17.21635
434.78        16.84505
435.23         16.3728
435.67        16.35087
436.12        16.73121
436.57         16.9267
437.01        16.84958
437.46        16.77867
437.90          16.738
438.35        16.64812
438.79        16.53442
439.24        16.48264
439.68        16.51308
440.13        16.53201
440.57        16.54324
441.02        16.77804
441.46        17.09509
441.91        16.90856
442.35        16.34527
442.80        16.07817
443.24        16.09258
443.69        16.13436
444.13        16.12978
444.58         15.9614
445.02        15.68998
445.47        15.66961
445.91        15.85106
446.36        15.86698
446.80        15.69537
447.24        15.54713
447.69        15.46444
448.13        15.40982
448.58        15.39863
449.02        15.43867
449.47        15.49409
449.91        15.50397
450.36        15.45923
450.80        15.37258
451.25        15.29304
451.69        15.28573
452.13        15.36481
452.58        15.49439
453.02        15.63107
453.47        15.70653
453.91        15.70636
454.36        15.65694
454.80        15.57582
455.24        15.49136
455.69        15.42794
456.13        15.37093
456.58        15.35322
457.02        15.39975
457.46        15.51669
457.91        15.68785
458.35        15.86724
458.79        15.97408
459.24        15.99831
459.68        15.94587
460.13         15.8736
460.57        15.83193
461.01        15.85231
461.46        15.91309
461.90         15.9848
462.34        16.01196
462.79        15.97885
463.23        15.89679
463.68        15.81869
464.12         15.8336
464.56        15.95844
465.01        16.17228
465.45        16.35967
465.89         16.4114
466.34        16.32276
466.78         16.0411
467.22        15.71725
467.67         15.7526
468.11        16.10725
468.55        16.29477
468.99        16.25034
469.44        16.20016
469.88        16.19597
470.32        16.29986
470.77        16.46831
471.21        16.51101
471.65        16.41097
472.10        16.32539
472.54        16.28826
472.98        16.30135
473.42        16.37548
473.87        16.51327
474.31        16.66635
474.75        16.75309
475.20        16.76047
475.64        16.70378
476.08        16.62911
476.52        16.60736
476.97        16.65748
477.41        16.76281
477.85        16.88036
478.29        16.97317
478.74        17.03075
479.18        16.98021
479.62        16.86866
480.06        17.05438
480.50        17.19379
480.95        17.32505
481.39        17.30177
481.83        17.25511
482.27          17.186
482.72        16.96296
483.16        16.68379
483.60        16.70892
484.04        17.04947
484.48        17.24618
484.93        17.48526
485.37         17.8638
485.81        18.41061
486.25         18.6397
486.69        25.09617
487.14        20.12554
487.58        13.08708
488.02        15.69372
488.46         17.8239
488.90        18.01143
489.34         18.2863
489.79        18.18822
490.23         18.9425
490.67        19.39449
491.11        19.32828
491.55        19.21906
491.99        19.03326
492.43        18.84179
492.88        18.72624
493.32        18.79726
493.76        18.91003
494.20        19.12613
494.64         19.3768
495.08          19.652
495.52        19.93815
495.96         20.2359
496.41        20.48391
496.85        20.65141
497.29         20.7315
497.73        20.51384
498.17        20.24351
498.61        20.42981
499.05        21.07398
499.49        21.19247
499.93        21.29541
500.37        21.40882
500.82        21.47542
501.26        21.71157
501.70        22.00633
502.14        22.18018
502.58        22.19354
503.02         22.1952
503.46         22.1912
503.90        22.07885
504.34        21.91945
504.78        21.86492
505.22        21.94161
505.66        22.11493
506.10        22.32222
506.54        22.45336
506.98        22.47886
507.42        22.43284
507.86        22.38219
508.30        22.43104
508.74        22.59767
509.18        22.83852
509.62        23.08752
510.06        23.23932
510.50         23.2674
510.94        23.21562
511.38        23.12323
511.82        23.04914
512.26        23.01824
512.70        23.00923
513.14        23.03792
513.58        23.13095
514.02        23.27407
514.46        23.45244
514.90        23.61139
515.34        23.62861
515.78        23.45818
516.22        23.28649
516.66        23.18377
517.10        22.82909
517.54        22.24572
517.98        22.99338
518.42        22.77919
518.86        23.09025
519.30        23.22532
519.74        23.40406
520.18        23.57694
520.62        23.63467
521.06        23.58868
521.50        23.44628
521.93        23.26709
522.37        23.16123
522.81          23.155
523.25        23.21747
523.69        23.30763
524.13        23.36054
524.57        23.35517
525.01        23.31113
525.45        23.24235
525.89        23.17015
526.32        23.10173
526.76        23.03193
527.20        22.95492
527.64        22.87105
528.08         22.7869
528.52        22.68602
528.96        22.57556
529.40        22.52691
529.83        22.55481
530.27         22.4068
530.71        22.50335
531.15        22.45383
531.59        22.38553
532.03        22.29386
532.46         22.2196
532.90        22.22858
533.34        22.32032
533.78        22.46837
534.22        22.60977
534.66        22.65288
535.09        22.57545
535.53        22.41845
535.97        22.22563
536.41        22.07172
536.85        21.98526
537.28        21.94959
537.72        21.95495
538.16        21.98583
538.60        22.03287
539.04        22.08256
539.47        22.13562
539.91        22.24797
540.35        22.39411
540.79        22.47931
541.22        22.50124
541.66        22.54809
542.10        22.62247
542.54        22.66502
542.97        22.70425
543.41        22.82342
543.85        23.02555
544.29        23.29851
544.72        23.56548
545.16         23.7155
545.60        23.72802
546.04        23.63152
546.47        23.54054
546.91        23.64754
547.35        23.97582
547.79        24.46844
548.22        24.96598
548.66        25.19849
549.10         25.1286
549.53        24.88102
549.97        24.62181
550.41        24.54333
550.84        24.70581
551.28        25.06147
551.72        25.51323
552.15        25.88588
552.59        26.11642
553.03        26.25392
553.46        26.33776
553.90        26.44832
554.34        26.61102
554.77        26.76724
555.21        26.89047
555.65        27.02427
556.08        27.17604
556.52         27.0125
556.96        27.19044
557.39        27.23375
557.83         27.3455
558.27        27.48666
558.70        27.64992
559.14        27.80764
559.57        27.93705
560.01        28.05933
560.45        28.14818
560.88         28.1613
561.32        28.12121
561.75        28.02744
562.19         27.9462
562.63        27.94122
563.06        28.02087
563.50        28.16932
563.93        28.34636
564.37        28.50063
564.80        28.60548
565.24        28.68923
565.68        28.75081
566.11        28.79173
566.55        28.84133
566.98        28.88871
567.42        28.96622
567.85        29.14815
568.29        29.46162
568.72        29.74131
569.16        29.97164
569.60         30.5202
570.03        30.81024
570.47         30.8401
570.90        30.62418
571.34        30.33479
571.77        30.71564
572.21        30.83073
572.64        30.95868
573.08        30.57649
573.51        29.70754
573.95         31.0455
574.38        33.02507
574.82        32.24494
