SpectraSmart Spectrum 2.9.0.0
--------- Device Information -----------
Spectrum Name :  反射率_0
Saving Time :  2024/04/26 00:42:13
Spectro-Module Model Name : SE2030-DUVN
Spectro-Module Serial Number : OS361AC55029948
Wavelength Start : 200
Wavelength End : 1025
Wavelength Unit : Wavelength(nm)
Spectrum Unit : Reflectance(%)
-----------Spectrum Setting ------------
Integration Time : 20ms
Average : 10
Boxcar : 0
Background removal :  enabled
linearity correction :  enabled
SC :  disabled
Intensity correction :  disabled
DWT denoise :  enabled
savitzky-golay :  disabled
FFT :  disabled
Running average :  disabled
Kalman :  disabled
High pass :  disabled
---------------BEGIN--------------------
Wavelength(nm)             Reflectance(%)
200.29               0
200.75         104.774
201.21        99.02707
201.67        91.03405
202.13        85.56851
202.58        83.56399
203.04        84.15484
203.50        85.82024
203.96        86.25738
204.42        85.06415
204.88        83.12981
205.34         82.1655
205.80        84.29154
206.26        90.99045
206.72        106.1649
207.18        135.7069
207.64        161.4325
208.10        144.5631
208.55        109.7358
209.01        88.05054
209.47        81.42094
209.93        83.72401
210.39        91.69519
210.85         101.867
211.31        106.5019
211.77        102.7328
212.23        93.58479
212.69         83.7757
213.14        80.50647
213.60          85.004
214.06        94.80927
214.52        106.0641
214.98         112.978
215.44        114.0017
215.90        111.4286
216.36        107.1443
216.81        103.4849
217.27        101.8018
217.73        101.2656
218.19        101.5904
218.65        102.7037
219.11        104.5264
219.57         107.012
220.02        110.7457
220.48        116.3901
220.94        122.3417
221.40        127.4862
221.86        128.1946
222.32         121.695
222.77        110.1682
223.23        97.41995
223.69         87.6839
224.15        85.43857
224.61        89.92593
225.06        98.82129
225.52        108.5957
225.98        114.4604
226.44        115.4232
226.90        113.1267
227.36        110.0459
227.81          109.63
228.27        112.7621
228.73        117.7571
229.19        122.5602
229.65         124.275
230.10        122.6044
230.56        119.4962
231.02        116.3515
231.48        114.7391
231.93        114.7545
232.39        115.7745
232.85        117.4245
233.31        119.3728
233.77        121.3485
234.22        123.5585
234.68        125.2771
235.14        125.1943
235.60        123.0972
236.05        119.4397
236.51        115.3807
236.97        112.4968
237.43        111.0556
237.88        110.7738
238.34        111.0628
238.80        111.1743
239.26        110.5964
239.71        110.0685
240.17        108.7032
240.63        105.7098
241.08        101.3925
241.54         96.1087
242.00         91.5574
242.46        89.90027
242.91        92.55147
243.37        102.3557
243.83         133.744
244.28        225.8802
244.74        308.4235
245.20        235.9798
245.66        182.1338
246.11        166.6986
246.57        171.1786
247.03        198.8128
247.48        279.9495
247.94        221.1992
248.40        129.6436
248.85        103.9482
249.31        96.92606
249.77        95.84299
250.22        97.74826
250.68        102.5546
251.14        110.3257
251.59        116.7397
252.05        116.9165
252.51          112.51
252.96        106.9412
253.42        104.6484
253.88        105.4969
254.33         107.766
254.79        111.7281
255.25        117.0192
255.70        122.4372
256.16        127.9546
256.62        131.8675
257.07         132.403
257.53        130.6502
257.99        127.1523
258.44        123.1727
258.90        121.4563
259.35        120.9579
259.81        121.1365
260.27        120.5373
260.72        117.7637
261.18        113.7433
261.63        108.7837
262.09         104.156
262.55        100.3049
263.00        97.16394
263.46         94.7724
263.91        92.62346
264.37        90.82234
264.83        89.00313
265.28        87.05755
265.74        85.01193
266.19        82.50346
266.65        79.97504
267.11        77.58045
267.56        75.46413
268.02        73.86762
268.47        72.58911
268.93        71.55473
269.38        70.68247
269.84        70.03015
270.30        69.56729
270.75        69.29784
271.21        69.00848
271.66        68.36265
272.12        67.32633
272.57         65.9566
273.03        64.63913
273.48        63.84051
273.94        63.68055
274.39        63.91404
274.85        64.19312
275.31        63.92309
275.76        62.97398
276.22        61.62124
276.67        60.12399
277.13        59.04229
277.58        58.39795
278.04        58.08213
278.49        57.80204
278.95        57.31662
279.40        56.49073
279.86        55.52489
280.31        54.47506
280.77        53.60402
281.22        52.90343
281.68        52.36724
282.13         51.8849
282.59        51.42045
283.04        50.91062
283.50        50.42974
283.95         49.9563
284.41        49.53052
284.86        49.11921
285.32        48.71877
285.77        48.30927
286.22        47.96451
286.68        47.67278
287.13        47.38382
287.59        47.01372
288.04        46.37891
288.50        45.52317
288.95        44.48998
289.41        43.48237
289.86        42.65218
290.32        42.10738
290.77        41.74969
291.22        41.55379
291.68        41.43208
292.13         41.3378
292.59        41.30355
293.04        41.29459
293.50         41.2751
293.95        41.22861
294.40        41.14446
294.86         41.0692
295.31        41.07703
295.77        41.19224
296.22        41.40091
296.68        41.64121
297.13        41.78131
297.58        41.81143
298.04        41.78569
298.49         41.8098
298.95          42.095
299.40        42.65244
299.85        43.40034
300.31        44.17718
300.76        44.73792
301.21        45.00942
301.67        45.10744
302.12        45.08106
302.58        45.08775
303.03        45.14257
303.48         45.2163
303.94        45.37385
304.39        45.66595
304.84        46.09582
305.30         46.6428
305.75        47.14118
306.20        47.35735
306.66        47.28002
307.11        46.96073
307.57        46.60377
308.02        46.41638
308.47        46.48313
308.93        46.73085
309.38        47.04722
309.83        47.29834
310.29        47.42921
310.74        47.46643
311.19          47.439
311.65        47.38421
312.10        47.30964
312.55        47.20511
313.00        47.04243
313.46        46.79464
313.91        46.46232
314.36        46.08724
314.82        45.76051
315.27        45.58573
315.72        45.59137
316.18        45.73325
316.63        45.93039
317.08        46.02514
317.53        45.96436
317.99        45.77365
318.44        45.52362
318.89         45.3339
319.35        45.22287
319.80        45.16843
320.25        45.07591
320.70        44.79933
321.16        44.32557
321.61        43.71812
322.06        43.11553
322.51         42.7219
322.97        42.56499
323.42        42.59597
323.87        42.68291
324.32        42.60385
324.78        42.29726
325.23        41.84725
325.68        41.34985
326.13        40.97271
326.59          40.758
327.04         40.6695
327.49        40.66204
327.94        40.67189
328.39        40.66859
328.85        40.66211
329.30        40.66695
329.75        40.63861
330.20        40.57494
330.66        40.46222
331.11        40.35893
331.56        40.31041
332.01        40.32741
332.46        40.38673
332.92        40.44937
333.37        40.50688
333.82        40.52398
334.27        40.52324
334.72        40.48078
335.17        40.36017
335.63        40.16442
336.08         39.9128
336.53        39.69484
336.98        39.66712
337.43        39.85413
337.88         40.2141
338.34        40.58652
338.79        40.76276
339.24        40.66196
339.69        40.34417
340.14        39.96419
340.59        39.79662
341.05        39.90622
341.50        40.20321
341.95        40.53975
342.40        40.70225
342.85        40.64382
343.30        40.44562
343.75        40.18143
344.20        39.98019
344.66        39.89017
345.11        39.83241
345.56        39.81117
346.01        39.83297
346.46        39.87957
346.91        39.96877
347.36        39.99339
347.81        39.77638
348.26        39.31629
348.72        38.70351
349.17        38.10933
349.62        37.89314
350.07        38.12708
350.52         38.6791
350.97        39.35173
351.42        39.84091
351.87        40.05094
352.32        40.06789
352.77        39.92764
353.22        39.69415
353.67        39.41102
354.13        39.06188
354.58        38.70483
355.03        38.48022
355.48        38.41122
355.93        38.47631
356.38        38.57082
356.83        38.51207
357.28        38.25816
357.73        37.86251
358.18        37.42313
358.63        37.09698
359.08        36.92631
359.53        36.86486
359.98        36.83646
360.43        36.72424
360.88        36.49886
361.33        36.19598
361.78        35.88602
362.23        35.68044
362.68         35.5982
363.13        35.59172
363.58        35.57698
364.03        35.42675
364.48        35.11585
364.93         34.6962
365.38        34.23473
365.83        33.83766
366.28        33.53963
366.73        33.30323
367.18         33.1222
367.63        32.98563
368.08        32.87933
368.53        32.81598
368.98        32.74148
369.43        32.56398
369.88        32.27423
370.33         31.8975
370.78        31.52223
371.23        31.30399
371.68          31.278
372.13        31.38982
372.58        31.55819
373.03        31.64209
373.48        31.59289
373.93         31.4576
374.38        31.25664
374.83        31.01904
375.28        30.76805
375.72        30.48543
376.17        30.23927
376.62        30.10514
377.07        30.09402
377.52        30.17703
377.97        30.29428
378.42        30.34281
378.87         30.2918
379.32        30.17423
379.77        30.00402
380.22        29.80309
380.67        29.58416
381.11        29.33707
381.56        29.09638
382.01        28.92919
382.46        28.84945
382.91        28.84793
383.36        28.85944
383.81        28.77397
384.26        28.57262
384.71        28.29135
385.15        28.00228
385.60        27.83409
386.05        27.79555
386.50        27.84084
386.95        27.90177
387.40        27.86622
387.85        27.71603
388.29        27.49647
388.74        27.28092
389.19        27.09632
389.64        26.95099
390.09        26.81633
390.54        26.72312
390.98        26.72342
391.43        26.82415
391.88        27.00052
392.33        27.15717
392.78        27.15005
393.23        26.97337
393.67        26.67093
394.12        26.39273
394.57        26.26618
395.02        26.31853
395.47        26.49481
395.91        26.74066
396.36        26.91862
396.81        26.98397
397.26         26.9588
397.71        26.85764
398.15        26.67958
398.60        26.48015
399.05        26.27118
399.50         26.0637
399.95        25.79755
400.39        25.59202
400.84        25.37044
401.29        25.21084
401.74        25.19791
402.18        25.35312
402.63        25.61714
403.08        25.91076
403.53        26.10294
403.97         26.1556
404.42        26.09995
404.87        25.96665
405.32        25.81577
405.76        25.67588
406.21        25.54639
406.66        25.44639
407.11        25.41169
407.55        25.44912
408.00        25.54027
408.45        25.65243
408.90        25.70304
409.34        25.66546
409.79        25.57009
410.24        25.45155
410.68        25.35707
411.13        25.30858
411.58        25.28866
412.03        25.30442
412.47        25.37591
412.92        25.48019
413.37        25.61056
413.81        25.73254
414.26        25.81439
414.71        25.83526
415.15        25.80494
415.60        25.71543
416.05        25.57589
416.49        25.40031
416.94        25.20568
417.39         25.0149
417.83        24.86455
418.28        24.77719
418.73        24.73859
419.17        24.75983
419.62        24.85365
420.07        25.00552
420.51        25.20284
420.96        25.37364
421.41        25.39901
421.85        25.25105
422.30        25.00115
422.74        24.71906
423.19        24.55676
423.64        24.52645
424.08        24.59961
424.53        24.71737
424.98        24.82274
425.42        24.89881
425.87        24.94229
426.31        24.95503
426.76        25.00693
427.21        25.07019
427.65        24.96195
428.10        24.78528
428.54        24.88629
428.99        25.29028
429.44        25.80016
429.88        26.19982
430.33        26.33979
430.77        26.12301
431.22         25.4278
431.66         24.5594
432.11        24.25937
432.56        24.57224
433.00        25.05261
433.45        25.46087
433.89        25.84925
434.34        26.02129
434.78        25.68808
435.23        24.93893
435.67        24.93804
436.12        25.51419
436.57         25.6819
437.01         25.3842
437.46        25.23459
437.90        25.30197
438.35        25.40541
438.79        25.46929
439.24        25.44817
439.68         25.3452
440.13        25.08438
440.57        24.80315
441.02        25.05103
441.46        25.66423
441.91        25.68916
442.35        25.18341
442.80        25.00524
443.24        25.11148
443.69        25.15636
444.13        25.08438
444.58         24.8018
445.02         24.4316
445.47        24.48647
445.91        24.86498
446.36        24.95291
446.80         24.7047
447.24        24.47412
447.69        24.33697
448.13        24.25032
448.58        24.24032
449.02        24.30763
449.47        24.40143
449.91        24.43761
450.36        24.39934
450.80        24.30845
451.25        24.20869
451.69        24.15294
452.13        24.15982
452.58        24.19723
453.02        24.25014
453.47        24.30202
453.91        24.34387
454.36        24.38902
454.80        24.41241
455.24        24.36421
455.69        24.25602
456.13        24.09821
456.58        23.97508
457.02        23.97602
457.46        24.12364
457.91        24.37182
458.35         24.6443
458.79        24.82098
459.24        24.87751
459.68        24.83002
460.13        24.73389
460.57        24.62276
461.01        24.54045
461.46        24.47941
461.90        24.43743
462.34        24.41027
462.79        24.38893
463.23        24.36709
463.68        24.38643
464.12         24.5205
464.56        24.76242
465.01        25.09756
465.45         25.3553
465.89        25.38452
466.34        25.18723
466.78        24.67875
467.22         24.0987
467.67        24.07309
468.11         24.5461
468.55         24.7794
468.99        24.68462
469.44        24.61456
469.88        24.64421
470.32        24.86162
470.77        25.18835
471.21        25.30841
471.65        25.18682
472.10        25.06238
472.54        24.99096
472.98        24.97333
473.42        25.03187
473.87        25.18023
474.31        25.35058
474.75        25.43448
475.20         25.4169
475.64        25.31591
476.08        25.20881
476.52        25.21202
476.97        25.34969
477.41        25.58784
477.85         25.8314
478.29        25.97614
478.74         25.9991
479.18        25.81122
479.62        25.51921
480.06        25.71534
480.50        25.89742
480.95        26.11032
481.39        26.12744
481.83        26.13818
482.27        26.13222
482.72        25.89961
483.16        25.56854
483.60        25.65666
484.04          26.171
484.48        26.41254
484.93         26.6712
485.37        27.10712
485.81        27.73295
486.25        27.91904
486.69        37.50306
487.14        30.09395
487.58        19.13633
488.02        23.59219
488.46        26.70307
488.90        26.86167
489.34        26.97126
489.79        26.63059
490.23        27.83008
490.67        28.46781
491.11        28.27312
491.55        28.20079
491.99         28.1595
492.43        28.01465
492.88        27.84618
493.32        27.91247
493.76        28.01165
494.20        28.24011
494.64        28.50859
495.08        28.80048
495.52        29.10132
495.96        29.41632
496.41        29.66019
496.85        29.81157
497.29          29.871
497.73        29.49608
498.17        29.06118
498.61         29.3989
499.05        30.47091
499.49        30.67666
499.93         30.7272
500.37        30.75142
500.82         30.7069
501.26        30.92867
501.70        31.27646
502.14        31.48773
502.58        31.50138
503.02        31.51881
503.46        31.54077
503.90        31.42249
504.34         31.2383
504.78        31.18392
505.22        31.28983
505.66        31.50574
506.10        31.74999
506.54        31.88337
506.98        31.87128
507.42        31.76205
507.86        31.64591
508.30        31.66076
508.74        31.83422
509.18        32.11265
509.62        32.41782
510.06        32.62353
510.50        32.69433
510.94        32.67884
511.38        32.61599
511.82        32.56482
512.26        32.55009
512.70        32.54633
513.14        32.57152
513.58        32.65895
514.02        32.79617
514.46        32.96827
514.90        33.11622
515.34        33.11279
515.78        32.91721
516.22        32.70537
516.66        32.55305
517.10        32.20093
517.54        31.67775
517.98        32.34517
518.42        32.19258
518.86        32.53257
519.30        32.74194
519.74          33.006
520.18        33.25119
520.62        33.33477
521.06         33.2578
521.50        33.04171
521.93        32.76908
522.37        32.58759
522.81        32.53955
523.25         32.5871
523.69        32.68405
524.13        32.75493
524.57        32.77377
525.01        32.76354
525.45        32.73458
525.89        32.70131
526.32        32.66578
526.76        32.61906
527.20        32.55375
527.64        32.47311
528.08        32.38663
528.52        32.27035
528.96        32.12737
529.40        32.04951
529.83        32.05907
530.27         31.8055
530.71        31.90503
531.15        31.83224
531.59        31.77228
532.03        31.70854
532.46        31.67944
532.90        31.74028
533.34        31.88151
533.78        32.07693
534.22        32.24881
534.66        32.28518
535.09        32.16239
535.53        31.93368
535.97        31.66279
536.41        31.45981
536.85        31.36371
537.28        31.34892
537.72        31.39449
538.16         31.4672
538.60        31.54965
539.04        31.62538
539.47        31.69279
539.91        31.83127
540.35        32.00495
540.79        32.07709
541.22         32.0575
541.66        32.09416
542.10        32.19395
542.54        32.27006
542.97        32.33984
543.41         32.4827
543.85        32.69714
544.29         32.9748
544.72        33.24324
545.16        33.40251
545.60        33.43296
546.04        33.35863
546.47        33.29274
546.91        33.42844
547.35        33.78565
547.79        34.31015
548.22        34.83426
548.66        35.07145
549.10        34.98654
549.53        34.72374
549.97        34.45807
550.41        34.37646
550.84        34.54173
551.28        34.90873
551.72        35.38258
552.15         35.7846
552.59        36.05037
553.03        36.23023
553.46        36.34418
553.90        36.45783
554.34        36.59394
554.77         36.6865
555.21        36.73594
555.65        36.86243
556.08        37.08754
556.52        36.93419
556.96        37.24783
557.39        37.29713
557.83        37.34843
558.27         37.3791
558.70        37.43535
559.14        37.57416
559.57        37.78326
560.01        38.04948
560.45        38.29513
560.88         38.4024
561.32        38.37139
561.75        38.22408
562.19        38.06088
562.63        37.95351
563.06        37.95137
563.50         38.1295
563.93        38.42319
564.37        38.65834
564.80        38.79101
565.24        38.92114
565.68        39.04788
566.11        39.14263
566.55        39.23923
566.98        39.33379
567.42         39.4596
567.85         39.6645
568.29        39.97705
568.72        40.26267
569.16        40.56683
569.60        41.05238
570.03        41.52718
570.47        41.61446
570.90        41.47757
571.34        40.80381
571.77        41.49514
572.21        41.48587
572.64         41.3367
573.08        41.07164
573.51        39.52045
573.95        41.32014
574.38        44.05996
574.82        42.75158
