SpectraSmart Spectrum 2.9.0.0
--------- Device Information -----------
Spectrum Name :  反射率_0
Saving Time :  2024/04/25 23:58:36
Spectro-Module Model Name : SE2030-DUVN
Spectro-Module Serial Number : OS361AC55029948
Wavelength Start : 200
Wavelength End : 1025
Wavelength Unit : Wavelength(nm)
Spectrum Unit : Reflectance(%)
-----------Spectrum Setting ------------
Integration Time : 20ms
Average : 10
Boxcar : 0
Background removal :  enabled
linearity correction :  enabled
SC :  disabled
Intensity correction :  disabled
DWT denoise :  enabled
savitzky-golay :  disabled
FFT :  disabled
Running average :  disabled
Kalman :  disabled
High pass :  disabled
---------------BEGIN--------------------
Wavelength(nm)             Reflectance(%)
200.29               0
200.75        66.93972
201.21        59.50613
201.67        52.22916
202.13        47.90856
202.58        46.70211
203.04        48.18636
203.50        51.47649
203.96        54.74216
204.42        56.98104
204.88        58.35938
205.34        59.31419
205.80        60.59413
206.26        62.81102
206.72        67.03078
207.18        74.04574
207.64        77.22644
208.10        68.07285
208.55        56.45652
209.01        50.57178
209.47        50.30308
209.93        53.55498
210.39        59.83059
210.85        66.63676
211.31        68.13655
211.77        62.60925
212.23        52.22536
212.69        41.91008
213.14        39.34544
213.60        45.68264
214.06        58.56853
214.52        72.89954
214.98        80.84441
215.44        80.37324
215.90        74.10935
216.36        65.36708
216.81        58.70369
217.27        55.69831
217.73        55.01302
218.19        54.49402
218.65        51.17768
219.11        43.83533
219.57         31.6724
220.02        16.82445
220.48        10.04591
220.94        16.77862
221.40         33.5822
221.86        48.95145
222.32        51.46286
222.77        42.80384
223.23        29.24767
223.69        17.73767
224.15         15.2847
224.61        21.14611
225.06        31.84812
225.52        42.52337
225.98        46.80915
226.44        43.66216
226.90        35.88612
227.36         27.0988
227.81         22.1931
228.27        22.48897
228.73        26.00946
229.19        30.83484
229.65        34.17974
230.10        35.29741
230.56        35.25042
231.02         34.7858
231.48        34.64182
231.93        34.94968
232.39        35.33472
232.85        35.62254
233.31         35.6613
233.77        35.40351
234.22        34.98374
234.68        34.47474
235.14        33.89605
235.60        33.34158
236.05        32.84003
236.51        32.53584
236.97        32.59717
237.43        33.09554
237.88        34.13672
238.34        35.59641
238.80        37.00216
239.26        37.95176
239.71        38.39555
240.17        38.49107
240.63        39.12785
241.08        40.61379
241.54        42.67608
242.00        44.64754
242.46        45.57258
242.91        45.10719
243.37        42.23223
243.83        35.52642
244.28        34.42665
244.74         72.8427
245.20        100.0515
245.66        101.3446
246.11        100.4861
246.57        100.2494
247.03        99.20419
247.48        83.20554
247.94        43.89212
248.40        49.42681
248.85         56.6421
249.31        61.11016
249.77        64.46122
250.22        67.99751
250.68        73.10002
251.14        79.75386
251.59         83.3429
252.05        79.86694
252.51        71.53916
252.96        62.65385
253.42        57.42107
253.88        55.34953
254.33        54.95123
254.79        56.45256
255.25        59.53903
255.70        63.29348
256.16        67.45501
256.62        70.09783
257.07        69.26176
257.53        65.79051
257.99        60.49865
258.44         55.4783
258.90        53.89911
259.35        54.80627
259.81        56.73855
260.27        57.59243
260.72        55.38386
261.18        50.88383
261.63        45.12617
262.09          39.836
262.55        36.39584
263.00        34.78464
263.46        34.36055
263.91        34.17759
264.37        33.42516
264.83         31.9565
265.28         29.9829
265.74        28.13843
266.19        27.14929
266.65        27.15584
267.11        27.72066
267.56        28.22541
268.02        27.92474
268.47        26.73447
268.93        24.92483
269.38        22.91903
269.84        21.66961
270.30        21.43346
270.75        21.93976
271.21        22.69122
271.66        22.95123
272.12        22.51753
272.57        21.62417
273.03         20.6393
273.48        20.04115
273.94        19.95665
274.39         20.1761
274.85        20.41668
275.31        20.28105
275.76        19.69333
276.22        18.83575
276.67        17.94963
277.13        17.44386
277.58        17.34794
278.04        17.52485
278.49        17.72135
278.95        17.62249
279.40        17.15847
279.86        16.49716
280.31        15.77938
280.77        15.30087
281.22        15.09408
281.68        15.07169
282.13        15.13564
282.59        15.16618
283.04        15.12792
283.50        15.08513
283.95        15.02633
284.41          14.935
284.86        14.81271
285.32        14.65657
285.77        14.53648
286.22        14.61477
286.68        14.87976
287.13        15.26031
287.59        15.58741
288.04        15.61222
288.50        15.31912
288.95        14.79758
289.41        14.22981
289.86        13.79903
290.32        13.60809
290.77        13.58809
291.22        13.72891
291.68        13.97861
292.13        14.31263
292.59        14.73762
293.04        15.22633
293.50         15.7295
293.95        16.21642
294.40        16.66484
294.86        17.05814
295.31        17.39372
295.77        17.68283
296.22        17.93662
296.68        18.17484
297.13        18.40049
297.58        18.63891
298.04        18.90662
298.49        19.23934
298.95        19.72026
299.40         20.3442
299.85        21.07563
300.31        21.82106
300.76        22.44744
301.21        22.90272
301.67        23.24228
302.12        23.48634
302.58        23.71226
303.03        23.93405
303.48        24.14066
303.94        24.38932
304.39        24.73742
304.84        25.18929
305.30        25.71676
305.75        26.20778
306.20        26.49531
306.66        26.56759
307.11        26.46951
307.57        26.32016
308.02        26.23337
308.47        26.27018
308.93        26.39047
309.38        26.56909
309.83        26.79414
310.29        27.03207
310.74         27.2733
311.19        27.46935
311.65        27.54322
312.10        27.48224
312.55        27.31449
313.00        27.06295
313.46        26.78093
313.91        26.49204
314.36        26.20239
314.82         25.9789
315.27        25.90744
315.72        25.99723
316.18         26.2193
316.63        26.46733
317.08        26.54172
317.53         26.3924
317.99        26.06432
318.44        25.68168
318.89        25.44851
319.35        25.40602
319.80        25.49563
320.25        25.59198
320.70        25.48928
321.16        25.14162
321.61        24.62543
322.06        24.06048
322.51        23.62124
322.97        23.34559
323.42        23.18783
323.87        23.07124
324.32        22.87322
324.78        22.56054
325.23        22.18097
325.68        21.79096
326.13        21.47873
326.59        21.26407
327.04        21.13073
327.49        21.03308
327.94        20.90134
328.39        20.71594
328.85        20.49056
329.30        20.28576
329.75        20.17463
330.20        20.17539
330.66        20.24492
331.11        20.34188
331.56         20.3574
332.01        20.25625
332.46        20.05181
332.92        19.78883
333.37         19.5697
333.82        19.42776
334.27        19.35619
334.72        19.29035
335.17        19.12046
335.63        18.82532
336.08         18.4398
336.53        18.09178
336.98         17.9824
337.43        18.14329
337.88        18.51655
338.34        18.89013
338.79        18.95861
339.24        18.63102
339.69        17.99634
340.14         17.3054
340.59        16.99796
341.05        17.17041
341.50        17.67616
341.95        18.25905
342.40        18.54464
342.85        18.44309
343.30        18.08296
343.75          17.589
344.20        17.18067
344.66         16.9423
345.11        16.77283
345.56        16.67088
346.01        16.63466
346.46        16.63671
346.91        16.70124
347.36        16.71158
347.81        16.46883
348.26        15.96629
348.72        15.30198
349.17        14.64366
349.62         14.3552
350.07        14.51812
350.52         15.0043
350.97        15.63743
351.42        16.14516
351.87        16.43306
352.32        16.57148
352.77        16.57009
353.22        16.45047
353.67         16.2412
354.13        15.93536
354.58        15.59808
355.03        15.37525
355.48         15.3005
355.93        15.35615
356.38        15.45567
356.83        15.44525
357.28        15.28845
357.73        15.02835
358.18         14.7525
358.63        14.59847
359.08        14.59677
359.53        14.70313
359.98         14.8245
360.43        14.82026
360.88        14.66113
361.33        14.39017
361.78        14.10693
362.23        13.97213
362.68        14.01262
363.13        14.16072
363.58         14.3078
364.03         14.2874
364.48         14.0638
364.93        13.70778
365.38        13.28796
365.83        12.91014
366.28        12.62268
366.73        12.39773
367.18        12.26158
367.63        12.25672
368.08        12.36952
368.53         12.5764
368.98        12.79508
369.43        12.89265
369.88        12.84102
370.33        12.68216
370.78        12.45935
371.23        12.25593
371.68        12.10796
372.13        11.98414
372.58         11.9257
373.03        11.99845
373.48        12.19519
373.93        12.49542
374.38        12.77418
374.83        12.83573
375.28        12.64787
375.72        12.25844
376.17        11.83078
376.62         11.5932
377.07         11.6101
377.52        11.81074
377.97        12.08932
378.42        12.27289
378.87        12.30652
379.32        12.24349
379.77        12.13807
380.22        12.06565
380.67        12.04695
381.11        12.05506
381.56        12.05212
382.01        11.99185
382.46        11.86396
382.91         11.6857
383.36        11.50843
383.81        11.40714
384.26        11.39808
384.71        11.46459
385.15        11.52965
385.60         11.4845
386.05        11.30709
386.50        11.02202
386.95        10.73564
387.40        10.63031
387.85        10.73917
388.29        10.99506
388.74        11.24853
389.19        11.30444
389.64        11.13949
390.09        10.81192
390.54        10.46483
390.98        10.33824
391.43        10.49228
391.88        10.83083
392.33        11.18799
392.78        11.32228
393.23        11.19711
393.67        10.90199
394.12        10.58645
394.57        10.41368
395.02        10.42102
395.47        10.54891
395.91        10.73164
396.36        10.83974
396.81        10.83057
397.26        10.73633
397.71        10.60451
398.15        10.49057
398.60        10.42929
399.05        10.40666
399.50        10.37831
399.95         10.2539
400.39        10.07073
400.84        9.819878
401.29        9.599308
401.74        9.565211
402.18        9.757442
402.63        10.10593
403.08        10.48064
403.53        10.67445
403.97         10.6357
404.42         10.4259
404.87        10.14106
405.32        9.952462
405.76        9.912187
406.21        9.963959
406.66         10.0545
407.11        10.11147
407.55         10.1162
408.00         10.0967
408.45        10.05534
408.90        9.986352
409.34        9.898455
409.79        9.790386
410.24        9.701545
410.68        9.690215
411.13        9.765412
411.58         9.91765
412.03        10.08939
412.47        10.17717
412.92        10.14341
413.37        10.01061
413.81        9.854637
414.26        9.807087
414.71        9.885882
415.15        10.05794
415.60        10.21293
416.05        10.19346
416.49        9.967942
416.94        9.601851
417.39        9.214355
417.83        9.006651
418.28        9.038339
418.73        9.233582
419.17        9.493802
419.62        9.660902
420.07        9.695415
420.51        9.645604
420.96        9.541594
421.41         9.43034
421.85        9.333412
422.30        9.245388
422.74        9.173996
423.19        9.159739
423.64        9.195582
424.08        9.280887
424.53        9.375689
424.98        9.427468
425.42        9.422933
425.87        9.370666
426.31         9.28705
426.76        9.232393
427.21        9.204412
427.65         9.12765
428.10          9.0532
428.54        9.112523
428.99        9.310616
429.44        9.589389
429.88        9.839058
430.33        9.913438
430.77        9.789893
431.22        9.512611
431.66        9.208556
432.11        9.110128
432.56        9.238558
433.00        9.478541
433.45        9.708305
433.89        9.847097
434.34        9.823844
434.78        9.579659
435.23        9.280855
435.67        9.241301
436.12        9.432703
436.57        9.523952
437.01        9.451571
437.46        9.348715
437.90        9.228235
438.35        9.059519
438.79        8.886746
439.24        8.804873
439.68         8.83064
440.13        8.891918
440.57          8.9645
441.02        9.129346
441.46        9.294847
441.91        9.158681
442.35        8.790019
442.80        8.557964
443.24        8.454424
443.69        8.346701
444.13        8.221793
444.58        8.072719
445.02        7.938372
445.47        7.984762
445.91        8.153315
446.36         8.19955
446.80        8.094556
447.24        7.962233
447.69        7.850038
448.13        7.775299
448.58        7.759145
449.02        7.794116
449.47        7.843885
449.91        7.849397
450.36        7.800125
450.80        7.709875
451.25        7.629306
451.69        7.626916
452.13        7.715434
452.58        7.859014
453.02        8.003146
453.47        8.055599
453.91        8.002237
454.36        7.876056
454.80        7.722002
455.24        7.618955
455.69         7.59621
456.13         7.62119
456.58        7.686503
457.02        7.768876
457.46        7.860416
457.91        7.965261
458.35        8.058945
458.79        8.088903
459.24         8.05651
459.68        7.963569
460.13        7.871489
460.57         7.84862
461.01        7.920762
461.46        8.058882
461.90         8.21315
462.34        8.287507
462.79        8.261361
463.23         8.15624
463.68        8.040357
464.12        8.023602
464.56        8.134009
465.01        8.333117
465.45        8.525993
465.89        8.603217
466.34        8.554515
466.78        8.374614
467.22        8.165374
467.67        8.171591
468.11        8.381532
468.55        8.526306
468.99        8.561625
469.44        8.590498
469.88        8.633716
470.32        8.732388
470.77        8.845948
471.21        8.847237
471.65        8.726331
472.10        8.580279
472.54        8.465258
472.98        8.452728
473.42        8.560866
473.87        8.766384
474.31        8.998324
474.75          9.1353
475.20        9.152493
475.64         9.08134
476.08        8.982349
476.52        8.950566
476.97        9.010226
477.41        9.135214
477.85        9.277611
478.29        9.378415
478.74          9.4213
479.18         9.37816
479.62        9.294198
480.06        9.397105
480.50        9.501994
480.95        9.614343
481.39        9.637367
481.83        9.622278
482.27        9.570277
482.72        9.426366
483.16        9.250889
483.60        9.269621
484.04        9.488888
484.48        9.631498
484.93        9.851337
485.37        10.24586
485.81        10.67016
486.25        11.20102
486.69        14.46996
487.14        11.38863
487.58        7.770164
488.02        9.495878
488.46        10.74045
488.90        10.72904
489.34        10.79085
489.79        10.81177
490.23        11.49547
490.67        11.93331
491.11          11.928
491.55        11.81149
491.99        11.59027
492.43        11.40422
492.88        11.32525
493.32        11.33449
493.76        11.37481
494.20         11.5803
494.64        11.91346
495.08        12.32813
495.52        12.75813
495.96        13.11916
496.41        13.34876
496.85        13.45238
497.29        13.45972
497.73        13.29452
498.17        13.13668
498.61        13.29975
499.05        13.78378
499.49        13.93822
499.93        14.08805
500.37        14.25766
500.82        14.39417
501.26        14.62101
501.70        14.86049
502.14        14.99306
502.58        15.01187
503.02        15.05411
503.46        15.12811
503.90        15.14817
504.34         15.1286
504.78        15.13056
505.22        15.16308
505.66        15.22108
506.10        15.27865
506.54        15.28847
506.98        15.24798
507.42        15.17828
507.86        15.13773
508.30         15.2156
508.74        15.42194
509.18        15.71698
509.62        16.03282
510.06        16.25735
510.50        16.35799
510.94        16.37433
511.38        16.33212
511.82        16.27456
512.26        16.22487
512.70        16.16451
513.14        16.13307
513.58        16.19684
514.02         16.3504
514.46        16.57045
514.90        16.77348
515.34        16.78638
515.78        16.55236
516.22        16.28949
516.66        16.10334
517.10        15.68962
517.54        15.08389
517.98        15.97035
518.42        15.81847
518.86        16.21034
519.30         16.3676
519.74        16.53979
520.18        16.68386
520.62        16.69782
521.06        16.60317
521.50        16.40761
521.93        16.17359
522.37        16.01826
522.81        15.97276
523.25        16.00722
523.69        16.09417
524.13        16.18702
524.57        16.26189
525.01        16.32755
525.45        16.36528
525.89        16.34478
526.32        16.26065
526.76        16.12091
527.20        15.94857
527.64        15.79069
528.08        15.66596
528.52        15.55175
528.96        15.44299
529.40        15.36989
529.83        15.33937
530.27        15.19188
530.71        15.21367
531.15        15.13778
531.59        15.05134
532.03        14.94657
532.46        14.86524
532.90        14.88038
533.34         14.9909
533.78        15.16854
534.22        15.33486
534.66        15.37477
535.09        15.26424
535.53        15.04717
535.97        14.79436
536.41        14.62169
536.85        14.56489
537.28         14.5958
537.72        14.67185
538.16        14.72147
538.60         14.7257
539.04        14.69838
539.47         14.6778
539.91        14.75521
540.35        14.92526
540.79        15.10388
541.22        15.25687
541.66        15.39372
542.10        15.50169
542.54        15.55247
542.97        15.58562
543.41        15.69104
543.85        15.87958
544.29        16.13542
544.72         16.3874
545.16        16.53067
545.60        16.54955
546.04         16.4769
546.47        16.42035
546.91         16.5584
547.35         16.9104
547.79        17.41326
548.22        17.92589
548.66        18.20981
549.10        18.22664
549.53        18.08378
549.97        17.90435
550.41        17.82841
550.84         17.9097
551.28        18.11691
551.72        18.41809
552.15        18.75058
552.59        19.07317
553.03        19.39504
553.46        19.68658
553.90         19.9188
554.34        20.09321
554.77        20.19065
555.21        20.22751
555.65        20.29563
556.08        20.42003
556.52        20.33414
556.96        20.51748
557.39         20.5912
557.83         20.7024
558.27        20.83151
558.70        20.98062
559.14        21.13507
559.57        21.27819
560.01        21.42002
560.45         21.5314
560.88        21.56775
561.32        21.54588
561.75        21.47077
562.19        21.40119
562.63          21.397
563.06        21.46903
563.50        21.60262
563.93        21.76837
564.37        21.92735
564.80        22.05808
565.24        22.18185
565.68        22.29163
566.11        22.37842
566.55        22.46259
566.98        22.53817
567.42        22.64283
567.85        22.83064
568.29        23.11912
568.72        23.41743
569.16        23.71315
569.60        24.08451
570.03        24.41117
570.47        24.44565
570.90        24.31384
571.34        24.08927
571.77        24.32335
572.21        24.64546
572.64        24.66286
573.08        24.40361
573.51        23.82154
573.95        24.92579
574.38        26.45773
574.82        26.05009
