SpectraSmart Spectrum 2.9.0.0
--------- Device Information -----------
Spectrum Name :  反射率_0
Saving Time :  2024/04/25 23:17:22
Spectro-Module Model Name : SE2030-DUVN
Spectro-Module Serial Number : OS361AC55029948
Wavelength Start : 200
Wavelength End : 1025
Wavelength Unit : Wavelength(nm)
Spectrum Unit : Reflectance(%)
-----------Spectrum Setting ------------
Integration Time : 20ms
Average : 10
Boxcar : 0
Background removal :  enabled
linearity correction :  enabled
SC :  disabled
Intensity correction :  disabled
DWT denoise :  enabled
savitzky-golay :  disabled
FFT :  disabled
Running average :  disabled
Kalman :  disabled
High pass :  disabled
---------------BEGIN--------------------
Wavelength(nm)             Reflectance(%)
200.29               0
200.75        86.55238
201.21        82.42795
201.67        77.76202
202.13        74.24843
202.58         72.0713
203.04        71.09509
203.50        71.04188
203.96        71.47831
204.42        72.07481
204.88        72.79057
205.34        73.46542
205.80        73.99191
206.26        74.50768
206.72        75.30833
207.18        76.43259
207.64        76.79365
208.10        74.91106
208.55        72.02863
209.01        70.66861
209.47        71.21961
209.93         73.0433
210.39        76.28175
210.85        79.01817
211.31        77.05795
211.77        69.77332
212.23        59.04137
212.69        49.35439
213.14        47.70256
213.60        54.96587
214.06        68.92979
214.52        84.89354
214.98        95.48707
215.44        98.51973
215.90        96.33384
216.36        90.86774
216.81        84.79861
217.27        79.83002
217.73        75.36769
218.19        71.37245
218.65        67.62656
219.11        63.62385
219.57        58.90815
220.02        53.97683
220.48        52.16953
220.94         54.7126
221.40        60.79457
221.86        65.78046
222.32        65.10494
222.77        59.68654
223.23        52.45388
223.69        46.84841
224.15        46.56822
224.61        51.05893
225.06        58.46069
225.52        65.86169
225.98        69.50957
226.44        68.75549
226.90        65.22581
227.36        60.94347
227.81        58.63158
228.27        59.20462
228.73        61.46045
229.19        64.48324
229.65        66.92658
230.10        68.29816
230.56         69.1888
231.02        69.74451
231.48        70.11335
231.93        70.36205
232.39        70.43798
232.85        70.47115
233.31        70.80058
233.77        71.43647
234.22         72.3027
234.68        73.03159
235.14        72.89676
235.60        71.76295
236.05        69.98615
236.51        67.98577
236.97        66.22698
237.43        64.78649
237.88        63.50193
238.34        62.47232
238.80        62.37821
239.26        63.47701
239.71        65.93238
240.17        68.48175
240.63        69.37132
241.08        68.25547
241.54        65.48255
242.00        62.39751
242.46        60.78848
242.91        61.44608
243.37        65.26183
243.83        78.11328
244.28        115.5487
244.74        147.7661
245.20        118.7795
245.66        97.04246
246.11        89.47698
246.57        87.97994
247.03        90.50337
247.48        99.04143
247.94        87.92664
248.40        76.67048
248.85        74.21884
249.31        74.46602
249.77        76.19093
250.22          79.396
250.68        84.60339
251.14        91.86138
251.59        96.84252
252.05        95.00138
252.51        88.20356
252.96        80.25688
253.42        75.13106
253.88        72.61847
254.33        71.70029
254.79        72.61072
255.25          75.059
255.70        78.34314
256.16        82.17768
256.62        85.45742
257.07        87.10227
257.53        87.48297
257.99        86.54062
258.44         84.7527
258.90        83.70368
259.35        82.74238
259.81        81.85197
260.27        80.12596
260.72        76.64452
261.18        72.17496
261.63         67.0518
262.09        62.55147
262.55        59.42421
263.00        57.56057
263.46        56.66841
263.91        55.98558
264.37        55.05889
264.83        53.67455
265.28         51.9058
265.74        50.15712
266.19         48.7438
266.65        47.90998
267.11         47.4378
267.56          47.006
268.02        46.25665
268.47        45.06976
268.93        43.59766
269.38        42.05947
269.84        41.04479
270.30        40.69868
270.75        40.85424
271.21         41.1749
271.66        41.15391
272.12        40.65816
272.57        39.83022
273.03        38.94269
273.48        38.31353
273.94        38.05107
274.39        37.98728
274.85         37.9494
275.31        37.66421
275.76        37.06149
276.22        36.27963
276.67        35.44132
277.13        34.83068
277.58        34.44485
278.04         34.2447
278.49        34.03696
278.95        33.63965
279.40        32.98378
279.86        32.20263
280.31        31.40665
280.77        30.88907
281.22        30.64401
281.68        30.60662
282.13        30.60217
282.59         30.4401
283.04         30.0681
283.50        29.59827
283.95        29.09696
284.41        28.69949
284.86        28.42551
285.32         28.2305
285.77         28.1033
286.22        28.10061
286.68        28.18533
287.13        28.31398
287.59        28.35398
288.04        28.08508
288.50        27.51891
288.95        26.72069
289.41        25.89007
289.86        25.21508
290.32        24.80748
290.77        24.59061
291.22        24.54428
291.68        24.59178
292.13         24.7016
292.59        24.89764
293.04        25.16419
293.50        25.47885
293.95        25.81666
294.40        26.14474
294.86        26.45073
295.31        26.73406
295.77        26.99762
296.22        27.24305
296.68        27.45716
297.13        27.59192
297.58        27.66359
298.04        27.70906
298.49        27.79704
298.95        28.06693
299.40        28.53016
299.85        29.14283
300.31        29.80367
300.76        30.36221
301.21        30.75956
301.67         31.0576
302.12        31.26941
302.58        31.47613
303.03        31.67888
303.48        31.86147
303.94        32.07035
304.39        32.34267
304.84        32.68464
305.30        33.07922
305.75        33.42384
306.20        33.57336
306.66        33.52819
307.11        33.32572
307.57        33.09507
308.02        32.95058
308.47        32.95245
308.93        33.05849
309.38         33.2243
309.83        33.41213
310.29        33.58608
310.74         33.7445
311.19        33.85624
311.65         33.8704
312.10        33.77967
312.55        33.60351
313.00        33.36216
313.46        33.10486
313.91        32.84933
314.36        32.60208
314.82        32.41658
315.27        32.35333
315.72        32.42065
316.18        32.59436
316.63        32.78954
317.08        32.84293
317.53        32.71193
317.99         32.4293
318.44        32.10054
318.89        31.89896
319.35        31.85826
319.80        31.93826
320.25        32.01846
320.70        31.90184
321.16        31.54938
321.61        31.02882
322.06        30.48134
322.51        30.11833
322.97        29.97543
323.42        29.99676
323.87        30.05031
324.32        29.91731
324.78        29.54337
325.23        29.01236
325.68        28.44317
326.13        28.03057
326.59        27.82594
327.04         27.7855
327.49        27.83585
327.94        27.85936
328.39        27.81336
328.85        27.72484
329.30        27.64211
329.75        27.60248
330.20         27.6209
330.66        27.65797
331.11          27.714
331.56        27.75031
332.01        27.75176
332.46        27.71595
332.92        27.65065
333.37         27.6044
333.82        27.57578
334.27         27.5667
334.72        27.52447
335.17        27.36237
335.63        27.07222
336.08        26.69409
336.53        26.34286
336.98        26.20419
337.43        26.31382
337.88        26.61987
338.34        26.96354
338.79        27.12966
339.24        27.03545
339.69          26.741
340.14        26.39118
340.59        26.24117
341.05        26.34657
341.50        26.62292
341.95        26.93054
342.40        27.06874
342.85        26.99324
343.30        26.78177
343.75         26.5076
344.20        26.29758
344.66        26.19641
345.11         26.1286
345.56          26.098
346.01        26.10872
346.46        26.14208
346.91         26.2171
347.36        26.22604
347.81        25.99147
348.26        25.51295
348.72         24.8827
349.17        24.27596
349.62        24.06145
350.07        24.31389
350.52        24.90012
350.97        25.61314
351.42        26.13461
351.87        26.36533
352.32        26.39229
352.77        26.26392
353.22         26.0646
353.67        25.83983
354.13        25.56575
354.58        25.28072
355.03        25.08935
355.48        25.01164
355.93        25.04263
356.38        25.10594
356.83        25.06282
357.28        24.88209
357.73        24.60015
358.18          24.299
358.63        24.11062
359.08        24.06349
359.53        24.11409
359.98         24.1766
360.43        24.12116
360.88        23.91796
361.33        23.60582
361.78        23.27107
362.23         23.0519
362.68        22.97848
363.13        23.00397
363.58         23.0372
364.03        22.93668
364.48        22.67529
364.93         22.3096
365.38        21.92243
365.83        21.64323
366.28          21.509
366.73        21.47367
367.18        21.49677
367.63         21.5141
368.08        21.49439
368.53         21.4549
368.98         21.3846
369.43        21.26144
369.88        21.09141
370.33        20.88763
370.78        20.67548
371.23        20.50426
371.68        20.39114
372.13        20.31619
372.58        20.29919
373.03        20.36739
373.48        20.50564
373.93        20.69771
374.38        20.84816
374.83        20.81167
375.28        20.56911
375.72        20.15847
376.17        19.72095
376.62        19.44902
377.07        19.39775
377.52        19.50714
377.97        19.69604
378.42         19.8282
378.87        19.85664
379.32        19.82437
379.77        19.75073
380.22        19.66178
380.67        19.56895
381.11        19.45595
381.56        19.33174
382.01        19.22648
382.46        19.14642
382.91        19.08978
383.36        19.03724
383.81        18.95152
384.26        18.82879
384.71        18.68792
385.15        18.54313
385.60        18.42651
386.05        18.33643
386.50        18.25451
386.95        18.18708
387.40        18.14672
387.85        18.13332
388.29        18.14411
388.74        18.14732
389.19        18.07035
389.64        17.90833
390.09        17.67268
390.54        17.44799
390.98        17.37701
391.43        17.49336
391.88        17.73966
392.33        17.98762
392.78        18.04787
393.23        17.89768
393.67        17.59925
394.12         17.3004
394.57        17.14684
395.02        17.17047
395.47        17.31853
395.91         17.5206
396.36        17.62716
396.81         17.5968
397.26        17.46541
397.71        17.29716
398.15        17.16841
398.60        17.12359
399.05        17.13793
399.50        17.15398
399.95        17.04447
400.39        16.87361
400.84        16.61955
401.29        16.38967
401.74        16.34241
402.18        16.52166
402.63        16.84872
403.08        17.21239
403.53        17.43455
403.97        17.46563
404.42        17.35907
404.87        17.16852
405.32        16.99136
405.76        16.86814
406.21         16.7767
406.66        16.72286
407.11        16.72103
407.55        16.77201
408.00        16.87511
408.45        16.99397
408.90        17.04245
409.34        16.99535
409.79        16.87446
410.24        16.74266
410.68        16.69182
411.13        16.74421
411.58         16.8765
412.03        17.03122
412.47        17.11004
412.92         17.0735
413.37        16.95355
413.81        16.81981
414.26        16.79457
414.71        16.89085
415.15        17.07122
415.60         17.2388
416.05        17.25817
416.49        17.10163
416.94        16.83132
417.39        16.52888
417.83        16.33225
418.28        16.29224
418.73         16.3526
419.17        16.48571
419.62        16.64496
420.07        16.80503
420.51        16.98096
420.96        17.11484
421.41        17.10476
421.85        16.93749
422.30        16.66976
422.74        16.39289
423.19        16.27639
423.64        16.33533
424.08         16.5323
424.53        16.77737
424.98        16.93848
425.42        16.97509
425.87        16.91569
426.31        16.80097
426.76        16.74462
427.21        16.74628
427.65        16.66068
428.10         16.5591
428.54        16.66107
428.99        16.97437
429.44        17.40532
429.88         17.7725
430.33         17.8468
430.77        17.59393
431.22        17.09051
431.66        16.55664
432.11        16.39628
432.56        16.64384
433.00        17.08891
433.45        17.52653
433.89        17.82289
434.34        17.85268
434.78        17.50483
435.23        17.03999
435.67        16.99397
436.12        17.31039
436.57        17.39129
437.01        17.19022
437.46         17.0622
437.90        17.04912
438.35        17.05233
438.79        17.05213
439.24        17.06522
439.68        17.09688
440.13        17.07092
440.57        17.03241
441.02          17.285
441.46        17.69617
441.91        17.62979
442.35        17.16738
442.80        16.95509
443.24        16.97173
443.69        16.97215
444.13        16.90086
444.58        16.67138
445.02        16.36203
445.47        16.32872
445.91        16.52213
446.36         16.5631
446.80        16.42562
447.24        16.33329
447.69        16.30774
448.13        16.27232
448.58        16.23661
449.02        16.21499
449.47         16.2076
449.91        16.21351
450.36        16.23407
450.80        16.26324
451.25        16.29841
451.69        16.32409
452.13        16.33922
452.58        16.33404
453.02        16.32219
453.47        16.32245
453.91        16.34019
454.36        16.37752
454.80        16.39933
455.24        16.34586
455.69        16.22144
456.13        16.04227
456.58        15.89763
457.02        15.89285
457.46        16.04826
457.91        16.31681
458.35        16.60379
458.79        16.75442
459.24        16.74238
459.68        16.60195
460.13         16.4269
460.57         16.3213
461.01        16.33199
461.46        16.41942
461.90        16.53688
462.34        16.60381
462.79        16.59631
463.23        16.53583
463.68        16.47915
464.12        16.52038
464.56         16.6754
465.01        16.91505
465.45        17.12228
465.89        17.19187
466.34        17.11895
466.78        16.84685
467.22        16.52036
467.67        16.53866
468.11        16.85649
468.55        16.97292
468.99        16.84716
469.44        16.75443
469.88        16.75691
470.32        16.90712
470.77        17.14194
471.21        17.23192
471.65        17.14751
472.10        17.06065
472.54        17.01266
472.98        17.01377
473.42        17.08031
473.87        17.21359
474.31        17.36451
474.75        17.45185
475.20        17.46317
475.64        17.41349
476.08        17.35364
476.52        17.36108
476.97        17.45322
477.41        17.60881
477.85        17.77095
478.29        17.88202
478.74        17.92809
479.18        17.84067
479.62         17.6814
480.06        17.84469
480.50        17.97735
480.95        18.11299
481.39        18.10084
481.83        18.08508
482.27         18.0645
482.72        17.88957
483.16         17.6479
483.60        17.72381
484.04        18.13388
484.48        18.32547
484.93        18.49617
485.37        18.95141
485.81        19.60819
486.25        19.60754
486.69        25.79419
487.14        20.75261
487.58         13.5063
488.02        16.66937
488.46        18.48941
488.90        18.65996
489.34        18.97741
489.79        18.92346
490.23        19.75818
490.67        20.22068
491.11        20.11872
491.55        20.07616
491.99        20.03565
492.43        19.90212
492.88        19.74453
493.32        19.76795
493.76        19.84406
494.20        20.04697
494.64        20.31123
495.08        20.61587
495.52        20.94634
495.96        21.28318
496.41        21.55173
496.85        21.78833
497.29        21.94979
497.73        21.60647
498.17        21.08852
498.61        21.27326
499.05        22.14755
499.49        22.34206
499.93        22.36961
500.37        22.46577
500.82        22.57485
501.26         22.8356
501.70        23.13207
502.14        23.29759
502.58        23.30543
503.02        23.33599
503.46        23.39785
503.90         23.3692
504.34        23.28784
504.78         23.2761
505.22        23.35166
505.66         23.4869
506.10        23.63688
506.54        23.72331
506.98        23.72842
507.42        23.68044
507.86        23.63667
508.30        23.68426
508.74        23.83907
509.18         24.0667
509.62         24.3118
510.06        24.48489
510.50        24.56078
510.94        24.57179
511.38        24.54752
511.82        24.53389
512.26        24.54907
512.70        24.57476
513.14        24.61794
513.58        24.69211
514.02        24.78477
514.46        24.88721
514.90        24.96927
515.34         24.9468
515.78        24.78366
516.22        24.65659
516.66        24.61244
517.10        24.29762
517.54        23.72471
517.98        24.43345
518.42        24.19598
518.86        24.50642
519.30        24.68196
519.74         24.9235
520.18        25.15769
520.62        25.23956
521.06        25.17198
521.50        24.97716
521.93        24.73403
522.37        24.58315
522.81        24.56221
523.25        24.63193
523.69        24.74552
524.13        24.82913
524.57         24.8564
525.01        24.84852
525.45        24.81569
525.89        24.77193
526.32        24.72222
526.76        24.66228
527.20        24.58522
527.64        24.49294
528.08         24.3933
528.52        24.26616
528.96        24.12844
529.40         24.0703
529.83        24.10981
530.27        23.97742
530.71        24.10336
531.15        24.03826
531.59        23.91521
532.03        23.73838
532.46        23.58608
532.90         23.5859
533.34        23.74584
533.78        24.01364
534.22        24.27746
534.66        24.37247
535.09        24.26161
535.53        24.01416
535.97        23.70552
536.41        23.46133
536.85        23.32836
537.28        23.27367
537.72        23.28708
538.16        23.35251
538.60        23.45366
539.04        23.57705
539.47         23.7006
539.91         23.8481
540.35        23.98773
540.79        24.02808
541.22        23.99383
541.66        24.02518
542.10        24.13399
542.54        24.23946
542.97        24.35142
543.41         24.5261
543.85         24.7563
544.29        25.04122
544.72        25.30186
545.16        25.42327
545.60        25.39107
546.04        25.23838
546.47        25.10147
546.91        25.20902
547.35        25.58895
547.79        26.16856
548.22        26.76804
548.66         27.0857
549.10        27.07077
549.53        26.85408
549.97        26.59967
550.41        26.49983
550.84        26.61966
551.28        26.90915
551.72        27.29699
552.15        27.65277
552.59        27.92186
553.03        28.14082
553.46        28.31259
553.90        28.46464
554.34         28.6118
554.77        28.70942
555.21        28.76166
555.65        28.86863
556.08        29.05187
556.52        28.93681
556.96        29.19796
557.39        29.28222
557.83        29.39893
558.27        29.52324
558.70        29.67037
559.14        29.84703
559.57        30.03587
560.01        30.24177
560.45         30.4197
560.88        30.50044
561.32         30.4978
561.75        30.41836
562.19        30.33213
562.63        30.30463
563.06        30.35026
563.50        30.45788
563.93        30.59689
564.37        30.73357
564.80        30.84444
565.24        30.95159
565.68        31.05244
566.11        31.14475
566.55        31.25247
566.98        31.36612
567.42        31.50475
567.85        31.69166
568.29        31.94752
568.72        32.17339
569.16        32.41288
569.60        32.80416
570.03        33.18434
570.47        33.28516
570.90        33.26357
571.34        32.74247
571.77        33.20198
572.21        33.55412
572.64        33.48818
573.08        33.03475
573.51        32.13633
573.95        33.45311
574.38        35.33654
574.82        34.74025
