SpectraSmart Spectrum 2.9.0.0
--------- Device Information -----------
Spectrum Name :  反射率_0
Saving Time :  2024/04/25 23:40:03
Spectro-Module Model Name : SE2030-DUVN
Spectro-Module Serial Number : OS361AC55029948
Wavelength Start : 200
Wavelength End : 1025
Wavelength Unit : Wavelength(nm)
Spectrum Unit : Reflectance(%)
-----------Spectrum Setting ------------
Integration Time : 20ms
Average : 10
Boxcar : 0
Background removal :  enabled
linearity correction :  enabled
SC :  disabled
Intensity correction :  disabled
DWT denoise :  enabled
savitzky-golay :  disabled
FFT :  disabled
Running average :  disabled
Kalman :  disabled
High pass :  disabled
---------------BEGIN--------------------
Wavelength(nm)             Reflectance(%)
200.29               0
200.75        78.72967
201.21        70.98766
201.67        62.97687
202.13        59.23646
202.58        60.18235
203.04        64.87333
203.50        70.94456
203.96        74.16423
204.42        73.54429
204.88        70.66498
205.34        67.86639
205.80        67.65775
206.26        71.06292
206.72        80.11692
207.18        97.91245
207.64        111.3326
208.10        96.96819
208.55        73.44728
209.01        59.67654
209.47        55.98206
209.93        58.25869
210.39        64.74205
210.85         72.4401
211.31        74.78716
211.77        69.64686
212.23        59.36854
212.69        49.17963
213.14         47.1744
213.60        54.52657
214.06        68.67017
214.52        83.80531
214.98        91.09465
215.44         88.6488
215.90        79.81205
216.36        68.90588
216.81        61.95198
217.27        60.50095
217.73        62.18058
218.19        64.44878
218.65        64.08526
219.11        59.92837
219.57        51.93929
220.02        40.86964
220.48        32.90766
220.94         32.0249
221.40        37.12852
221.86        43.07419
222.32        44.23918
222.77        40.82109
223.23        35.64102
223.69        31.60479
224.15        31.73457
224.61        35.56789
225.06        41.53417
225.52        47.03016
225.98        48.89852
226.44         46.6635
226.90        41.80223
227.36         36.2977
227.81        32.78326
228.27        32.14931
228.73        33.37073
229.19        35.55272
229.65        37.34769
230.10        38.31971
230.56         38.8882
231.02        39.32178
231.48        39.88589
231.93        40.61427
232.39        41.35038
232.85        41.96466
233.31        42.34481
233.77        42.44831
234.22        42.31476
234.68        42.04609
235.14        41.75381
235.60        41.53531
236.05        41.44788
236.51        41.43393
236.97        41.35325
237.43        41.21151
237.88         41.0786
238.34        41.25626
238.80        42.50453
239.26        45.02934
239.71        48.67344
240.17        52.38091
240.63        54.83068
241.08        55.71873
241.54        55.26232
242.00        54.34269
242.46        54.27964
242.91        55.93853
243.37        60.56771
243.83        75.28844
244.28        122.8778
244.74         176.257
245.20        146.7048
245.66        119.5492
246.11        111.5638
246.57        114.4146
247.03        131.1556
247.48        181.7879
247.94        153.3586
248.40        98.30336
248.85        81.69251
249.31        77.58963
249.77        79.07558
250.22        84.40443
250.68        94.24728
251.14        108.0188
251.59         115.731
252.05        108.2804
252.51        90.79861
252.96        73.00505
253.42        63.36079
253.88        61.03042
254.33        62.84688
254.79        67.43555
255.25        72.30323
255.70        76.05689
256.16        79.40359
256.62        80.94772
257.07        79.17776
257.53        75.04739
257.99        69.13328
258.44        63.47582
258.90        61.30251
259.35        61.66988
259.81        63.23165
260.27        63.85843
260.72        61.51759
261.18        56.99693
261.63        51.27448
262.09        46.10051
262.55        42.85029
263.00         41.4376
263.46        41.19194
263.91        41.12143
264.37         40.4283
264.83         38.9552
265.28        36.93996
265.74        34.97735
266.19        33.71568
266.65        33.35711
267.11        33.51178
267.56        33.68855
268.02        33.30643
268.47        32.26076
268.93        30.77267
269.38        29.11996
269.84        27.98939
270.30        27.57034
270.75        27.67856
271.21        27.98004
271.66        27.98247
272.12        27.54525
272.57        26.82118
273.03        26.07632
273.48        25.62633
273.94        25.56091
274.39        25.72252
274.85        25.89012
275.31        25.74438
275.76        25.21905
276.22        24.45494
276.67        23.65043
277.13        23.17441
277.58        23.03898
278.04        23.14147
278.49        23.23023
278.95        23.00413
279.40        22.40044
279.86        21.59895
280.31        20.76076
280.77         20.2274
281.22        20.02611
281.68        20.04988
282.13        20.17241
282.59        20.24608
283.04        20.21879
283.50        20.17484
283.95        20.07797
284.41        19.88461
284.86        19.60126
285.32        19.24224
285.77        18.94306
286.22        18.97086
286.68        19.32665
287.13        19.89767
287.59        20.43171
288.04        20.54697
288.50        20.20191
288.95        19.51775
289.41        18.75017
289.86        18.18208
290.32        17.94525
290.77        17.94292
291.22        18.10651
291.68        18.29372
292.13        18.46857
292.59        18.67665
293.04        18.97482
293.50        19.44619
293.95         20.0763
294.40        20.78418
294.86        21.45582
295.31         21.9394
295.77        22.20902
296.22        22.32497
296.68        22.35829
297.13        22.39758
297.58        22.50576
298.04        22.67846
298.49        22.95943
298.95        23.44589
299.40        24.12669
299.85        24.96638
300.31        25.83772
300.76        26.54661
301.21        27.02263
301.67        27.33109
302.12        27.51374
302.58        27.69329
303.03        27.89019
303.48        28.08364
303.94        28.31161
304.39        28.59858
304.84         28.9485
305.30         29.3508
305.75        29.72126
306.20        29.93689
306.66        29.99455
307.11         29.9185
307.57        29.80408
308.02        29.72423
308.47        29.73024
308.93         29.7949
309.38        29.90066
309.83        30.04953
310.29        30.21886
310.74        30.39909
311.19        30.54636
311.65        30.59174
312.10        30.52047
312.55        30.35184
313.00        30.11662
313.46        29.87806
313.91         29.6565
314.36           29.46
314.82        29.31069
315.27        29.22386
315.72        29.20702
316.18        29.25294
316.63        29.34394
317.08        29.42701
317.53        29.47657
317.99        29.48354
318.44        29.46517
318.89        29.45612
319.35        29.45439
319.80        29.45861
320.25        29.40587
320.70        29.20064
321.16        28.84028
321.61        28.36261
322.06        27.88781
322.51         27.5954
322.97        27.51003
323.42        27.59097
323.87        27.70673
324.32         27.6322
324.78         27.3108
325.23        26.81994
325.68         26.2809
326.13        25.89721
326.59        25.72257
327.04        25.71035
327.49        25.78399
327.94        25.81876
328.39        25.77189
328.85        25.67596
329.30        25.58222
329.75        25.53677
330.20        25.55514
330.66         25.5903
331.11        25.64412
331.56         25.6813
332.01        25.68545
332.46        25.65938
332.92        25.58853
333.37        25.47656
333.82        25.31984
334.27        25.13418
334.72        24.92999
335.17        24.72673
335.63        24.53907
336.08        24.37265
336.53          24.266
336.98        24.27979
337.43        24.41705
337.88        24.66333
338.34        24.90882
338.79        25.02118
339.24        24.94595
339.69         24.7121
340.14        24.45157
340.59        24.39818
341.05        24.58849
341.50        24.94401
341.95        25.30201
342.40        25.42523
342.85        25.26706
343.30        24.91546
343.75        24.47658
344.20        24.13939
344.66         23.9711
345.11        23.88414
345.56        23.86377
346.01        23.88127
346.46        23.90656
346.91        23.96866
347.36        23.96437
347.81        23.72164
348.26        23.24236
348.72        22.61594
349.17        22.01349
349.62        21.80024
350.07         22.0517
350.52        22.63658
350.97        23.35809
351.42        23.91363
351.87        24.20312
352.32         24.3036
352.77        24.24639
353.22        24.08922
353.67        23.87065
354.13        23.57651
354.58        23.25242
355.03        23.01448
355.48        22.89087
355.93        22.87571
356.38         22.9049
356.83        22.85856
357.28        22.70726
357.73         22.4822
358.18        22.24847
358.63        22.10863
359.08        22.08555
359.53        22.14776
359.98        22.22025
360.43        22.19036
360.88        22.03563
361.33        21.78765
361.78        21.53684
362.23        21.42983
362.68        21.48768
363.13        21.64858
363.58        21.80012
364.03        21.76949
364.48        21.52145
364.93         21.1264
365.38        20.66677
365.83        20.27196
366.28        19.99384
366.73        19.79762
367.18        19.68875
367.63        19.67489
368.08        19.73599
368.53        19.86197
368.98        19.99162
369.43        20.02422
369.88        19.93958
370.33        19.76837
370.78        19.54466
371.23        19.33624
371.68        19.17333
372.13        19.03256
372.58        18.95218
373.03        18.99178
373.48        19.14724
373.93        19.40076
374.38        19.64299
374.83        19.70338
375.28        19.55111
375.72        19.22117
376.17        18.85676
376.62        18.65554
377.07        18.66902
377.52        18.83256
377.97        19.04158
378.42        19.12684
378.87        19.04436
379.32        18.85714
379.77        18.63249
380.22        18.46222
380.67        18.37079
381.11        18.32556
381.56        18.29563
382.01        18.24362
382.46        18.15576
382.91        18.04595
383.36        17.93034
383.81        17.82935
384.26        17.75032
384.71        17.69086
385.15        17.62297
385.60        17.51773
386.05        17.36437
386.50        17.16634
386.95        16.97662
387.40        16.88648
387.85         16.9124
388.29        17.01931
388.74        17.12617
389.19        17.10341
389.64        16.93438
390.09        16.64781
390.54        16.34951
390.98        16.21846
391.43        16.30164
391.88        16.53256
392.33        16.76834
392.78        16.79865
393.23        16.59986
393.67        16.24666
394.12        15.90298
394.57        15.73857
395.02        15.78645
395.47        15.98239
395.91        16.23575
396.36        16.36367
396.81        16.31252
397.26        16.12908
397.71        15.89015
398.15        15.69298
398.60        15.58944
399.05        15.55124
399.50        15.52157
399.95        15.37774
400.39        15.17374
400.84        14.89181
401.29        14.63586
401.74        14.56108
402.18          14.712
402.63        15.01632
403.08        15.35619
403.53        15.54311
403.97        15.52687
404.42        15.36051
404.87        15.12368
405.32        14.95787
405.76        14.90612
406.21        14.92598
406.66        14.97312
407.11        14.98991
407.55        14.96383
408.00        14.91446
408.45        14.85215
408.90        14.78453
409.34        14.72077
409.79        14.65641
410.24        14.61018
410.68        14.60993
411.13        14.66034
411.58        14.75634
412.03        14.86267
412.47         14.9183
412.92        14.89568
413.37        14.80997
413.81        14.70699
414.26        14.67465
414.71        14.72063
415.15        14.82231
415.60          14.907
416.05         14.8765
416.49        14.71171
416.94        14.46122
417.39        14.19008
417.83        14.00883
418.28        13.95871
418.73        13.99417
419.17        14.08871
419.62        14.19425
420.07        14.28916
420.51         14.3863
420.96        14.44566
421.41        14.39743
421.85        14.23405
422.30         13.9995
422.74        13.75945
423.19        13.64007
423.64        13.65059
424.08        13.76586
424.53        13.91756
424.98        14.01104
425.42        14.01904
425.87          13.961
426.31         13.8681
426.76        13.83198
427.21        13.84868
427.65         13.7979
428.10        13.73201
428.54        13.82078
428.99        14.06741
429.44        14.39535
429.88        14.66395
430.33        14.69698
430.77        14.46983
431.22         14.0427
431.66        13.58878
432.11        13.42684
432.56        13.58302
433.00          13.892
433.45        14.19706
433.89        14.41189
434.34        14.44229
434.78        14.18811
435.23        13.85535
435.67        13.87428
436.12         14.1972
436.57        14.33316
437.01         14.2209
437.46        14.11955
437.90        14.05706
438.35        13.96233
438.79        13.84526
439.24         13.7614
439.68        13.72594
440.13        13.66804
440.57         13.6128
441.02        13.78051
441.46        14.05989
441.91        13.95933
442.35        13.54968
442.80        13.34739
443.24        13.33371
443.69        13.31162
444.13        13.24486
444.58        13.08244
445.02        12.88297
445.47        12.91992
445.91        13.13244
446.36         13.1835
446.80        13.04367
447.24        12.90036
447.69        12.79743
448.13        12.71548
448.58        12.67333
449.02         12.6716
449.47        12.68554
449.91        12.67348
450.36        12.62889
450.80        12.56179
451.25        12.50095
451.69        12.47938
452.13        12.50594
452.58        12.55534
453.02         12.6097
453.47        12.63688
453.91        12.63134
454.36        12.60896
454.80        12.56626
455.24        12.49761
455.69         12.4181
456.13        12.32657
456.58        12.27285
457.02         12.3111
457.46        12.45068
457.91        12.66259
458.35         12.8881
458.79        13.02521
459.24        13.05688
459.68        12.99875
460.13        12.91059
460.57        12.85064
461.01        12.85313
461.46        12.89352
461.90        12.94893
462.34        12.97157
462.79        12.94822
463.23        12.88904
463.68        12.83714
464.12        12.86018
464.56         12.9708
465.01        13.15039
465.45        13.30425
465.89         13.3408
466.34         13.2578
466.78        13.01656
467.22        12.74224
467.67        12.76528
468.11        13.05444
468.55        13.21149
468.99        13.18906
469.44        13.17838
469.88        13.21936
470.32        13.35918
470.77        13.54027
471.21        13.57205
471.65        13.43554
472.10        13.27507
472.54        13.14852
472.98        13.10871
473.42        13.17869
473.87        13.34634
474.31        13.55016
474.75        13.68567
475.20        13.73053
475.64        13.70516
476.08        13.66148
476.52        13.68047
476.97        13.78042
477.41        13.93778
477.85          14.095
478.29        14.18846
478.74        14.20367
479.18        14.09224
479.62        13.92237
480.06        14.03253
480.50        14.14991
480.95        14.29482
481.39        14.32389
481.83        14.31098
482.27        14.25105
482.72        14.04729
483.16        13.80167
483.60        13.85216
484.04        14.21124
484.48        14.48147
484.93        14.81886
485.37        15.24801
485.81        15.66052
486.25        16.00643
486.69        21.16439
487.14        16.66672
487.58        11.07886
488.02        13.58011
488.46        15.29005
488.90        15.39792
489.34        15.53975
489.79        15.46674
490.23        16.21844
490.67        16.69076
491.11          16.671
491.55        16.59415
491.99        16.42712
492.43        16.24214
492.88        16.11163
493.32        16.09419
493.76        16.10782
494.20        16.30378
494.64          16.636
495.08        17.05913
495.52        17.50447
495.96        17.88708
496.41        18.13077
496.85        18.23537
497.29        18.23482
497.73        18.01023
498.17        17.79646
498.61        18.02031
499.05        18.67087
499.49           18.85
499.93        18.99548
500.37        19.14268
500.82        19.24017
501.26        19.48065
501.70        19.76693
502.14        19.93445
502.58        19.95675
503.02        19.98577
503.46        20.02809
503.90        19.98341
504.34        19.89123
504.78        19.86369
505.22        19.91876
505.66        20.03456
506.10        20.16358
506.54        20.22225
506.98        20.19423
507.42        20.11023
507.86        20.03831
508.30        20.08233
508.74        20.25967
509.18        20.52911
509.62        20.82097
510.06        21.02168
510.50        21.09966
510.94        21.09524
511.38        21.04664
511.82        21.01438
512.26        21.02202
512.70        21.04566
513.14        21.09517
513.58        21.18862
514.02        21.31158
514.46        21.45447
514.90        21.57335
515.34        21.56063
515.78        21.37471
516.22        21.20381
516.66        21.11345
517.10        20.76205
517.54        20.16853
517.98        20.93566
518.42        20.71234
518.86        21.03034
519.30        21.17029
519.74        21.35608
520.18        21.52963
520.62        21.56824
521.06        21.48344
521.50         21.2876
521.93        21.05687
522.37         20.9282
522.81        20.93342
523.25        21.03321
523.69        21.16896
524.13        21.24827
524.57        21.24283
525.01        21.17975
525.45        21.08399
525.89        20.99551
526.32        20.92639
526.76        20.86386
527.20        20.79432
527.64        20.70654
528.08        20.60333
528.52        20.47522
528.96        20.33455
529.40        20.25328
529.83        20.24829
530.27        20.09252
530.71        20.16023
531.15        20.09593
531.59        20.01336
532.03         19.9103
532.46        19.83036
532.90        19.84502
533.34        19.95321
533.78        20.12329
534.22        20.28565
534.66        20.33997
535.09        20.26093
535.53        20.08996
535.97         19.8732
536.41        19.68847
536.85         19.5679
537.28        19.49892
537.72         19.4735
538.16        19.47718
538.60        19.50438
539.04        19.54529
539.47         19.6097
539.91        19.76023
540.35        19.97145
540.79        20.14718
541.22        20.26483
541.66        20.37268
542.10        20.46538
542.54        20.50054
542.97        20.51028
543.41        20.58131
543.85        20.72641
544.29        20.93542
544.72        21.15734
545.16        21.31975
545.60         21.4061
546.04        21.43085
546.47        21.47202
546.91        21.66283
547.35        22.01133
547.79        22.47502
548.22        22.91995
548.66        23.12213
549.10        23.05621
549.53        22.82578
549.97        22.58911
550.41        22.53801
550.84        22.72892
551.28        23.11181
551.72        23.59541
552.15        24.01431
552.59        24.30254
553.03        24.50133
553.46        24.63376
553.90        24.75665
554.34        24.89388
554.77        24.99823
555.21        25.06369
555.65        25.16103
556.08        25.30657
556.52        25.18352
556.96        25.39373
557.39        25.47632
557.83        25.61547
558.27        25.77983
558.70        25.96544
559.14        26.14989
559.57        26.31181
560.01        26.46682
560.45        26.58744
560.88        26.63078
561.32        26.61793
561.75        26.55145
562.19        26.49423
562.63        26.50469
563.06        26.59271
563.50        26.74781
563.93        26.93609
564.37        27.11012
564.80        27.24707
565.24        27.37603
565.68        27.48249
566.11        27.56096
566.55        27.63947
566.98        27.66671
567.42        27.70527
567.85        27.95761
568.29        28.39569
568.72        28.65907
569.16        28.78823
569.60        29.15315
570.03        29.62222
570.47        29.73094
570.90        29.60209
571.34        29.30237
571.77        29.73567
572.21        29.87264
572.64        30.01289
573.08        29.57759
573.51        28.60431
573.95        29.88727
574.38         31.8755
574.82        31.32324
