SpectraSmart Spectrum 2.9.0.0
--------- Device Information -----------
Spectrum Name :  反射率_0
Saving Time :  2024/04/26 00:39:15
Spectro-Module Model Name : SE2030-DUVN
Spectro-Module Serial Number : OS361AC55029948
Wavelength Start : 200
Wavelength End : 1025
Wavelength Unit : Wavelength(nm)
Spectrum Unit : Reflectance(%)
-----------Spectrum Setting ------------
Integration Time : 20ms
Average : 10
Boxcar : 0
Background removal :  enabled
linearity correction :  enabled
SC :  disabled
Intensity correction :  disabled
DWT denoise :  enabled
savitzky-golay :  disabled
FFT :  disabled
Running average :  disabled
Kalman :  disabled
High pass :  disabled
---------------BEGIN--------------------
Wavelength(nm)             Reflectance(%)
200.29               0
200.75        82.59045
201.21        82.67314
201.67        81.27345
202.13        78.67532
202.58        75.19915
203.04        71.48869
203.50        67.72533
203.96        64.63612
204.42        62.74289
204.88         61.7095
205.34        61.82053
205.80        63.65583
206.26        67.95674
206.72        77.44588
207.18        95.84963
207.64        111.9509
208.10        101.6931
208.55        80.06764
209.01        66.50589
209.47        62.66409
209.93        64.69737
210.39         70.5761
210.85        77.94183
211.31        81.38218
211.77        78.89928
212.23        72.64112
212.69        65.98051
213.14        64.11654
213.60        67.85074
214.06        75.47644
214.52        84.14339
214.98        89.65166
215.44        90.69061
215.90        88.58672
216.36        84.83611
216.81        81.32028
217.27         79.1066
217.73        77.79399
218.19        76.32363
218.65        73.13869
219.11        67.46631
219.57        58.38802
220.02        47.54333
220.48        43.14024
220.94        48.96349
221.40        62.27807
221.86        73.76292
222.32        74.16465
222.77        65.14449
223.23        52.36762
223.69        41.56231
224.15        38.57096
224.61        42.75464
225.06        51.10032
225.52        59.86834
225.98        64.26729
226.44        63.35963
226.90        59.23406
227.36        54.09024
227.81        50.82575
228.27        50.48296
228.73        51.79365
229.19        54.05329
229.65        56.28795
230.10         57.9657
230.56        59.39521
231.02        60.49033
231.48        61.10327
231.93        61.27252
232.39        61.08488
232.85        60.62849
233.31        60.15033
233.77        59.70801
234.22        59.21821
234.68        58.71681
235.14        58.25927
235.60        57.87249
236.05        57.62441
236.51        57.32655
236.97        56.57421
237.43        55.24765
237.88        53.39385
238.34        51.25716
238.80        50.00161
239.26        50.30145
239.71        52.10282
240.17        54.69196
240.63        57.11557
241.08        58.98077
241.54        60.36079
242.00         61.4003
242.46        62.44732
242.91        64.03459
243.37        66.56447
243.83        73.68745
244.28        99.76254
244.74        134.7849
245.20        122.4122
245.66        107.2961
246.11        101.7611
246.57        100.9651
247.03        103.8851
247.48        108.6072
247.94        83.14912
248.40        72.10595
248.85        71.30913
249.31        72.50567
249.77        74.71873
250.22        78.16245
250.68          83.698
251.14        91.09717
251.59        94.93245
252.05        90.55051
252.51        80.84607
252.96         70.9333
253.42        65.61378
253.88        64.28435
254.33        65.11388
254.79        67.94961
255.25        71.91122
255.70        75.93749
256.16        80.07993
256.62        82.53761
257.07        81.46307
257.53        77.79635
257.99        72.26395
258.44        66.98108
258.90        65.23985
259.35        66.00856
259.81         67.8654
260.27        68.59946
260.72        66.11929
261.18        61.28171
261.63        55.12501
262.09        49.48901
262.55        45.81614
263.00         44.0597
263.46        43.57173
263.91         43.3182
264.37        42.47161
264.83        40.85618
265.28        38.69377
265.74        36.65216
266.19        35.47921
266.65        35.35473
267.11        35.82169
267.56        36.23697
268.02        35.85569
268.47        34.57207
268.93          32.671
269.38        30.58027
269.84        29.26463
270.30        28.98798
270.75        29.46508
271.21        30.20623
271.66        30.48135
272.12        30.08697
272.57        29.25337
273.03        28.31152
273.48        27.67193
273.94         27.4663
274.39        27.50453
274.85        27.58272
275.31        27.40792
275.76        26.91336
276.22        26.24396
276.67        25.55855
277.13        25.16439
277.58        25.05894
278.04        25.15401
278.49        25.23296
278.95        25.05553
279.40        24.55872
279.86        23.89666
280.31        23.18043
280.77        22.68423
281.22        22.42319
281.68        22.32448
282.13        22.30041
282.59        22.26258
283.04        22.17006
283.50        22.08972
283.95        21.96909
284.41        21.74337
284.86        21.41068
285.32        20.99721
285.77        20.63435
286.22        20.58437
286.68        20.84842
287.13        21.30882
287.59        21.72956
288.04        21.75157
288.50         21.3375
288.95        20.60394
289.41        19.77839
289.86        19.09953
290.32        18.69508
290.77        18.48016
291.22         18.4323
291.68        18.47816
292.13        18.59207
292.59        18.79971
293.04        19.09999
293.50        19.48389
293.95        19.92341
294.40        20.37365
294.86        20.78834
295.31        21.11919
295.77         21.3605
296.22        21.53297
296.68        21.65471
297.13        21.72954
297.58        21.79333
298.04        21.86989
298.49         22.0204
298.95        22.36831
299.40         22.9159
299.85        23.61711
300.31        24.36444
300.76         24.9971
301.21        25.45221
301.67        25.79462
302.12        26.03298
302.58        26.23327
303.03        26.40954
303.48        26.55444
303.94        26.75183
304.39        27.09971
304.84        27.60787
305.30        28.23279
305.75        28.82763
306.20        29.17366
306.66        29.24607
307.11         29.1017
307.57         28.8871
308.02        28.75257
308.47        28.77128
308.93        28.89649
309.38        29.08265
309.83        29.28741
310.29        29.47616
310.74        29.65361
311.19        29.80499
311.65        29.90261
312.10        29.93941
312.55        29.92222
313.00        29.83508
313.46        29.66802
313.91        29.42379
314.36        29.12548
314.82        28.86184
315.27        28.75159
315.72        28.81893
316.18        29.02802
316.63        29.27305
317.08        29.35491
317.53        29.22363
317.99        28.92733
318.44        28.59332
318.89        28.42732
319.35        28.46867
319.80        28.65846
320.25        28.85554
320.70        28.82882
321.16        28.52575
321.61        28.02604
322.06        27.47267
322.51        27.07993
322.97        26.89252
323.42        26.85469
323.87        26.86076
324.32        26.73661
324.78        26.43657
325.23        26.03033
325.68        25.60332
326.13        25.29149
326.59        25.13022
327.04         25.0906
327.49        25.11724
327.94        25.12535
328.39        25.08388
328.85        25.00577
329.30         24.9406
329.75        24.93411
330.20         24.9968
330.66        25.08958
331.11        25.18517
331.56        25.19841
332.01        25.10756
332.46        24.92629
332.92        24.70273
333.37        24.55377
333.82        24.50797
334.27        24.55166
334.72        24.61307
335.17        24.56746
335.63        24.38438
336.08        24.10602
336.53        23.83687
336.98        23.74653
337.43         23.8703
337.88        24.16154
338.34        24.46865
338.79        24.59142
339.24        24.45675
339.69        24.11988
340.14        23.74921
340.59        23.63758
341.05        23.83609
341.50        24.24038
341.95        24.65568
342.40        24.79893
342.85        24.61423
343.30        24.21255
343.75        23.71042
344.20        23.31415
344.66        23.10357
345.11        22.98216
345.56        22.96018
346.01        23.04886
346.46        23.21264
346.91        23.45954
347.36         23.6262
347.81        23.44706
348.26        22.90391
348.72         22.1148
349.17        21.30194
349.62         20.9187
350.07        21.07354
350.52        21.61714
350.97          22.334
351.42        22.88788
351.87        23.16927
352.32        23.27079
352.77         23.2312
353.22         23.1163
353.67        22.96275
354.13        22.74237
354.58        22.49213
355.03        22.31926
355.48        22.24622
355.93        22.26917
356.38        22.31543
356.83        22.25292
357.28        22.05406
357.73        21.75538
358.18        21.44609
358.63        21.26652
359.08        21.24657
359.53        21.34425
359.98        21.45883
360.43        21.43511
360.88         21.2422
361.33        20.92805
361.78        20.60321
362.23        20.44725
362.68        20.49113
363.13        20.65953
363.58        20.83517
364.03        20.83839
364.48        20.62767
364.93        20.27608
365.38        19.85093
365.83        19.45662
366.28        19.14186
366.73        18.87816
367.18        18.69668
367.63        18.64856
368.08        18.72485
368.53        18.90438
368.98        19.10066
369.43        19.17282
369.88        19.09038
370.33        18.89438
370.78        18.63999
371.23        18.42967
371.68         18.3021
372.13        18.22234
372.58         18.2027
373.03        18.26141
373.48        18.38359
373.93        18.56347
374.38        18.72238
374.83        18.73526
375.28        18.58188
375.72        18.28724
376.17        17.96303
376.62        17.75469
377.07        17.70529
377.52        17.76955
377.97        17.88621
378.42        17.95469
378.87         17.9397
379.32        17.87114
379.77         17.7724
380.22        17.67286
380.67        17.58341
381.11        17.49736
381.56        17.39645
382.01        17.26438
382.46        17.10224
382.91        16.91611
383.36        16.75093
383.81        16.67356
384.26        16.69138
384.71        16.78412
385.15        16.86722
385.60        16.82602
386.05        16.63497
386.50        16.32405
386.95        15.99269
387.40        15.81687
387.85        15.83827
388.29        15.99193
388.74        16.16808
389.19         16.2045
389.64        16.07605
390.09        15.82689
390.54        15.55888
390.98         15.4407
391.43        15.52018
391.88        15.73134
392.33        15.95197
392.78        16.00432
393.23        15.86736
393.67        15.60454
394.12        15.35426
394.57        15.25362
395.02        15.33109
395.47        15.53259
395.91        15.78648
396.36        15.94335
396.81        15.95466
397.26        15.85074
397.71        15.68591
398.15        15.52573
398.60        15.41804
399.05         15.3523
399.50        15.28503
399.95        15.11055
400.39        14.88902
400.84        14.59834
401.29        14.35227
401.74        14.32351
402.18        14.55447
402.63        14.96313
403.08         15.4049
403.53        15.65082
403.97        15.64205
404.42        15.44416
404.87        15.15148
405.32        14.93369
405.76        14.84733
406.21        14.84284
406.66        14.88297
407.11        14.92022
407.55        14.93982
408.00         14.9594
408.45        14.96768
408.90        14.92824
409.34        14.83872
409.79        14.71065
410.24        14.58715
410.68        14.53054
411.13        14.55609
411.58        14.65055
412.03         14.7793
412.47        14.88041
412.92         14.9208
413.37         14.9137
413.81        14.89179
414.26        14.92334
414.71        15.01056
415.15        15.13219
415.60        15.22127
416.05        15.19222
416.49        15.02977
416.94        14.77861
417.39        14.50207
417.83        14.30792
418.28        14.23736
418.73        14.24889
419.17        14.31751
419.62        14.39486
420.07        14.46082
420.51        14.53081
420.96        14.56862
421.41        14.51025
421.85        14.35066
422.30        14.13218
422.74        13.91832
423.19        13.83436
423.64         13.8866
424.08        14.04539
424.53         14.2404
424.98        14.37222
425.42        14.41034
425.87         14.3778
426.31        14.29317
426.76        14.23075
427.21        14.18647
427.65        14.04189
428.10        13.89199
428.54        13.97596
428.99        14.30655
429.44        14.78358
429.88        15.20299
430.33        15.29341
430.77        15.01537
431.22        14.46441
431.66        13.87321
432.11        13.64425
432.56          13.821
433.00         14.2127
433.45        14.62791
433.89         14.9137
434.34        14.94763
434.78        14.64926
435.23        14.25312
435.67        14.22678
436.12        14.52794
436.57        14.64537
437.01        14.51964
437.46        14.42168
437.90        14.37938
438.35        14.31867
438.79        14.24409
439.24        14.20169
439.68         14.2034
440.13        14.17822
440.57        14.14581
441.02        14.32808
441.46        14.60883
441.91        14.47614
442.35        14.02244
442.80        13.80779
443.24        13.81394
443.69        13.82981
444.13        13.79312
444.58         13.6077
445.02        13.33159
445.47        13.26952
445.91        13.38492
446.36        13.37778
446.80        13.23285
447.24        13.12428
447.69        13.08771
448.13        13.08912
448.58        13.13674
449.02        13.23327
449.47        13.33471
449.91        13.36846
450.36        13.32277
450.80        13.21423
451.25        13.09791
451.69        13.05088
452.13        13.09283
452.58        13.18688
453.02        13.29491
453.47        13.35261
453.91         13.3467
454.36        13.30466
454.80        13.23641
455.24        13.15759
455.69        13.08889
456.13        13.01891
456.58        12.98973
457.02        13.04421
457.46        13.18948
457.91        13.40325
458.35        13.62611
458.79        13.75498
459.24        13.77485
459.68        13.70014
460.13        13.60235
460.57        13.55698
461.01        13.59987
461.46        13.70165
461.90        13.81892
462.34        13.87284
462.79        13.84358
463.23        13.74927
463.68        13.65648
464.12        13.67479
464.56        13.82543
465.01        14.07516
465.45        14.30017
465.89        14.37281
466.34        14.28524
466.78        14.00521
467.22        13.68256
467.67        13.69458
468.11        14.01437
468.55        14.20925
468.99        14.21386
469.44        14.21156
469.88        14.24153
470.32        14.36283
470.77        14.53111
471.21        14.56897
471.65        14.46145
472.10        14.35177
472.54        14.28362
472.98        14.28332
473.42        14.36695
473.87        14.53095
474.31        14.72138
474.75        14.84573
475.20        14.88682
475.64        14.86238
476.08        14.82144
476.52        14.84076
476.97        14.93803
477.41        15.09076
477.85        15.24782
478.29        15.35737
478.74        15.40507
479.18         15.3313
479.62        15.18942
480.06        15.31787
480.50        15.41494
480.95         15.5137
481.39        15.48027
481.83        15.43187
482.27        15.36567
482.72         15.1533
483.16        14.89724
483.60        14.95641
484.04        15.34913
484.48        15.64185
484.93        15.94044
485.37        16.36415
485.81        16.82549
486.25        16.87723
486.69         21.7743
487.14        17.71952
487.58        11.81724
488.02        14.42038
488.46        16.12203
488.90        16.11934
489.34        16.37246
489.79        16.36348
490.23         17.1812
490.67        17.69974
491.11        17.67931
491.55        17.56854
491.99        17.35041
492.43        17.13921
492.88        17.01841
493.32        17.03915
493.76        17.08983
494.20        17.29171
494.64        17.58858
495.08        17.94635
495.52        18.32403
495.96        18.68036
496.41        18.94525
496.85        19.10132
497.29        19.15467
497.73        18.93336
498.17        18.67227
498.61        18.83432
499.05        19.42085
499.49        19.52649
499.93        19.62328
500.37        19.74191
500.82        19.82432
501.26        20.06067
501.70        20.34648
502.14         20.5133
502.58        20.53871
503.02         20.5846
503.46        20.65662
503.90        20.64897
504.34        20.58341
504.78        20.54784
505.22        20.55732
505.66        20.59663
506.10        20.64952
506.54        20.68538
506.98        20.69967
507.42        20.70708
507.86        20.73696
508.30        20.83248
508.74         20.9959
509.18        21.20247
509.62        21.41453
510.06        21.57164
510.50         21.6573
510.94        21.69653
511.38        21.69847
511.82        21.67866
512.26        21.64982
512.70        21.60165
513.14        21.57498
513.58         21.6376
514.02        21.78568
514.46        21.99254
514.90        22.17739
515.34        22.17583
515.78        21.93559
516.22        21.66536
516.66        21.46749
517.10        21.06157
517.54        20.48378
517.98        21.31087
518.42        21.17803
518.86        21.57315
519.30        21.76701
519.74        21.99071
520.18        22.19076
520.62        22.25187
521.06        22.18771
521.50        22.00601
521.93         21.7795
522.37        21.64219
522.81        21.62789
523.25        21.70265
523.69        21.81722
524.13        21.89149
524.57        21.89994
525.01        21.86614
525.45        21.80841
525.89         21.7549
526.32        21.71339
526.76        21.67384
527.20        21.62296
527.64         21.5515
528.08        21.46256
528.52        21.34241
528.96        21.20699
529.40        21.13657
529.83        21.15026
530.27        21.01312
530.71        21.10658
531.15        21.04381
531.59        20.94187
532.03        20.80004
532.46         20.6877
532.90         20.7171
533.34        20.89344
533.78        21.17448
534.22        21.44563
534.66        21.53894
535.09        21.41955
535.53        21.15008
535.97        20.83432
536.41         20.6422
536.85         20.6226
537.28        20.73036
537.72         20.8922
538.16        20.98912
538.60        20.98947
539.04        20.91723
539.47        20.83582
539.91        20.89097
540.35        21.07751
540.79        21.27063
541.22        21.41901
541.66        21.53145
542.10        21.59033
542.54        21.56659
542.97        21.51344
543.41        21.54921
543.85        21.69196
544.29         21.9183
544.72        22.15471
545.16        22.29548
545.60         22.3194
546.04        22.25735
546.47        22.20915
546.91        22.34161
547.35        22.67074
547.79        23.13974
548.22        23.60782
548.66        23.83692
549.10        23.79432
549.53        23.59518
549.97        23.37454
550.41        23.27918
550.84        23.36342
551.28         23.5948
551.72        23.92269
552.15        24.25025
552.59        24.52922
553.03        24.77845
553.46        24.98541
553.90        25.15242
554.34        25.28802
554.77        25.36184
555.21         25.3768
555.65        25.42035
556.08         25.5166
556.52        25.33822
556.96        25.50007
557.39        25.55383
557.83        25.68509
558.27        25.86036
558.70        26.05688
559.14        26.21997
559.57        26.32322
560.01        26.39309
560.45        26.42543
560.88        26.41514
561.32        26.39056
561.75        26.33946
562.19        26.30637
562.63        26.32346
563.06        26.39375
563.50         26.5151
563.93        26.66022
564.37        26.79713
564.80        26.90522
565.24         27.0007
565.68        27.08464
566.11        27.16244
566.55        27.25681
566.98        27.35814
567.42        27.48045
567.85        27.63822
568.29        27.84845
568.72        28.02644
569.16        28.20999
569.60        28.53137
570.03        28.85526
570.47        28.91474
570.90          28.834
571.34        28.39373
571.77        28.77842
572.21        28.92345
572.64        28.88439
573.08        28.47419
573.51        27.54401
573.95        28.74199
574.38        30.58971
574.82        29.94501
