SpectraSmart Spectrum 2.9.0.0
--------- Device Information -----------
Spectrum Name :  反射率_0
Saving Time :  2024/04/25 23:55:09
Spectro-Module Model Name : SE2030-DUVN
Spectro-Module Serial Number : OS361AC55029948
Wavelength Start : 200
Wavelength End : 1025
Wavelength Unit : Wavelength(nm)
Spectrum Unit : Reflectance(%)
-----------Spectrum Setting ------------
Integration Time : 20ms
Average : 10
Boxcar : 0
Background removal :  enabled
linearity correction :  enabled
SC :  disabled
Intensity correction :  disabled
DWT denoise :  enabled
savitzky-golay :  disabled
FFT :  disabled
Running average :  disabled
Kalman :  disabled
High pass :  disabled
---------------BEGIN--------------------
Wavelength(nm)             Reflectance(%)
200.29               0
200.75        74.86317
201.21        69.48826
201.67         63.6094
202.13        60.08353
202.58        59.20166
203.04        60.51301
203.50        62.92707
203.96        64.50265
204.42        64.66455
204.88        64.03136
205.34        63.44848
205.80        63.90226
206.26        65.95537
206.72        70.73921
207.18        79.94032
207.64        87.49319
208.10        81.17798
208.55         69.3583
209.01        62.15086
209.47        60.19817
209.93        61.42729
210.39        65.13885
210.85        69.25686
211.31        69.35538
211.77        64.31882
212.23        55.75237
212.69        48.09942
213.14        48.28277
213.60        57.10447
214.06        72.40716
214.52        88.44011
214.98        96.43917
215.44        94.54658
215.90        85.92802
216.36        75.11928
216.81        68.48336
217.27        67.64109
217.73        70.22418
218.19         73.3485
218.65        73.36375
219.11        69.01118
219.57        60.06504
220.02        47.84808
220.48        40.23351
220.94        41.70737
221.40        50.23806
221.86        58.28255
222.32        57.95232
222.77         50.3798
223.23        40.28419
223.69        32.25727
224.15        30.97052
224.61        35.80201
225.06        44.19061
225.52        52.89468
225.98          57.859
226.44        58.20472
226.90        55.62393
227.36          51.897
227.81        49.37409
228.27        48.99856
228.73        49.78385
229.19        51.19411
229.65        52.51171
230.10        53.39742
230.56        54.11098
231.02        54.73586
231.48        55.31753
231.93        55.83252
232.39        56.26261
232.85        56.41492
233.31        56.07355
233.77        55.20773
234.22        53.87651
234.68         52.3797
235.14        51.30413
235.60        50.90713
236.05        51.12208
236.51        51.60828
236.97        51.78339
237.43        51.49238
237.88        50.85837
238.34        50.14585
238.80        50.31749
239.26        51.75783
239.71        54.28269
240.17         56.8788
240.63        58.28585
241.08        58.25188
241.54        57.16996
242.00        55.73422
242.46        54.77915
242.91          54.663
243.37        55.12977
243.83        59.16933
244.28        83.84241
244.74        132.3564
245.20        131.7803
245.66        117.6465
246.11        110.7645
246.57        106.9662
247.03         100.505
247.48         70.9266
247.94        34.60451
248.40        53.36048
248.85        65.32149
249.31        71.77115
249.77        76.09048
250.22        80.30613
250.68        85.96552
251.14        93.28362
251.59        97.93467
252.05        95.54969
252.51        88.10774
252.96        79.25966
253.42        72.82475
253.88        68.50172
254.33        65.13544
254.79        64.10365
255.25        66.58488
255.70        71.53023
256.16        77.78257
256.62        82.30133
257.07        82.08775
257.53        78.14632
257.99        71.77219
258.44        65.62906
258.90        63.59008
259.35        64.60104
259.81        66.89963
260.27        68.01272
260.72        65.62312
261.18        60.62945
261.63        54.22626
262.09        48.37172
262.55        44.64117
263.00        42.97434
263.46        42.62405
263.91        42.51372
264.37         41.7699
264.83        40.22004
265.28        38.12838
265.74        36.13321
266.19        34.93563
266.65        34.73061
267.11        35.08104
267.56        35.43865
268.02        35.17709
268.47        34.18754
268.93         32.7075
269.38        31.04518
269.84         29.9389
270.30        29.58771
270.75        29.78678
271.21         30.1624
271.66        30.16188
272.12        29.64049
272.57        28.78138
273.03        27.89503
273.48        27.35828
273.94        27.27901
274.39        27.47643
274.85        27.71537
275.31        27.65198
275.76        27.20592
276.22         26.5245
276.67        25.78844
277.13        25.34641
277.58        25.20585
278.04        25.27038
278.49        25.30896
278.95          25.059
279.40        24.45964
279.86        23.68295
280.31        22.86445
280.77        22.31047
281.22        22.04456
281.68         21.9822
282.13        22.01855
282.59        22.04148
283.04        21.99977
283.50        21.95779
283.95        21.86826
284.41        21.67659
284.86        21.37717
285.32        20.98844
285.77        20.62212
286.22        20.51106
286.68        20.66274
287.13        20.98761
287.59        21.28164
288.04        21.23082
288.50        20.81142
288.95        20.12358
289.41        19.39682
289.86        18.87338
290.32          18.665
290.77        18.67348
291.22        18.82961
291.68        18.99167
292.13        19.12122
292.59        19.26337
293.04        19.45751
293.50        19.76367
293.95        20.17525
294.40        20.63025
294.86        21.06548
295.31        21.40356
295.77        21.63073
296.22        21.78216
296.68        21.88208
297.13        21.94002
297.58        21.99586
298.04        22.07041
298.49        22.22576
298.95        22.58912
299.40        23.16149
299.85        23.89252
300.31         24.6711
300.76        25.33138
301.21        25.80408
301.67        26.14975
302.12         26.3695
302.58         26.5204
303.03        26.61596
303.48        26.65468
303.94        26.72622
304.39        26.93757
304.84        27.30499
305.30        27.78656
305.75        28.24632
306.20        28.47972
306.66        28.46688
307.11        28.26688
307.57        28.01232
308.02        27.83187
308.47        27.79332
308.93        27.85193
309.38         27.9832
309.83        28.17792
310.29        28.40431
310.74        28.65511
311.19        28.87753
311.65        28.98757
312.10        28.96768
312.55        28.83948
313.00        28.63268
313.46        28.41294
313.91        28.20062
314.36         27.9964
314.82        27.83681
315.27        27.76147
315.72        27.77788
316.18         27.8752
316.63        27.99796
317.08        28.02946
317.53        27.93983
317.99        27.74971
318.44        27.53676
318.89        27.42963
319.35        27.44853
319.80        27.55889
320.25        27.66044
320.70        27.59014
321.16        27.31533
321.61        26.89313
322.06        26.43461
322.51        26.10598
322.97        25.94018
323.42        25.89852
323.87        25.89516
324.32        25.78792
324.78        25.53902
325.23        25.20084
325.68        24.84562
326.13        24.59126
326.59        24.46424
327.04        24.44049
327.49        24.45956
327.94        24.42733
328.39        24.31595
328.85        24.14598
329.30        23.98619
329.75        23.91596
330.20        23.96035
330.66        24.07791
331.11         24.2336
331.56        24.32774
332.01        24.32981
332.46        24.25053
332.92        24.13661
333.37         24.1003
333.82        24.16258
334.27        24.30532
334.72        24.43099
335.17        24.37791
335.63        24.11444
336.08        23.69768
336.53        23.28481
336.98        23.12886
337.43         23.2824
337.88        23.67327
338.34        24.10177
338.79        24.28429
339.24        24.12161
339.69        23.69565
340.14         23.1988
340.59        22.96591
341.05        23.07696
341.50        23.42791
341.95        23.83211
342.40        24.01904
342.85        23.93016
343.30        23.66388
343.75        23.33944
344.20        23.15943
344.66        23.18185
345.11        23.29922
345.56        23.45612
346.01        23.57228
346.46        23.60994
346.91        23.61339
347.36         23.5226
347.81        23.23409
348.26        22.76815
348.72        22.19919
349.17        21.66422
349.62         21.4696
350.07        21.67827
350.52         22.1822
350.97        22.82129
351.42        23.34566
351.87        23.66759
352.32        23.84653
352.77        23.88297
353.22        23.78788
353.67        23.58606
354.13        23.27428
354.58        22.92445
355.03        22.69414
355.48         22.6191
355.93        22.67894
356.38        22.77495
356.83        22.73442
357.28        22.51922
357.73        22.18042
358.18        21.82542
358.63        21.62223
359.08          21.608
359.53        21.72951
359.98         21.8745
360.43        21.87186
360.88        21.68459
361.33        21.36464
361.78        21.02697
362.23        20.85736
362.68        20.88936
363.13        21.04682
363.58        21.20718
364.03        21.18338
364.48        20.93358
364.93        20.53326
365.38        20.06376
365.83        19.65077
366.28        19.34723
366.73        19.12059
367.18        18.98017
367.63        18.94086
368.08        18.98709
368.53        19.10868
368.98        19.24849
369.43        19.31169
369.88        19.27563
370.33        19.16452
370.78         19.0026
371.23        18.84134
371.68        18.70469
372.13        18.57362
372.58        18.48157
373.03        18.48363
373.48        18.57841
373.93        18.74849
374.38        18.90961
374.83        18.92773
375.28        18.77852
375.72        18.49276
376.17        18.17516
376.62        17.95878
377.07        17.88362
377.52         17.9029
377.97        17.97186
378.42        18.01704
378.87        18.00936
379.32        17.97624
379.77        17.91234
380.22        17.80391
380.67        17.65742
381.11        17.47779
381.56        17.29525
382.01        17.17239
382.46         17.1236
382.91        17.12846
383.36        17.16126
383.81        17.17654
384.26        17.15678
384.71        17.11629
385.15        17.04219
385.60        16.92673
386.05        16.76685
386.50        16.55911
386.95        16.34609
387.40        16.20724
387.85        16.16387
388.29        16.19462
388.74        16.24228
389.19        16.20542
389.64        16.07032
390.09        15.85997
390.54        15.65264
390.98        15.57953
391.43        15.67411
391.88        15.87964
392.33         16.0894
392.78        16.14725
393.23        16.03425
393.67        15.80355
394.12        15.57241
394.57        15.45019
395.02        15.46049
395.47        15.55541
395.91        15.69266
396.36        15.77571
396.81         15.7743
397.26        15.71105
397.71         15.5991
398.15        15.44035
398.60        15.27453
399.05        15.11192
399.50        14.96176
399.95        14.79338
400.39        14.67346
400.84        14.55566
401.29        14.49059
401.74        14.53783
402.18        14.70736
402.63        14.95263
403.08        15.19983
403.53         15.3296
403.97         15.3129
404.42        15.18467
404.87        14.99571
405.32        14.84081
405.76        14.75396
406.21        14.71315
406.66        14.71003
407.11        14.73566
407.55        14.78561
408.00        14.86349
408.45        14.94116
408.90        14.95292
409.34         14.8838
409.79        14.75281
410.24        14.61909
410.68        14.56837
411.13        14.61964
411.58        14.75063
412.03         14.9082
412.47        14.99913
412.92        14.98445
413.37        14.89285
413.81         14.7787
414.26        14.74119
414.71         14.7916
415.15        14.89967
415.60        14.99297
416.05        14.97627
416.49         14.8289
416.94        14.59957
417.39        14.34444
417.83        14.15775
418.28        14.08046
418.73        14.07642
419.17        14.13391
419.62        14.22615
420.07        14.33727
420.51        14.47341
420.96        14.59113
421.41        14.61227
421.85        14.52028
422.30        14.35717
422.74        14.17916
423.19        14.10253
423.64        14.13675
424.08        14.25918
424.53        14.40898
424.98        14.50728
425.42        14.53082
425.87        14.49242
426.31        14.41855
426.76        14.39446
427.21        14.41273
427.65        14.35413
428.10        14.26927
428.54        14.32753
428.99        14.53679
429.44        14.82473
429.88        15.06289
430.33        15.09436
430.77        14.89538
431.22        14.51462
431.66        14.11714
432.11        14.01645
432.56        14.23416
433.00         14.6018
433.45        14.94625
433.89         15.1615
434.34        15.15037
434.78        14.81986
435.23        14.40788
435.67         14.3881
436.12        14.71643
436.57        14.87934
437.01        14.81299
437.46        14.78198
437.90        14.80692
438.35        14.80745
438.79        14.77603
439.24        14.74608
439.68        14.72896
440.13         14.6562
440.57        14.56299
441.02        14.70138
441.46        14.96017
441.91        14.81342
442.35         14.3512
442.80        14.13576
443.24        14.14627
443.69        14.17011
444.13        14.14722
444.58        13.98369
445.02        13.73641
445.47        13.71212
445.91         13.8675
446.36        13.88292
446.80        13.73934
447.24        13.62195
447.69        13.56808
448.13        13.54326
448.58         13.5601
449.02        13.62397
449.47        13.70159
449.91         13.7368
450.36        13.72019
450.80        13.66239
451.25         13.6056
451.69        13.60575
452.13        13.67596
452.58        13.78419
453.02        13.89688
453.47        13.95871
453.91        13.95932
454.36        13.92238
454.80        13.85819
455.24        13.78335
455.69        13.71834
456.13        13.65235
456.58        13.62455
457.02        13.67204
457.46        13.80128
457.91        13.99118
458.35         14.1878
458.79        14.29648
459.24        14.30575
459.68        14.23049
460.13        14.13464
460.57        14.08159
461.01        14.10512
461.46        14.17627
461.90        14.26816
462.34        14.32802
462.79        14.33864
463.23         14.3115
463.68         14.2795
464.12        14.29588
464.56        14.37379
465.01        14.50381
465.45        14.60949
465.89        14.62964
466.34        14.56609
466.78        14.36191
467.22        14.12989
467.67        14.19608
468.11        14.51596
468.55        14.66058
468.99        14.59225
469.44        14.54792
469.88        14.58042
470.32        14.73199
470.77        14.94381
471.21         15.0129
471.65        14.91518
472.10        14.80713
472.54        14.73184
472.98         14.7108
473.42        14.76284
473.87         14.8855
474.31        15.03697
474.75        15.14486
475.20        15.19513
475.64        15.19963
476.08         15.1928
476.52        15.22791
476.97        15.31717
477.41        15.44478
477.85        15.57087
478.29        15.66324
478.74         15.7131
479.18        15.65249
479.62        15.52542
480.06        15.66384
480.50         15.7536
480.95        15.83045
481.39        15.76829
481.83        15.69947
482.27        15.62867
482.72        15.43152
483.16         15.1904
483.60        15.24495
484.04        15.60388
484.48        15.80191
484.93        16.03255
485.37        16.48945
485.81        17.03718
486.25        17.27711
486.69        22.58919
487.14        17.90845
487.58        11.90068
488.02        14.54281
488.46        16.43519
488.90        16.47729
489.34        16.54343
489.79        16.46005
490.23        17.33643
490.67        17.91208
491.11        17.91714
491.55        17.76759
491.99        17.46506
492.43        17.23489
492.88        17.16891
493.32        17.24191
493.76        17.32277
494.20        17.54158
494.64        17.83537
495.08         18.1688
495.52        18.50656
495.96        18.81761
496.41        19.03902
496.85        19.15513
497.29         19.1837
497.73        18.96964
498.17        18.74821
498.61        18.97617
499.05        19.64634
499.49        19.82026
499.93          19.961
500.37        20.10295
500.82        20.18165
501.26        20.38427
501.70          20.609
502.14        20.69156
502.58        20.63093
503.02        20.62424
503.46        20.68502
503.90        20.69669
504.34        20.67135
504.78        20.67877
505.22        20.72589
505.66        20.80457
506.10        20.88386
506.54        20.90926
506.98        20.87527
507.42        20.80177
507.86        20.75464
508.30          20.836
508.74        21.05756
509.18         21.3765
509.62        21.71076
510.06          21.925
510.50        21.98379
510.94        21.93638
511.38        21.83039
511.82        21.74205
512.26        21.70348
512.70        21.68818
513.14        21.71672
513.58          21.824
514.02        21.99366
514.46        22.20659
514.90        22.39617
515.34        22.41884
515.78        22.22512
516.22        22.01484
516.66        21.86341
517.10         21.4514
517.54        20.80957
517.98        21.52533
518.42         21.2835
518.86        21.63091
519.30        21.85246
519.74         22.1583
520.18        22.45826
520.62        22.57779
521.06        22.51316
521.50        22.29026
521.93        22.00273
522.37         21.8187
522.81        21.78527
523.25        21.85912
523.69        21.98349
524.13         22.0682
524.57        22.08377
525.01        22.05604
525.45        22.00982
525.89        21.98217
526.32        21.97856
526.76        21.98196
527.20        21.96039
527.64         21.8766
528.08         21.7321
528.52        21.52768
528.96        21.30106
529.40        21.16727
529.83        21.15452
530.27        21.01442
530.71        21.12634
531.15        21.09835
531.59        21.04198
532.03          20.962
532.46        20.90058
532.90        20.92532
533.34        21.03613
533.78        21.20095
534.22         21.3591
534.66        21.42591
535.09        21.37804
535.53        21.25197
535.97        21.08405
536.41        20.93618
536.85        20.83569
537.28        20.77431
537.72        20.74709
538.16        20.74585
538.60        20.76684
539.04        20.79572
539.47         20.8443
539.91        20.98169
540.35        21.18194
540.79        21.34653
541.22        21.44714
541.66        21.52686
542.10        21.58021
542.54        21.56473
542.97        21.52913
543.41        21.58776
543.85        21.75566
544.29        22.01264
544.72        22.28247
545.16        22.45312
545.60        22.50112
546.04        22.45675
546.47        22.42097
546.91        22.56363
547.35        22.90231
547.79        23.38118
548.22        23.85803
548.66        24.09233
549.10         24.0519
549.53        23.85279
549.97        23.63685
550.41        23.56106
550.84        23.67969
551.28        23.95555
551.72        24.32512
552.15        24.66939
552.59        24.93639
553.03        25.15542
553.46        25.32584
553.90         25.4677
554.34        25.59553
554.77        25.67305
555.21        25.70689
555.65        25.79022
556.08        25.94495
556.52        25.83573
556.96        26.07084
557.39        26.16633
557.83        26.30661
558.27        26.46221
558.70        26.63147
559.14        26.79499
559.57        26.93289
560.01        27.06146
560.45        27.15045
560.88        27.15366
561.32        27.09369
561.75        26.97456
562.19        26.87011
562.63        26.85482
563.06        26.94024
563.50        27.10894
563.93        27.31238
564.37         27.4852
564.80        27.59686
565.24        27.67595
565.68        27.73372
566.11        27.79036
566.55        27.87543
566.98        27.97449
567.42        28.10207
567.85        28.27606
568.29        28.51157
568.72        28.71634
569.16        28.92539
569.60        29.28245
570.03        29.65912
570.47        29.74725
570.90        29.64999
571.34        29.28516
571.77        29.70081
572.21        29.69224
572.64        29.66629
573.08        29.31488
573.51        28.56696
573.95        29.87249
574.38        31.66518
574.82        31.00599
