SpectraSmart Spectrum 2.9.0.0
--------- Device Information -----------
Spectrum Name :  反射率_0
Saving Time :  2024/04/26 00:14:15
Spectro-Module Model Name : SE2030-DUVN
Spectro-Module Serial Number : OS361AC55029948
Wavelength Start : 200
Wavelength End : 1025
Wavelength Unit : Wavelength(nm)
Spectrum Unit : Reflectance(%)
-----------Spectrum Setting ------------
Integration Time : 20ms
Average : 10
Boxcar : 0
Background removal :  enabled
linearity correction :  enabled
SC :  disabled
Intensity correction :  disabled
DWT denoise :  enabled
savitzky-golay :  disabled
FFT :  disabled
Running average :  disabled
Kalman :  disabled
High pass :  disabled
---------------BEGIN--------------------
Wavelength(nm)             Reflectance(%)
200.29               0
200.75        87.39648
201.21        79.53105
201.67        70.20498
202.13        63.43211
202.58        59.88291
203.04        58.71027
203.50        59.79634
203.96        62.83312
204.42        66.78345
204.88        71.03647
205.34        74.85966
205.80        77.98179
206.26        80.94861
206.72        84.76176
207.18        89.30041
207.64        87.97694
208.10        76.51306
208.55        65.60698
209.01        60.57631
209.47         59.7686
209.93        61.25451
210.39        64.74887
210.85        68.80653
211.31         69.9765
211.77        67.20253
212.23         61.7627
212.69        56.16974
213.14        54.50013
213.60        57.32394
214.06        63.55853
214.52        71.12379
214.98        76.82898
215.44        79.47961
215.90         79.7709
216.36        78.59853
216.81        77.06791
217.27        75.91853
217.73        74.92511
218.19        73.22043
218.65        69.41181
219.11        62.75479
219.57        52.27664
220.02         39.2347
220.48        31.71683
220.94        34.20677
221.40        44.64019
221.86        55.09512
222.32        57.23531
222.77        51.78351
223.23        43.21959
223.69        35.68124
224.15        33.37209
224.61        35.94555
225.06        41.33434
225.52        46.93034
225.98        49.64865
226.44        48.90365
226.90        46.12192
227.36         42.8639
227.81        41.13712
228.27        41.67702
228.73          43.505
229.19        45.93634
229.65        48.00076
230.10        49.29661
230.56        50.15351
231.02        50.67139
231.48        50.92578
231.93        50.98019
232.39        50.83784
232.85        50.56274
233.31        50.33688
233.77        50.18555
234.22        50.05297
234.68        49.91134
235.14        49.64516
235.60        49.25617
236.05        48.88024
236.51        48.48049
236.97        47.90265
237.43        47.13843
237.88        46.22704
238.34        45.48908
238.80        45.95031
239.26         48.0171
239.71        51.50356
240.17        55.40047
240.63        58.38515
241.08        60.02562
241.54        60.48082
242.00        60.23753
242.46        60.04089
242.91        60.32375
243.37        60.87565
243.83        63.86012
244.28        81.41771
244.74        115.5154
245.20        115.4818
245.66        106.3007
246.11        103.0882
246.57        104.0796
247.03        109.5536
247.48        123.2841
247.94        105.6845
248.40        88.33797
248.85        84.20805
249.31        83.91423
249.77        85.17612
250.22        87.71085
250.68        91.92935
251.14        97.54405
251.59        100.1422
252.05        96.04524
252.51        87.83305
252.96        79.33904
253.42        74.15137
253.88        71.74699
254.33        70.88796
254.79        72.04859
255.25        75.21217
255.70         79.3551
256.16        83.94616
256.62        87.03649
257.07        86.67873
257.53        83.72742
257.99        78.95242
258.44        74.05107
258.90        71.89725
259.35        71.65485
259.81         72.2943
260.27        72.13391
260.72        69.58042
261.18        65.33515
261.63        60.05759
262.09        55.18922
262.55        51.69202
263.00        49.55234
263.46        48.43262
263.91          47.532
264.37        46.27801
264.83        44.49569
265.28        42.30716
265.74        40.30542
266.19        39.12169
266.65         38.9295
267.11        39.31829
267.56        39.68325
268.02        39.33875
268.47        38.16232
268.93        36.39368
269.38        34.41825
269.84        33.12969
270.30        32.76635
270.75        33.08018
271.21        33.56797
271.66        33.47326
272.12        32.62229
272.57        31.27377
273.03        29.88772
273.48        29.05993
273.94        28.94241
274.39        29.27138
274.85        29.69178
275.31        29.68189
275.76        29.12222
276.22        28.22971
276.67        27.26072
277.13        26.67376
277.58        26.50306
278.04        26.61481
278.49        26.73561
278.95        26.55433
279.40        25.99315
279.86        25.23696
280.31        24.44344
280.77        23.95381
281.22        23.78572
281.68         23.8345
282.13         23.9496
282.59        23.96096
283.04        23.81624
283.50        23.61811
283.95        23.36617
284.41        23.07827
284.86        22.76886
285.32        22.43186
285.77        22.16723
286.22        22.19249
286.68        22.49474
287.13         22.9748
287.59        23.39544
288.04        23.38974
288.50        22.93093
288.95        22.14031
289.41        21.27738
289.86        20.62722
290.32        20.32322
290.77        20.25969
291.22         20.3849
291.68        20.57917
292.13        20.80261
292.59        21.09676
293.04         21.4637
293.50        21.90245
293.95        22.39044
294.40        22.87732
294.86        23.33838
295.31        23.75902
295.77        24.14005
296.22        24.49871
296.68        24.81715
297.13        25.03649
297.58        25.18064
298.04        25.29257
298.49        25.48384
298.95        25.95953
299.40        26.73627
299.85        27.73953
300.31        28.80203
300.76        29.66713
301.21        30.24325
301.67        30.61952
302.12         30.8488
302.58        31.07531
303.03        31.32233
303.48        31.55771
303.94        31.82259
304.39        32.14509
304.84        32.53165
305.30        32.97966
305.75         33.3877
306.20        33.60661
306.66        33.63519
307.11        33.50446
307.57        33.35257
308.02        33.30995
308.47        33.43525
308.93        33.67989
309.38          33.969
309.83        34.21806
310.29        34.38464
310.74        34.48209
311.19        34.52199
311.65        34.51971
312.10        34.48184
312.55        34.40937
313.00         34.2826
313.46         34.0826
313.91        33.81182
314.36        33.50311
314.82         33.2462
315.27        33.15569
315.72        33.25356
316.18        33.49409
316.63        33.77658
317.08        33.91177
317.53        33.84565
317.99        33.62245
318.44         33.3399
318.89        33.15801
319.35        33.11285
319.80        33.16702
320.25        33.22846
320.70        33.14988
321.16        32.90042
321.61        32.53016
322.06        32.14296
322.51        31.89319
322.97        31.80172
323.42         31.8292
323.87        31.86513
324.32        31.72836
324.78         31.3782
325.23         30.8884
325.68         30.3683
326.13        29.99885
326.59        29.82558
327.04        29.80983
327.49        29.88376
327.94        29.93763
328.39        29.92919
328.85        29.88105
329.30        29.82958
329.75        29.78867
330.20        29.77249
330.66        29.75512
331.11        29.75943
331.56        29.78108
332.01        29.81492
332.46        29.84557
332.92         29.8761
333.37        29.94817
333.82        30.04677
334.27        30.17496
334.72        30.24441
335.17        30.11126
335.63        29.75901
336.08        29.24417
336.53        28.74318
336.98         28.5437
337.43        28.70618
337.88         29.1537
338.34        29.67216
338.79        29.95106
339.24        29.88118
339.69        29.55486
340.14        29.15501
340.59        29.00324
341.05        29.17356
341.50        29.54555
341.95        29.96276
342.40        30.20887
342.85        30.22658
343.30        30.09776
343.75        29.86716
344.20         29.6104
344.66        29.37316
345.11         29.1098
345.56        28.87278
346.01        28.73859
346.46        28.70987
346.91        28.78438
347.36         28.8506
347.81        28.72138
348.26        28.38077
348.72        27.91999
349.17        27.46804
349.62        27.31672
350.07        27.52686
350.52        27.98546
350.97        28.54542
351.42        28.98643
351.87        29.23024
352.32        29.33203
352.77        29.29857
353.22        29.14536
353.67        28.89923
354.13        28.56536
354.58        28.19596
355.03        27.91605
355.48        27.75819
355.93        27.70842
356.38         27.7102
356.83         27.6588
357.28        27.52336
357.73        27.32865
358.18        27.11719
358.63        26.95607
359.08        26.86098
359.53        26.81087
359.98        26.75398
360.43        26.61427
360.88        26.37955
361.33        26.07327
361.78        25.77055
362.23        25.59227
362.68        25.55585
363.13        25.61207
363.58        25.66524
364.03        25.56659
364.48        25.28449
364.93        24.87664
365.38        24.41236
365.83        24.00162
366.28        23.68786
366.73        23.44135
367.18        23.26545
367.63        23.16545
368.08        23.12654
368.53        23.14331
368.98        23.16853
369.43        23.12195
369.88        22.98725
370.33        22.78896
370.78        22.55291
371.23         22.3317
371.68        22.14877
372.13        21.98385
372.58        21.87127
373.03        21.86564
373.48        21.96407
373.93        22.14996
374.38        22.32449
374.83         22.3336
375.28        22.14897
375.72        21.80103
376.17        21.42264
376.62        21.19452
377.07        21.16399
377.52        21.27247
377.97        21.42345
378.42        21.46037
378.87        21.34459
379.32        21.13708
379.77        20.90134
380.22        20.72343
380.67         20.6256
381.11        20.57554
381.56        20.54648
382.01        20.50742
382.46        20.44401
382.91        20.36628
383.36        20.27754
383.81        20.17957
384.26        20.07584
384.71         19.9686
385.15        19.84592
385.60        19.70459
386.05        19.53825
386.50        19.34611
386.95        19.16459
387.40        19.05689
387.85        19.03802
388.29        19.08577
388.74         19.1468
389.19          19.119
389.64        18.98866
390.09        18.77279
390.54        18.55727
390.98        18.48725
391.43        18.59614
391.88         18.8233
392.33        19.03885
392.78         19.0524
393.23        18.84678
393.67        18.49324
394.12        18.14725
394.57        17.95933
395.02        17.96379
395.47        18.10525
395.91        18.32147
396.36        18.47503
396.81        18.52003
397.26        18.48043
397.71        18.39491
398.15        18.30275
398.60         18.2456
399.05        18.21528
399.50        18.17166
399.95        18.00927
400.39        17.80364
400.84        17.51986
401.29        17.27586
401.74        17.24578
402.18        17.47353
402.63        17.87863
403.08        18.31581
403.53        18.55256
403.97        18.53128
404.42        18.31946
404.87        18.01853
405.32        17.80849
405.76        17.74635
406.21        17.77932
406.66        17.86214
407.11        17.93808
407.55        17.99182
408.00         18.0433
408.45        18.08236
408.90        18.07228
409.34        18.00894
409.79        17.90018
410.24         17.7937
410.68        17.76094
411.13        17.81813
411.58        17.94765
412.03        18.10253
412.47        18.19979
412.92        18.20024
413.37        18.12866
413.81        18.03182
414.26        17.99956
414.71        18.04191
415.15        18.13502
415.60          18.213
416.05        18.18992
416.49        18.05021
416.94        17.83989
417.39        17.61753
417.83        17.48027
418.28        17.46407
418.73        17.52517
419.17        17.64243
419.62        17.78004
420.07        17.91838
420.51        18.06846
420.96        18.18032
421.41        18.16776
421.85        18.01853
422.30        17.78454
422.74        17.54494
423.19        17.45346
423.64        17.52163
424.08        17.71862
424.53        17.95616
424.98        18.10773
425.42        18.13724
425.87        18.06948
426.31        17.95316
426.76        17.91783
427.21        17.96206
427.65        17.92743
428.10         17.8714
428.54        17.99925
428.99        18.31354
429.44        18.72387
429.88        19.05298
430.33         19.0844
430.77        18.78806
431.22        18.23598
431.66        17.65897
432.11        17.48071
432.56        17.73515
433.00        18.20513
433.45        18.66458
433.89        18.95425
434.34        18.94375
434.78        18.52502
435.23        18.00317
435.67        17.98365
436.12        18.41283
436.57        18.64308
437.01         18.5878
437.46        18.56858
437.90        18.60989
438.35        18.61623
438.79        18.58152
439.24         18.5505
439.68         18.5406
440.13         18.4649
440.57         18.3742
441.02        18.59901
441.46        18.99972
441.91        18.90034
442.35        18.39479
442.80        18.17715
443.24        18.22267
443.69         18.2622
444.13        18.23172
444.58        18.02811
445.02         17.7311
445.47        17.73049
445.91        17.96381
446.36         18.0045
446.80        17.82516
447.24        17.67104
447.69         17.5965
448.13        17.56912
448.58         17.6047
449.02        17.70267
449.47        17.81308
449.91        17.85353
450.36        17.80837
450.80        17.69844
451.25        17.57515
451.69        17.50629
452.13        17.51455
452.58        17.56913
453.02        17.64372
453.47        17.69707
453.91        17.71776
454.36         17.7218
454.80        17.71025
455.24         17.6809
455.69        17.64547
456.13        17.59418
456.58        17.55947
457.02        17.56439
457.46        17.62045
457.91        17.71314
458.35        17.81097
458.79         17.8589
459.24        17.85345
459.68        17.79394
460.13        17.72641
460.57        17.67948
461.01        17.68088
461.46        17.71829
461.90        17.76619
462.34        17.77666
462.79        17.73593
463.23        17.65002
463.68         17.5786
464.12        17.62437
464.56        17.80144
465.01        18.08397
465.45        18.33009
465.89        18.40162
466.34        18.29187
466.78        17.94588
467.22         17.5457
467.67        17.56022
468.11        17.94989
468.55        18.16753
468.99        18.12846
469.44        18.06409
469.88        18.02754
470.32        18.09554
470.77        18.23156
471.21        18.24319
471.65         18.1177
472.10        18.02117
472.54         17.9833
472.98        17.99242
473.42        18.05643
473.87        18.18371
474.31        18.32457
474.75        18.39515
475.20        18.38437
475.64        18.30911
476.08        18.21942
476.52        18.19242
476.97        18.24862
477.41        18.36786
477.85        18.50764
478.29        18.63467
478.74        18.73554
479.18        18.72537
479.62        18.63985
480.06        18.85146
480.50         18.9785
480.95        19.07229
481.39        18.99137
481.83        18.91323
482.27        18.84436
482.72        18.62234
483.16        18.34703
483.60        18.41473
484.04        18.84009
484.48        19.08638
484.93        19.33671
485.37        19.76645
485.81        20.32905
486.25        20.30027
486.69        26.97047
487.14        21.54444
487.58        14.09177
488.02        17.13553
488.46        19.68661
488.90        19.57445
489.34        19.67691
489.79        19.41926
490.23        20.36387
490.67        21.00153
491.11        21.04265
491.55        21.00308
491.99        20.81599
492.43        20.60374
492.88        20.44454
493.32        20.37495
493.76        20.29081
494.20         20.4159
494.64        20.70243
495.08        21.08863
495.52        21.50793
495.96        21.88231
496.41         22.1233
496.85         22.2259
497.29        22.21769
497.73        21.92697
498.17        21.63066
498.61        21.85116
499.05        22.57539
499.49        22.72496
499.93        22.83631
500.37        22.95144
500.82        23.00738
501.26        23.23052
501.70        23.50387
502.14        23.63209
502.58        23.59598
503.02        23.59175
503.46        23.62961
503.90        23.58951
504.34        23.49516
504.78        23.44209
505.22        23.44559
505.66        23.48869
506.10        23.55244
506.54        23.60191
506.98        23.62905
507.42        23.64562
507.86        23.68237
508.30         23.7855
508.74        23.95745
509.18        24.17414
509.62         24.3881
510.06        24.52388
510.50         24.5641
510.94        24.53819
511.38        24.47953
511.82        24.44067
512.26        24.44179
512.70        24.46523
513.14        24.51778
513.58        24.60999
514.02        24.72597
514.46        24.85489
514.90        24.95966
515.34        24.94666
515.78        24.77724
516.22        24.62955
516.66        24.55598
517.10         24.2128
517.54        23.61671
517.98        24.30942
518.42         24.0574
518.86        24.35279
519.30        24.51054
519.74        24.73309
520.18        24.95238
520.62        25.03076
521.06          24.972
521.50        24.79631
521.93        24.57131
522.37        24.41976
522.81        24.37642
523.25        24.40735
523.69        24.48316
524.13        24.55652
524.57        24.60635
525.01        24.64628
525.45        24.66628
525.89        24.64823
526.32        24.58797
526.76        24.48796
527.20        24.36353
527.64         24.2511
528.08        24.16652
528.52        24.08244
528.96        23.98641
529.40        23.92297
529.83        23.90348
530.27         23.6757
530.71        23.70906
531.15        23.62641
531.59        23.57042
532.03        23.52491
532.46        23.51363
532.90        23.57337
533.34         23.6929
533.78        23.85235
534.22        23.99721
534.66        24.04966
535.09        23.99036
535.53        23.85465
535.97        23.67862
536.41        23.52689
536.85        23.42642
537.28        23.36567
537.72        23.34401
538.16        23.35959
538.60        23.40734
539.04        23.46994
539.47        23.53989
539.91        23.66456
540.35        23.81367
540.79        23.88856
541.22        23.89683
541.66        23.94812
542.10        24.04678
542.54        24.12406
542.97        24.19184
543.41        24.31098
543.85        24.47991
544.29        24.69387
544.72        24.89599
545.16        25.00695
545.60        25.01464
546.04        24.93958
546.47        24.87594
546.91        24.99131
547.35        25.30243
547.79         25.7397
548.22        26.16832
548.66        26.40307
549.10        26.39152
549.53        26.14626
549.97        25.83034
550.41        25.72022
550.84         25.8776
551.28        26.19885
551.72        26.60979
552.15        27.00047
552.59        27.31125
553.03        27.56673
553.46        27.75964
553.90        27.90527
554.34        28.01783
554.77        28.05886
555.21        28.04667
555.65        28.10175
556.08        28.25233
556.52        28.13016
556.96        28.38136
557.39        28.45142
557.83        28.53929
558.27        28.62601
558.70        28.73223
559.14        28.87301
559.57        29.03251
560.01        29.21223
560.45        29.36463
560.88        29.40809
561.32        29.35628
561.75        29.24873
562.19         29.1544
562.63        29.08333
563.06        29.07679
563.50        29.23856
563.93        29.51578
564.37        29.73177
564.80        29.84841
565.24        29.96405
565.68        30.06652
566.11         30.1076
566.55        30.11524
566.98         30.0975
567.42        30.10958
567.85        30.23182
568.29        30.49417
568.72        30.78273
569.16        31.10834
569.60        31.53835
570.03        31.90967
570.47        31.99458
570.90        31.95448
571.34        31.32712
571.77         31.9152
572.21        31.94869
572.64        32.03439
573.08        31.52523
573.51        30.59734
573.95        31.97982
574.38        34.08244
574.82        33.23593
