SpectraSmart Spectrum 2.9.0.0
--------- Device Information -----------
Spectrum Name :  反射率_0
Saving Time :  2024/04/25 22:55:11
Spectro-Module Model Name : SE2030-DUVN
Spectro-Module Serial Number : OS361AC55029948
Wavelength Start : 200
Wavelength End : 1025
Wavelength Unit : Wavelength(nm)
Spectrum Unit : Reflectance(%)
-----------Spectrum Setting ------------
Integration Time : 20ms
Average : 10
Boxcar : 0
Background removal :  enabled
linearity correction :  enabled
SC :  disabled
Intensity correction :  disabled
DWT denoise :  enabled
savitzky-golay :  disabled
FFT :  disabled
Running average :  disabled
Kalman :  disabled
High pass :  disabled
---------------BEGIN--------------------
Wavelength(nm)             Reflectance(%)
200.29               0
200.75        79.24799
201.21         73.3123
201.67        66.52547
202.13        61.77959
202.58        59.43238
203.04        59.07075
203.50        60.04231
203.96        61.19523
204.42        61.95139
204.88        62.46255
205.34        62.93946
205.80        63.71038
206.26        65.14739
206.72        68.10143
207.18        73.12236
207.64        75.45054
208.10        68.90245
208.55        60.24808
209.01        56.03077
209.47        56.57252
209.93        60.22766
210.39        66.65558
210.85        73.26798
211.31        74.01009
211.77        67.23683
212.23        55.36503
212.69        43.67099
213.14        40.26948
213.60        46.54938
214.06         60.2749
214.52         76.2839
214.98        86.53902
215.44        88.75088
215.90        85.25957
216.36        79.32402
216.81         75.4287
217.27        74.91341
217.73        76.25829
218.19        77.08971
218.65        74.18581
219.11        66.35262
219.57        52.90518
220.02         36.0006
220.48        26.91062
220.94        31.91027
221.40        47.42923
221.86        62.68556
222.32        66.68987
222.77        60.40324
223.23        49.74325
223.69        40.01793
224.15        36.52841
224.61         38.9526
225.06        44.72071
225.52        50.81305
225.98         53.6017
226.44        52.39014
226.90        48.84779
227.36        44.81754
227.81        42.64994
228.27        43.17217
228.73        45.31357
229.19        48.15705
229.65        50.40484
230.10        51.61641
230.56        52.23598
231.02         52.6314
231.48        53.21429
231.93        54.00724
232.39        54.83392
232.85        55.43264
233.31        55.48606
233.77        54.91034
234.22         53.8204
234.68        52.40059
235.14         51.0212
235.60        49.92607
236.05         49.1362
236.51        48.58092
236.97        48.00925
237.43        47.35526
237.88        46.77876
238.34        46.42122
238.80        46.80795
239.26        48.13083
239.71        50.20846
240.17        52.62513
240.63        55.17965
241.08        57.71037
241.54        60.09392
242.00        62.01558
242.46        63.16912
242.91        63.71171
243.37        63.08496
243.83        62.02765
244.28        72.83727
244.74        111.8047
245.20        123.1452
245.66         117.375
246.11        114.4525
246.57        114.0129
247.03        114.7057
247.48        105.5519
247.94        64.74924
248.40        63.32366
248.85        67.99094
249.31        71.57919
249.77        74.58376
250.22        77.97614
250.68        83.02751
251.14        89.59612
251.59        92.81824
252.05        88.64467
252.51        79.63259
252.96        70.47035
253.42        65.64091
253.88        64.62654
254.33        65.85406
254.79        69.16595
255.25        73.65012
255.70        78.16633
256.16        82.60142
256.62        85.43974
257.07        85.14513
257.53        82.54113
257.99        78.18801
258.44        73.59275
258.90        71.42604
259.35        70.91874
259.81        71.23493
260.27        70.81107
260.72        68.13612
261.18        63.92199
261.63        58.80322
262.09        54.19655
262.55        51.05326
263.00        49.30326
263.46        48.53904
263.91        47.97393
264.37        47.07157
264.83        45.64734
265.28        43.81853
265.74        42.04614
266.19         40.7541
266.65        40.15364
267.11        39.97041
267.56         39.8132
268.02        39.22606
268.47        38.09729
268.93        36.59458
269.38        34.97249
269.84        33.88612
270.30        33.49773
270.75         33.6273
271.21        33.90087
271.66        33.75505
272.12        33.05955
272.57         32.0109
273.03        30.94052
273.48        30.25808
273.94        30.08326
274.39        30.21107
274.85        30.43681
275.31        30.45557
275.76        30.16837
276.22         29.7021
276.67        29.13004
277.13        28.65105
277.58        28.26851
278.04        27.96789
278.49        27.64446
278.95        27.22108
279.40        26.66161
279.86        26.06432
280.31        25.49039
280.77        25.14104
281.22        24.99298
281.68        24.99426
282.13        25.02681
282.59        24.96534
283.04        24.77054
283.50        24.52529
283.95        24.22834
284.41        23.90356
284.86        23.56756
285.32        23.22461
285.77        22.96715
286.22        22.99759
286.68        23.30207
287.13        23.78165
287.59        24.21972
288.04        24.27972
288.50        23.93355
288.95        23.28515
289.41        22.55563
289.86        21.97212
290.32         21.6607
290.77        21.53479
291.22        21.57964
291.68        21.73323
292.13        21.96626
292.59        22.29799
293.04        22.70842
293.50        23.16112
293.95        23.62525
294.40        24.07309
294.86        24.48006
295.31        24.82829
295.77        25.12687
296.22        25.39216
296.68        25.64851
297.13        25.90496
297.58         26.1922
298.04        26.53056
298.49        26.95846
298.95        27.56901
299.40        28.35447
299.85        29.27108
300.31        30.22287
300.76        31.06812
301.21         31.7431
301.67        32.30252
302.12        32.73361
302.58        33.08838
303.03        33.37254
303.48        33.58835
303.94        33.83747
304.39        34.23583
304.84        34.80378
305.30        35.50201
305.75        36.16577
306.20        36.55125
306.66        36.63913
307.11         36.4968
307.57        36.31173
308.02        36.28262
308.47        36.48818
308.93        36.85312
309.38        37.28864
309.83        37.69066
310.29        38.00417
310.74        38.24874
311.19        38.41557
311.65        38.48735
312.10        38.46682
312.55        38.36052
313.00        38.18473
313.46        37.98447
313.91        37.77391
314.36        37.56616
314.82        37.40988
315.27        37.35075
315.72        37.40201
316.18        37.54833
316.63         37.7238
317.08        37.79488
317.53        37.72513
317.99        37.53402
318.44         37.3161
318.89        37.22921
319.35        37.29449
319.80        37.47249
320.25        37.62273
320.70        37.51744
321.16        37.11417
321.61          36.492
322.06         35.8199
322.51        35.35347
322.97         35.1407
323.42        35.11913
323.87        35.14842
324.32        34.99285
324.78        34.59084
325.23        34.03507
325.68        33.44138
326.13        32.99929
326.59        32.75854
327.04        32.67699
327.49        32.68553
327.94        32.67731
328.39        32.61365
328.85        32.51856
329.30        32.44127
329.75        32.41188
330.20        32.44176
330.66          32.489
331.11        32.55663
331.56        32.60866
332.01         32.6284
332.46        32.60983
332.92        32.54409
333.37          32.464
333.82        32.36103
334.27        32.24524
334.72        32.08508
335.17        31.83015
335.63        31.48466
336.08         31.0832
336.53        30.72853
336.98        30.58526
337.43        30.68117
337.88          30.971
338.34         31.2947
338.79        31.43788
339.24        31.31877
339.69        30.99601
340.14        30.61981
340.59        30.45838
341.05        30.56836
341.50        30.85505
341.95        31.17312
342.40        31.31371
342.85         31.2284
343.30        30.99935
343.75        30.68493
344.20        30.38968
344.66         30.1626
345.11        29.93932
345.56        29.76511
346.01        29.70437
346.46        29.74826
346.91        29.89904
347.36        30.00402
347.81        29.81366
348.26        29.30997
348.72        28.60422
349.17         27.9117
349.62        27.66683
350.07        27.96035
350.52        28.63611
350.97        29.44766
351.42        30.01911
351.87        30.23685
352.32        30.20387
352.77        30.00212
353.22         29.7684
353.67        29.55882
354.13        29.33212
354.58        29.08834
355.03        28.87347
355.48        28.69861
355.93        28.58442
356.38        28.49799
356.83        28.36708
357.28        28.17772
357.73        27.94414
358.18        27.72031
358.63        27.59369
359.08        27.57712
359.53        27.64039
359.98        27.70384
360.43        27.64638
360.88        27.44361
361.33        27.12996
361.78        26.79437
362.23        26.58325
362.68        26.52544
363.13        26.56684
363.58        26.61555
364.03         26.5279
364.48        26.27319
364.93        25.91113
365.38        25.50502
365.83        25.15263
366.28        24.89241
366.73        24.69378
367.18        24.56368
367.63        24.51418
368.08        24.53155
368.53         24.6094
368.98        24.69017
369.43         24.6794
369.88        24.55979
370.33        24.35846
370.78         24.1239
371.23        23.94574
371.68        23.85303
372.13         23.8142
372.58        23.82395
373.03        23.87045
373.48        23.93534
373.93        24.02324
374.38        24.08257
374.83        24.03023
375.28        23.85847
375.72        23.58368
376.17        23.30204
376.62        23.13428
377.07        23.11039
377.52        23.18299
377.97        23.29868
378.42        23.36969
378.87        23.36132
379.32        23.30253
379.77        23.18697
380.22        23.00071
380.67        22.75546
381.11        22.46262
381.56        22.16865
382.01        21.96199
382.46         21.8672
382.91        21.86048
383.36        21.90865
383.81        21.95148
384.26        21.96248
384.71         21.9537
385.15        21.90842
385.60         21.8205
386.05        21.68328
386.50        21.49266
386.95        21.28248
387.40         21.1193
387.85        21.03078
388.29        21.00548
388.74        21.01479
389.19        20.97827
389.64        20.88275
390.09        20.73526
390.54        20.60789
390.98        20.61796
391.43        20.78636
391.88        21.05993
392.33        21.30066
392.78        21.30891
393.23         21.0722
393.67         20.6627
394.12        20.26744
394.57        20.07692
395.02        20.12904
395.47        20.35623
395.91        20.66092
396.36        20.83684
396.81        20.82318
397.26         20.6713
397.71        20.45862
398.15        20.28035
398.60        20.19554
399.05        20.17537
399.50        20.16854
399.95        20.04976
400.39        19.89624
400.84        19.67306
401.29        19.48684
401.74        19.48373
402.18         19.7017
402.63        20.06357
403.08        20.45017
403.53         20.6729
403.97        20.68297
404.42        20.53382
404.87        20.30145
405.32        20.12096
405.76        20.03763
406.21        20.01801
406.66        20.03466
407.11         20.0558
407.55        20.07269
408.00        20.09267
408.45         20.1074
408.90        20.08456
409.34        20.01933
409.79         19.9236
410.24         19.8271
410.68        19.77141
411.13        19.77189
411.58        19.82029
412.03        19.90228
412.47        19.99438
412.92        20.06982
413.37         20.1307
413.81        20.18604
414.26        20.27119
414.71        20.37716
415.15        20.49018
415.60        20.55632
416.05        20.51062
416.49        20.34642
416.94        20.10522
417.39        19.83931
417.83         19.6371
418.28        19.53903
418.73        19.51267
419.17        19.55993
419.62        19.67594
420.07        19.84264
420.51        20.05837
420.96        20.24593
421.41        20.27292
421.85        20.11379
422.30        19.83811
422.74        19.54021
423.19        19.39922
423.64        19.43258
424.08        19.60081
424.53        19.82038
424.98        19.97704
425.42        20.03704
425.87        20.02412
426.31        19.96664
426.76        19.96536
427.21        20.01016
427.65        19.93491
428.10        19.83198
428.54        19.97995
428.99        20.39039
429.44        20.94131
429.88        21.40518
430.33        21.49916
430.77        21.18324
431.22         20.5562
431.66        19.89032
432.11        19.69541
432.56        20.02144
433.00        20.56226
433.45        21.07242
433.89        21.52781
434.34        21.71262
434.78        21.18456
435.23        20.35641
435.67        20.24147
436.12        20.78848
436.57        21.09736
437.01         21.0345
437.46        20.98815
437.90        20.98091
438.35        20.90563
438.79        20.79418
439.24        20.75214
439.68        20.80905
440.13        20.84881
440.57        20.89211
441.02        21.25938
441.46        21.77354
441.91        21.66903
442.35        21.07428
442.80        20.81433
443.24        20.87088
443.69        20.93026
444.13        20.90139
444.58        20.63604
445.02        20.22754
445.47        20.13481
445.91        20.32501
446.36        20.37679
446.80        20.26646
447.24        20.24529
447.69        20.32207
448.13        20.37641
448.58        20.40622
449.02        20.43976
449.47        20.45777
449.91        20.42865
450.36        20.35682
450.80         20.2477
451.25        20.15112
451.69        20.13207
452.13        20.20547
452.58        20.33877
453.02        20.49045
453.47        20.59632
453.91        20.63923
454.36        20.64244
454.80        20.60999
455.24        20.54635
455.69        20.47296
456.13        20.38092
456.58        20.32376
457.02        20.35063
457.46        20.47549
457.91        20.67346
458.35        20.88585
458.79        21.01466
459.24        21.04667
459.68        20.99385
460.13        20.91758
460.57        20.86798
461.01        20.88073
461.46        20.93215
461.90        21.00002
462.34        21.04662
462.79        21.05402
463.23        21.02756
463.68        21.00073
464.12        21.03383
464.56        21.13801
465.01        21.31458
465.45        21.45338
465.89        21.47031
466.34        21.37107
466.78         21.0661
467.22        20.73237
467.67        20.86689
468.11        21.40667
468.55         21.7134
468.99        21.69799
469.44        21.66253
469.88        21.67642
470.32        21.81825
470.77        22.03346
471.21        22.07361
471.65        21.92185
472.10          21.789
472.54        21.72364
472.98        21.72475
473.42        21.80756
473.87        21.97922
474.31        22.17849
474.75        22.30484
475.20        22.34065
475.64        22.30275
476.08        22.24269
476.52        22.23986
476.97         22.3166
477.41        22.45261
477.85        22.60106
478.29        22.73074
478.74        22.83161
479.18        22.80242
479.62        22.69505
480.06        22.96998
480.50        23.16008
480.95        23.34317
481.39        23.34079
481.83        23.31239
482.27        23.24743
482.72        23.15115
483.16        22.77824
483.60        22.93211
484.04         23.5129
484.48         23.8745
484.93        24.22917
485.37        24.68758
485.81        25.11431
486.25         25.0784
486.69        33.06556
487.14        26.26919
487.58        17.11884
488.02        21.45766
488.46        24.35094
488.90         24.3356
489.34        24.74859
489.79        24.55354
490.23        25.77085
490.67        26.40545
491.11        26.22637
491.55        26.24464
491.99        26.35485
492.43        26.30374
492.88        26.15361
493.32        26.21089
493.76        26.32099
494.20        26.60991
494.64         27.0036
495.08        27.46475
495.52        27.94425
495.96        28.40494
496.41        28.75097
496.85        28.95224
497.29        29.02656
497.73        28.71972
498.17        28.38172
498.61        28.71035
499.05        29.68965
499.49        29.89805
499.93        30.04179
500.37        30.17391
500.82        30.22737
501.26        30.52257
501.70        30.91307
502.14        31.14093
502.58        31.16164
503.02        31.20121
503.46        31.26784
503.90         31.2118
504.34        31.09183
504.78        31.07912
505.22        31.19974
505.66         31.4115
506.10        31.65269
506.54        31.81576
506.98        31.87188
507.42        31.85746
507.86        31.83666
508.30        31.90802
508.74        32.09118
509.18        32.34569
509.62        32.61662
510.06        32.81589
510.50        32.91896
510.94        32.96252
511.38        32.97012
511.82        32.97649
512.26        32.99928
512.70        33.02181
513.14        33.06845
513.58        33.18179
514.02        33.35222
514.46        33.55883
514.90        33.74089
515.34        33.77149
515.78        33.60764
516.22        33.42198
516.66        33.28637
517.10        32.93827
517.54        32.40665
517.98        33.04538
518.42        32.86484
518.86        33.16385
519.30        33.32831
519.74        33.54042
520.18        33.74679
520.62        33.83598
521.06        33.81153
521.50        33.68678
521.93        33.50425
522.37         33.3452
522.81        33.24078
523.25        33.17606
523.69         33.1551
524.13         33.1807
524.57        33.24314
525.01        33.33745
525.45        33.43393
525.89         33.4826
526.32        33.46334
526.76         33.3848
527.20        33.25646
527.64        33.10822
528.08        32.96135
528.52        32.78572
528.96        32.58167
529.40        32.43911
529.83        32.38295
530.27        32.06656
530.71        32.12407
531.15        32.04085
531.59        32.00429
532.03        31.99026
532.46        32.01982
532.90        32.11998
533.34        32.27161
533.78         32.4538
534.22        32.59943
534.66        32.61473
535.09        32.48048
535.53        32.24361
535.97        31.96194
536.41        31.73683
536.85        31.60612
537.28        31.55084
537.72        31.55596
538.16        31.59552
538.60        31.65733
539.04        31.72604
539.47        31.79972
539.91        31.95775
540.35        32.16192
540.79        32.26999
541.22        32.29427
541.66        32.38799
542.10         32.5553
542.54        32.70675
542.97        32.83855
543.41        32.99938
543.85        33.18616
544.29        33.40231
544.72          33.613
545.16        33.77749
545.60        33.88928
546.04        33.95416
546.47        34.04667
546.91        34.30728
547.35        34.74054
547.79        35.28005
548.22        35.78811
548.66        36.09046
549.10        36.13161
549.53        35.89804
549.97        35.57954
550.41        35.51036
550.84        35.75931
551.28        36.19762
551.72        36.72662
552.15        37.19642
552.59        37.53747
553.03        37.79074
553.46        37.96203
553.90        38.09954
554.34        38.22756
554.77        38.28848
555.21        38.30759
555.65        38.44946
556.08         38.7448
556.52        38.67935
556.96        39.11617
557.39        39.25681
557.83        39.36963
558.27          39.439
558.70        39.51613
559.14        39.66624
559.57        39.88146
560.01        40.14697
560.45        40.38701
560.88        40.49219
561.32        40.46424
561.75        40.31276
562.19        40.14498
562.63        40.05411
563.06        40.08287
563.50        40.27749
563.93        40.56404
564.37        40.78099
564.80        40.88362
565.24        40.96016
565.68        41.03279
566.11        41.11532
566.55        41.24701
566.98        41.41093
567.42         41.6058
567.85         41.8225
568.29        42.08106
568.72        42.26427
569.16        42.45662
569.60        42.87862
570.03        43.33674
570.47        43.43609
570.90        43.32533
571.34        42.62752
571.77        43.20216
572.21        43.30319
572.64        43.44576
573.08        43.06344
573.51        41.29655
573.95        42.94492
574.38        45.61638
574.82        44.64729
