SpectraSmart Spectrum 2.9.0.0
--------- Device Information -----------
Spectrum Name :  反射率_0
Saving Time :  2024/04/26 00:42:00
Spectro-Module Model Name : SE2030-DUVN
Spectro-Module Serial Number : OS361AC55029948
Wavelength Start : 200
Wavelength End : 1025
Wavelength Unit : Wavelength(nm)
Spectrum Unit : Reflectance(%)
-----------Spectrum Setting ------------
Integration Time : 20ms
Average : 10
Boxcar : 0
Background removal :  enabled
linearity correction :  enabled
SC :  disabled
Intensity correction :  disabled
DWT denoise :  enabled
savitzky-golay :  disabled
FFT :  disabled
Running average :  disabled
Kalman :  disabled
High pass :  disabled
---------------BEGIN--------------------
Wavelength(nm)             Reflectance(%)
200.29               0
200.75        103.3285
201.21        103.4574
201.67        101.3523
202.13         98.4873
202.58        95.50153
203.04        92.39844
203.50        89.28008
203.96        86.92517
204.42        85.72822
204.88        85.43966
205.34        86.24012
205.80        88.59764
206.26        93.38122
206.72        103.4938
207.18        122.9698
207.64        140.6836
208.10        130.8042
208.55        107.6622
209.01        92.73222
209.47        87.71024
209.93        88.42703
210.39        92.91949
210.85         98.0136
211.31        97.18017
211.77        88.83118
212.23        75.68839
212.69        63.38945
213.14        60.50911
213.60        68.31818
214.06        84.13789
214.52        102.0841
214.98        113.0229
215.44        114.6319
215.90        110.1045
216.36        102.9019
216.81        97.77486
217.27        96.47571
217.73        97.26017
218.19        98.92413
218.65        100.2131
219.11        100.7306
219.57        100.7088
220.02        101.0048
220.48        103.9178
220.94        109.2814
221.40        115.5783
221.86        118.5774
222.32        114.7547
222.77        105.8009
223.23        95.44663
223.69         87.4994
224.15        85.99889
224.61        90.36525
225.06         98.5575
225.52        107.5887
225.98        113.4507
226.44        115.2831
226.90        114.4869
227.36        113.0532
227.81        113.7229
228.27        117.2808
228.73        122.2969
229.19         127.082
229.65        129.2766
230.10        128.5326
230.56        126.4191
231.02        124.1062
231.48        122.9424
231.93        123.0104
232.39         123.894
232.85        125.1186
233.31        126.1695
233.77        126.8151
234.22        127.2902
234.68        127.3737
235.14        126.7747
235.60        125.5198
236.05        123.7186
236.51        121.7157
236.97        119.9308
237.43        118.2942
237.88        116.6424
238.34        114.6268
238.80        112.5526
239.26        110.6928
239.71        109.7721
240.17         108.591
240.63        105.6227
241.08        100.9018
241.54        94.98059
242.00        90.11025
242.46        89.31602
242.91        94.75934
243.37           111.5
243.83        160.1492
244.28         284.852
244.74        360.7323
245.20         238.207
245.66        164.0568
246.11        142.6374
246.57        145.7481
247.03        177.2527
247.48        284.1545
247.94         252.784
248.40         143.094
248.85        107.2107
249.31        96.11716
249.77        94.74362
250.22        98.84514
250.68        107.9761
251.14        122.0208
251.59        132.7275
252.05        131.0074
252.51        120.4805
252.96        108.3284
253.42        101.9432
253.88         101.198
254.33        103.4409
254.79        108.4385
255.25        115.1396
255.70        121.9461
256.16        128.9064
256.62        134.2141
257.07        135.9724
257.53        135.3315
257.99        132.8575
258.44        129.7155
258.90        128.6234
259.35        128.4798
259.81        128.7462
260.27        128.1882
260.72        125.6298
261.18        121.9699
261.63        117.3914
262.09        112.8802
262.55        108.4874
263.00        104.3018
263.46        100.7191
263.91        97.56863
264.37        95.33761
264.83        93.60715
265.28        92.05824
265.74        90.53195
266.19         88.3522
266.65        85.89435
267.11        83.43687
267.56        81.15859
268.02         79.3489
268.47        77.82416
268.93        76.49385
269.38        75.36861
269.84        74.69247
270.30        74.46208
270.75        74.60166
271.21        74.75275
271.66        74.34871
272.12         73.3035
272.57         71.7545
273.03        70.13842
273.48        68.99503
273.94        68.50487
274.39        68.40866
274.85        68.45156
275.31        68.17107
275.76        67.43002
276.22        66.44393
276.67        65.33164
277.13        64.45378
277.58        63.78424
278.04        63.29452
278.49        62.75759
278.95        62.04164
279.40        61.04646
279.86        59.95541
280.31        58.83059
280.77        57.95992
281.22        57.31934
281.68        56.88613
282.13        56.52158
282.59        56.15923
283.04        55.71216
283.50        55.26642
283.95        54.76082
284.41          54.186
284.86        53.52056
285.32        52.80299
285.77        52.09584
286.22        51.60337
286.68        51.33387
287.13        51.17609
287.59        50.99532
288.04        50.52165
288.50        49.76528
288.95         48.7911
289.41        47.76794
289.86         46.7886
290.32        45.97826
290.77        45.26404
291.22        44.72483
291.68        44.43232
292.13        44.36767
292.59         44.5172
293.04        44.75454
293.50        44.89322
293.95        44.87364
294.40        44.73104
294.86        44.56177
295.31        44.51809
295.77        44.64619
296.22        44.89567
296.68        45.18819
297.13        45.37088
297.58        45.42324
298.04        45.41536
298.49        45.43972
298.95        45.68389
299.40        46.16097
299.85        46.79838
300.31        47.47369
300.76        48.00466
301.21        48.32772
301.67        48.53571
302.12         48.6316
302.58        48.71116
303.03        48.77131
303.48        48.80467
303.94        48.89901
304.39        49.13715
304.84        49.53485
305.30        50.06106
305.75        50.54396
306.20        50.74519
306.66        50.65187
307.11         50.3167
307.57        49.94666
308.02         49.7445
308.47        49.79576
308.93        50.02888
309.38        50.32713
309.83        50.55276
310.29        50.65371
310.74         50.6596
311.19        50.61074
311.65        50.56054
312.10        50.51815
312.55        50.46672
313.00        50.36723
313.46        50.17591
313.91        49.88307
314.36        49.52888
314.82        49.20561
315.27        49.01709
315.72        48.99628
316.18        49.10508
316.63        49.25985
317.08        49.29755
317.53        49.17208
317.99        48.91588
318.44        48.62989
318.89         48.4804
319.35        48.48824
319.80        48.61159
320.25        48.70961
320.70        48.55657
321.16         48.1148
321.61        47.47138
322.06        46.78757
322.51        46.30755
322.97        46.07384
323.42        46.02224
323.87        46.03952
324.32        45.93668
324.78        45.65464
325.23        45.27776
325.68        44.84868
326.13        44.44341
326.59        44.08772
327.04        43.77423
327.49         43.5321
327.94        43.42582
328.39        43.45901
328.85        43.60301
329.30        43.80878
329.75        43.91364
330.20        43.87512
330.66        43.71396
331.11        43.52417
331.56        43.40731
332.01        43.39582
332.46        43.44479
332.92        43.51147
333.37        43.59319
333.82        43.64749
334.27        43.70023
334.72        43.71304
335.17        43.61771
335.63        43.41191
336.08        43.12966
336.53        42.86939
336.98        42.80656
337.43        42.97377
337.88        43.31788
338.34         43.7019
338.79        43.95723
339.24        44.00425
339.69          43.897
340.14        43.71749
340.59        43.61398
341.05        43.62748
341.50        43.70528
341.95        43.80864
342.40        43.88728
342.85         43.9243
343.30        43.95204
343.75        43.94522
344.20        43.85881
344.66         43.6967
345.11        43.44481
345.56        43.19452
346.01        43.08174
346.46        43.12366
346.91        43.29134
347.36        43.44191
347.81        43.34708
348.26        42.98097
348.72        42.44833
349.17        41.91383
349.62        41.71945
350.07        41.93969
350.52        42.45116
350.97        43.06706
351.42        43.50563
351.87        43.67921
352.32         43.6624
352.77        43.51624
353.22         43.3418
353.67        43.17906
354.13        43.00113
354.58        42.79099
355.03        42.56988
355.48        42.34659
355.93        42.14244
356.38        41.95578
356.83        41.77025
357.28        41.57945
357.73        41.37795
358.18         41.1828
358.63        41.01941
359.08        40.89256
359.53         40.8062
359.98        40.70488
360.43        40.50421
360.88        40.19344
361.33        39.78527
361.78        39.39644
362.23        39.21833
362.68        39.27384
363.13        39.49508
363.58        39.69505
364.03        39.58071
364.48        39.09897
364.93        38.35443
365.38        37.53803
365.83         36.9573
366.28        36.70118
366.73        36.67757
367.18        36.77559
367.63        36.81063
368.08        36.71566
368.53        36.54943
368.98        36.34176
369.43        36.12943
369.88          35.931
370.33        35.72905
370.78        35.52155
371.23        35.32025
371.68        35.13062
372.13        34.95016
372.58        34.81218
373.03        34.76445
373.48        34.80501
373.93        34.91496
374.38         35.0065
374.83        34.94405
375.28        34.70665
375.72        34.32848
376.17        33.93069
376.62        33.67686
377.07        33.60872
377.52        33.66348
377.97         33.7709
378.42         33.8161
378.87        33.75982
379.32        33.64734
379.77        33.47626
380.22        33.23785
380.67        32.94256
381.11        32.58723
381.56        32.23567
382.01        32.00652
382.46         31.9264
382.91        31.97169
383.36        32.04694
383.81        31.99193
384.26         31.7752
384.71        31.44882
385.15         31.1074
385.60        30.91656
386.05        30.89036
386.50        30.96685
386.95        31.06208
387.40         31.0391
387.85        30.87273
388.29        30.61915
388.74        30.36337
389.19        30.13231
389.64        29.94034
390.09        29.76262
390.54        29.64112
390.98        29.64853
391.43        29.79237
391.88         30.0303
392.33        30.26033
392.78        30.32922
393.23        30.22032
393.67        29.97605
394.12        29.72335
394.57        29.54704
395.02        29.47568
395.47        29.46973
395.91        29.52929
396.36        29.61408
396.81        29.70964
397.26        29.80663
397.71        29.86714
398.15        29.80563
398.60        29.65573
399.05        29.45261
399.50        29.22446
399.95        28.92626
400.39        28.70073
400.84        28.45321
401.29        28.26591
401.74        28.22927
402.18        28.36731
402.63        28.61885
403.08        28.91305
403.53        29.12677
403.97        29.22137
404.42         29.2274
404.87        29.14599
405.32        28.98921
405.76        28.77775
406.21        28.52603
406.66        28.30577
407.11        28.22895
407.55        28.31708
408.00        28.53688
408.45        28.79391
408.90        28.88659
409.34        28.75994
409.79        28.48572
410.24        28.19204
410.68        28.05855
411.13        28.12904
411.58        28.34073
412.03        28.61789
412.47        28.83169
412.92        28.91029
413.37        28.90014
413.81        28.83022
414.26        28.76716
414.71        28.72086
415.15        28.66776
415.60        28.59056
416.05        28.48482
416.49        28.35435
416.94        28.22771
417.39        28.10109
417.83        27.96052
418.28        27.82036
418.73        27.67669
419.17        27.58881
419.62        27.64679
420.07        27.84951
420.51        28.16475
420.96        28.46808
421.41        28.55134
421.85         28.3653
422.30        28.01448
422.74        27.62428
423.19        27.42916
423.64        27.45454
424.08        27.64927
424.53        27.90483
424.98        28.07898
425.42        28.13065
425.87        28.08079
426.31        27.98373
426.76        27.99697
427.21        28.10752
427.65        28.08405
428.10        27.99653
428.54        28.15435
428.99        28.56414
429.44        29.05635
429.88        29.41713
430.33        29.46509
430.77         29.1393
431.22        28.41604
431.66         27.5852
432.11        27.32473
432.56         27.6683
433.00        28.14785
433.45        28.54007
433.89        29.05389
434.34        29.36124
434.78         29.0686
435.23        27.67501
435.67        27.56029
436.12        28.34038
436.57        28.67079
437.01        28.41387
437.46        28.27456
437.90         28.3171
438.35        28.33432
438.79        28.29448
439.24        28.22527
439.68        28.14824
440.13        27.95436
440.57        27.76702
441.02        28.15494
441.46        28.91794
441.91        28.99297
442.35        28.44596
442.80        28.24996
443.24        28.36188
443.69        28.38598
444.13        28.26482
444.58        27.90369
445.02        27.44763
445.47        27.47414
445.91        27.86822
446.36        27.93716
446.80         27.6322
447.24        27.35504
447.69        27.19139
448.13        27.09534
448.58        27.09571
449.02        27.18892
449.47        27.32162
449.91        27.40675
450.36        27.42122
450.80        27.38289
451.25        27.32182
451.69        27.26951
452.13        27.24384
452.58        27.22321
453.02        27.20993
453.47        27.21629
453.91         27.2425
454.36        27.29665
454.80        27.35011
455.24        27.34393
455.69        27.28281
456.13        27.17343
456.58        27.09811
457.02        27.13893
457.46        27.31923
457.91        27.59738
458.35         27.8878
458.79         28.0595
459.24        28.09199
459.68        28.00378
460.13        27.88046
460.57        27.79846
461.01        27.80372
461.46        27.86791
461.90         27.9456
462.34        27.96939
462.79        27.91272
463.23        27.79056
463.68        27.66949
464.12        27.67412
464.56        27.82439
465.01        28.10348
465.45         28.3368
465.89        28.37623
466.34        28.21921
466.78        27.75874
467.22        27.23509
467.67         27.3095
468.11        27.90379
468.55        28.18456
468.99        28.05308
469.44        27.92286
469.88        27.88832
470.32        28.04897
470.77        28.32972
471.21        28.39672
471.65        28.22209
472.10        28.07454
472.54         28.0134
472.98        28.02832
473.42        28.13637
473.87        28.34851
474.31        28.58678
474.75        28.72938
475.20        28.75575
475.64        28.68497
476.08        28.58558
476.52        28.56255
476.97        28.64265
477.41        28.79574
477.85        28.95561
478.29        29.07077
478.74        29.12981
479.18        29.01675
479.62        28.79942
480.06        29.06503
480.50        29.23044
480.95        29.37127
481.39        29.28529
481.83        29.26494
482.27        29.31176
482.72        29.16078
483.16        28.90591
483.60        29.04921
484.04        29.58344
484.48        29.76344
484.93        29.92881
485.37        30.31347
485.81        31.04034
486.25         31.2251
486.69        42.01709
487.14        34.13975
487.58        21.61956
488.02        26.37324
488.46        29.83008
488.90        29.82446
489.34        29.98101
489.79        29.76518
490.23        31.24263
490.67        31.93516
491.11        31.53213
491.55        31.44992
491.99         31.5691
492.43        31.43634
492.88        31.13394
493.32        31.13819
493.76        31.24091
494.20        31.48945
494.64        31.78547
495.08        32.12672
495.52        32.49631
495.96        32.88403
496.41        33.19154
496.85        33.42342
497.29        33.54723
497.73        33.08358
498.17        32.46511
498.61        32.71455
499.05        33.82402
499.49        34.01099
499.93        34.07939
500.37        34.21397
500.82        34.30673
501.26        34.57613
501.70        34.86386
502.14        34.99915
502.58        34.95187
503.02        34.92633
503.46        34.93818
503.90          34.856
504.34        34.73147
504.78        34.71139
505.22        34.81542
505.66        35.00761
506.10        35.22347
506.54        35.35147
506.98        35.36293
507.42        35.29334
507.86        35.21278
508.30        35.23019
508.74        35.36736
509.18         35.5822
509.62        35.81469
510.06        35.96812
510.50        36.01712
510.94        36.00274
511.38        35.95551
511.82         35.9201
512.26        35.91661
512.70        35.92545
513.14        35.96619
513.58        36.07352
514.02        36.23563
514.46        36.43404
514.90        36.61004
515.34        36.64133
515.78        36.48635
516.22        36.30859
516.66        36.17715
517.10        35.84324
517.54        35.33323
517.98        35.93931
518.42        35.75685
518.86        36.02585
519.30        36.16036
519.74        36.34224
520.18        36.51599
520.62        36.56756
521.06        36.50206
521.50        36.33158
521.93        36.12432
522.37        36.00185
522.81        35.99628
523.25         36.0765
523.69        36.19232
524.13        36.26373
524.57        36.26801
525.01         36.2284
525.45         36.1739
525.89        36.15111
526.32        36.16562
526.76        36.19611
527.20        36.21052
527.64        36.17264
528.08        36.08354
528.52          35.931
528.96        35.72929
529.40        35.59868
529.83        35.57232
530.27        35.25538
530.71        35.34338
531.15         35.2723
531.59        35.24883
532.03        35.25343
532.46        35.30079
532.90        35.40282
533.34        35.53943
533.78         35.6934
534.22        35.81862
534.66        35.85353
535.09        35.78143
535.53        35.63929
535.97         35.4519
536.41        35.26944
536.85        35.11951
537.28         34.9988
537.72        34.92571
538.16        34.93085
538.60        35.01402
539.04        35.13579
539.47        35.26647
539.91        35.45266
540.35        35.64334
540.79        35.70156
541.22        35.65231
541.66        35.68133
542.10        35.80097
542.54        35.90325
542.97        35.99975
543.41          36.169
543.85        36.40511
544.29        36.70232
544.72        36.97897
545.16        37.12143
545.60        37.10995
546.04        36.97483
546.47        36.84941
546.91         36.9591
547.35        37.33105
547.79        37.90423
548.22        38.49013
548.66        38.76748
549.10         38.6921
549.53        38.41933
549.97        38.14191
550.41        38.06736
550.84        38.26341
551.28        38.67995
551.72        39.19735
552.15        39.59507
552.59         39.8037
553.03        39.89041
553.46        39.91193
553.90        39.99049
554.34        40.15871
554.77        40.33032
555.21        40.46986
555.65         40.6511
556.08        40.88231
556.52        40.65292
556.96        40.92694
557.39        40.94974
557.83        41.02505
558.27        41.11261
558.70         41.2322
559.14        41.39753
559.57        41.58699
560.01        41.80961
560.45        42.01423
560.88        42.11932
561.32        42.13999
561.75         42.0787
562.19        42.00697
562.63        41.97964
563.06        42.00933
563.50        42.08982
563.93        42.20068
564.37        42.33423
564.80         42.4654
565.24        42.61092
565.68         42.7489
566.11        42.84773
566.55         42.9344
566.98         43.0128
567.42        43.11573
567.85        43.28509
568.29        43.55994
568.72        43.80429
569.16        44.08834
569.60        44.61894
570.03        45.17514
570.47        45.33766
570.90        45.28564
571.34        44.60351
571.77        45.27319
572.21         45.5027
572.64        45.38584
573.08        44.83355
573.51        42.92787
573.95        44.82206
574.38        47.98924
574.82        46.91946
