SpectraSmart Spectrum 2.9.0.0
--------- Device Information -----------
Spectrum Name :  反射率_0
Saving Time :  2024/04/26 00:31:57
Spectro-Module Model Name : SE2030-DUVN
Spectro-Module Serial Number : OS361AC55029948
Wavelength Start : 200
Wavelength End : 1025
Wavelength Unit : Wavelength(nm)
Spectrum Unit : Reflectance(%)
-----------Spectrum Setting ------------
Integration Time : 20ms
Average : 10
Boxcar : 0
Background removal :  enabled
linearity correction :  enabled
SC :  disabled
Intensity correction :  disabled
DWT denoise :  enabled
savitzky-golay :  disabled
FFT :  disabled
Running average :  disabled
Kalman :  disabled
High pass :  disabled
---------------BEGIN--------------------
Wavelength(nm)             Reflectance(%)
200.29               0
200.75        88.37503
201.21        81.43343
201.67        73.00494
202.13        68.32238
202.58         68.1655
203.04        71.39103
203.50        76.11568
203.96        79.07327
204.42         79.2506
204.88        77.70967
205.34        76.16917
205.80        76.48145
206.26        79.46829
206.72        86.95399
207.18        100.2548
207.64        105.0065
208.10        85.01686
208.55        61.88115
209.01        50.59158
209.47         49.7037
209.93         55.1614
210.39        65.64577
210.85        77.85016
211.31        83.59717
211.77        79.86017
212.23        69.60562
212.69        58.36273
213.14        54.76194
213.60        60.45492
214.06        72.76466
214.52        87.09631
214.98        96.46263
215.44        98.80552
215.90        96.44942
216.36        91.83697
216.81        88.11299
217.27        86.63737
217.73        86.43306
218.19        86.17123
218.65        84.10602
219.11        79.50977
219.57        71.80063
220.02        62.67382
220.48         59.7186
220.94        66.16915
221.40         79.0706
221.86        89.68819
222.32        89.58077
222.77        80.40912
223.23        67.75043
223.69        56.88367
224.15        53.15838
224.61        56.09198
225.06        63.02866
225.52        70.73567
225.98        75.13211
226.44        75.36797
226.90        73.12043
227.36        70.27262
227.81        69.31272
228.27        71.03441
228.73        74.13837
229.19        77.53835
229.65        79.73485
230.10        80.32823
230.56        80.16174
231.02        79.62669
231.48        79.13838
231.93        78.77139
232.39        78.38699
232.85        78.06899
233.31        78.08266
233.77        78.41908
234.22        79.08722
234.68        79.61232
235.14         79.0983
235.60        77.41061
236.05        74.92379
236.51        72.38107
236.97        70.73208
237.43        70.16031
237.88        70.53213
238.34        71.45583
238.80        72.24075
239.26        72.39095
239.71        72.26743
240.17        71.58772
240.63        70.53996
241.08        69.44417
241.54        68.25628
242.00        67.41222
242.46         67.4619
242.91        69.01285
243.37         73.3122
243.83        87.58759
244.28        137.0276
244.74        198.0369
245.20        170.1754
245.66        141.9174
246.11         134.437
246.57        139.6624
247.03         162.351
247.48        226.7769
247.94         181.224
248.40        109.0517
248.85        88.43867
249.31        82.81179
249.77        82.41373
250.22        84.80973
250.68        90.01459
251.14        97.51695
251.59        101.2974
252.05        96.26535
252.51        85.72072
252.96        74.93661
253.42        68.67216
253.88        66.38588
254.33        66.40066
254.79        68.81957
255.25        73.13187
255.70         78.1152
256.16        83.35464
256.62        87.01514
257.07        87.25779
257.53        84.94789
257.99        80.80125
258.44        76.39774
258.90        74.50534
259.35        74.31999
259.81        74.93085
260.27        74.80645
260.72        72.48227
261.18        68.66367
261.63        63.94571
262.09        59.64174
262.55         56.5354
263.00        54.60491
263.46        53.58836
263.91        52.83367
264.37        51.99386
264.83        50.86295
265.28         49.4641
265.74        48.16087
266.19        47.18472
266.65        46.71472
267.11        46.54676
267.56        46.33513
268.02        45.70237
268.47        44.55014
268.93        43.03709
269.38        41.44705
269.84        40.48372
270.30        40.31575
270.75        40.74616
271.21        41.34648
271.66        41.46819
272.12         40.9545
272.57        39.99434
273.03        38.95351
273.48         38.2924
273.94        38.14414
274.39          38.285
274.85        38.46304
275.31        38.28763
275.76        37.66832
276.22        36.79795
276.67        35.84501
277.13        35.16088
277.58        34.75794
278.04         34.5605
278.49        34.37993
278.95        34.04462
279.40        33.47587
279.86        32.81247
280.31        32.10127
280.77        31.53879
281.22        31.11866
281.68        30.81594
282.13        30.56444
282.59        30.33006
283.04        30.07623
283.50        29.85401
283.95        29.61761
284.41        29.33226
284.86        28.97893
285.32        28.57084
285.77        28.18008
286.22        27.98763
286.68         27.9912
287.13        28.11224
287.59        28.16983
288.04        27.87328
288.50        27.21998
288.95        26.30229
289.41        25.36451
289.86        24.65729
290.32        24.29539
290.77        24.16862
291.22        24.19628
291.68        24.21704
292.13        24.17767
292.59        24.12253
293.04        24.08534
293.50        24.12327
293.95        24.23684
294.40        24.38067
294.86        24.49752
295.31        24.51356
295.77        24.42361
296.22        24.26187
296.68        24.09177
297.13        23.98463
297.58        23.98245
298.04        24.08083
298.49        24.26076
298.95        24.52473
299.40        24.84693
299.85        25.21448
300.31        25.59376
300.76        25.94849
301.21        26.24674
301.67        26.51069
302.12        26.69018
302.58        26.76451
303.03        26.72687
303.48        26.60527
303.94        26.51394
304.39        26.59444
304.84        26.87193
305.30        27.28679
305.75        27.69348
306.20        27.87614
306.66        27.81112
307.11        27.56581
307.57         27.2694
308.02        27.04488
308.47        26.95875
308.93        26.96253
309.38         27.0448
309.83        27.21859
310.29        27.45216
310.74        27.73015
311.19        27.97189
311.65        28.04975
312.10         27.9415
312.55        27.68777
313.00         27.3524
313.46        27.05678
313.91        26.83923
314.36        26.68431
314.82        26.61019
315.27        26.62916
315.72        26.73523
316.18        26.92085
316.63        27.12579
317.08        27.22569
317.53        27.18657
317.99        27.02624
318.44        26.82136
318.89        26.70286
319.35        26.69574
319.80        26.76958
320.25        26.83544
320.70         26.7475
321.16        26.47864
321.61        26.08249
322.06        25.66451
322.51        25.38036
322.97         25.2588
323.42        25.26349
323.87        25.30297
324.32        25.22597
324.78        24.99243
325.23        24.65393
325.68        24.29465
326.13        24.05325
326.59        23.96176
327.04         23.9934
327.49        24.07188
327.94        24.07507
328.39        23.96948
328.85        23.78398
329.30        23.61044
329.75        23.56839
330.20        23.69035
330.66        23.91814
331.11        24.18801
331.56        24.35661
332.01        24.37996
332.46        24.27992
332.92        24.11726
333.37        24.03089
333.82        24.05593
334.27        24.17164
334.72        24.28023
335.17        24.21819
335.63        23.95435
336.08         23.5493
336.53        23.16784
336.98        23.07189
337.43        23.31236
337.88         23.8115
338.34        24.34958
338.79        24.61064
339.24        24.48976
339.69        24.08066
340.14         23.5948
340.59        23.40179
341.05        23.58796
341.50        24.02703
341.95        24.52757
342.40        24.81663
342.85        24.82813
343.30         24.6623
343.75         24.3999
344.20        24.17871
344.66        24.05131
345.11        23.93741
345.56        23.85382
346.01        23.82632
346.46        23.84377
346.91        23.92875
347.36        23.96425
347.81        23.75383
348.26        23.29338
348.72        22.67833
349.17        22.10019
349.62        21.95462
350.07        22.31565
350.52        23.03439
350.97        23.86967
351.42        24.45429
351.87        24.68036
352.32        24.65153
352.77        24.44743
353.22        24.20236
353.67        23.97686
354.13          23.734
354.58         23.4951
355.03        23.33621
355.48        23.26854
355.93        23.29624
356.38        23.35283
356.83        23.31407
357.28        23.15167
357.73        22.89559
358.18        22.61847
358.63        22.43801
359.08        22.38344
359.53        22.42341
359.98        22.48388
360.43        22.45098
360.88        22.30115
361.33        22.06617
361.78        21.83304
362.23        21.74273
362.68        21.81211
363.13          21.976
363.58        22.12158
364.03        22.07687
364.48        21.80704
364.93        21.38455
365.38        20.88696
365.83        20.43603
366.28        20.08567
366.73        19.80577
367.18        19.62243
367.63        19.57528
368.08        19.65092
368.53        19.83115
368.98        20.02753
369.43        20.09654
369.88        20.00776
370.33        19.80121
370.78        19.53722
371.23        19.32829
371.68        19.21498
372.13        19.15967
372.58        19.16819
373.03        19.24674
373.48        19.37783
373.93        19.56124
374.38        19.72291
374.83        19.74486
375.28        19.60958
375.72          19.338
376.17        19.04352
376.62        18.87602
377.07        18.87359
377.52        18.98358
377.97        19.13281
378.42        19.20125
378.87        19.15329
379.32        19.03433
379.77        18.87049
380.22        18.69489
380.67        18.52332
381.11        18.34347
381.56         18.1718
382.01        18.04748
382.46        17.97745
382.91        17.95552
383.36        17.95083
383.81        17.90726
384.26        17.81415
384.71        17.69266
385.15        17.56062
385.60        17.45751
386.05        17.38362
386.50        17.31498
386.95        17.25774
387.40        17.22497
387.85        17.21517
388.29        17.22817
388.74        17.22496
389.19         17.1242
389.64        16.92238
390.09        16.63669
390.54        16.36404
390.98         16.2691
391.43         16.3906
391.88        16.66139
392.33        16.94486
392.78        17.03919
393.23        16.91501
393.67        16.63777
394.12        16.34736
394.57        16.18066
395.02        16.17053
395.47        16.26763
395.91        16.41467
396.36        16.48963
396.81        16.45797
397.26         16.3457
397.71        16.20687
398.15        16.10166
398.60         16.0679
399.05        16.08878
399.50        16.10007
399.95        15.96737
400.39        15.75074
400.84        15.43087
401.29        15.13804
401.74        15.07563
402.18        15.29748
402.63        15.71474
403.08        16.17221
403.53        16.42274
403.97        16.40288
404.42        16.18498
404.87        15.87313
405.32        15.65081
405.76        15.57823
406.21        15.60201
406.66        15.67361
407.11        15.73074
407.55        15.75696
408.00        15.77305
408.45        15.78084
408.90        15.76757
409.34        15.73082
409.79        15.66558
410.24        15.59442
410.68        15.55289
411.13        15.55082
411.58        15.58584
412.03        15.62617
412.47        15.61841
412.92        15.54279
413.37        15.41742
413.81        15.30049
414.26        15.29583
414.71         15.4093
415.15        15.61014
415.60        15.79996
416.05        15.83972
416.49        15.70009
416.94        15.43975
417.39        15.14288
417.83        14.95487
418.28         14.9269
418.73        15.00019
419.17        15.14023
419.62        15.28856
420.07        15.41955
420.51        15.55369
420.96        15.64309
421.41        15.60264
421.85        15.42481
422.30        15.15953
422.74        14.89339
423.19        14.78571
423.64        14.84954
424.08        15.05073
424.53        15.29761
424.98        15.45249
425.42          15.474
425.87         15.3924
426.31        15.25855
426.76          15.199
427.21        15.21865
427.65        15.17922
428.10        15.13119
428.54        15.25012
428.99        15.53635
429.44        15.91115
429.88        16.22317
430.33         16.2835
430.77        16.06512
431.22        15.63037
431.66        15.16694
432.11        15.02614
432.56        15.23561
433.00        15.60804
433.45        15.96915
433.89        16.22324
434.34        16.26427
434.78        15.98205
435.23        15.59672
435.67        15.57647
436.12        15.86575
436.57        15.92026
437.01        15.70933
437.46         15.5784
437.90        15.56994
438.35        15.58732
438.79        15.59573
439.24        15.58615
439.68        15.55931
440.13        15.45495
440.57         15.3368
441.02        15.51106
441.46        15.86726
441.91        15.82877
442.35        15.44334
442.80        15.25853
443.24        15.24825
443.69         15.1996
444.13          15.089
444.58        14.88373
445.02         14.6601
445.47        14.72292
445.91        14.98992
446.36        15.05579
446.80        14.88375
447.24         14.6952
447.69        14.56102
448.13        14.49261
448.58        14.51469
449.02        14.61475
449.47        14.73383
449.91         14.7754
450.36        14.72077
450.80        14.59857
451.25        14.46852
451.69        14.41166
452.13        14.45042
452.58        14.54383
453.02        14.65841
453.47        14.74005
453.91        14.77545
454.36        14.78944
454.80        14.77823
455.24        14.73315
455.69        14.66927
456.13        14.58044
456.58        14.52655
457.02        14.57551
457.46        14.74012
457.91        14.99035
458.35        15.24996
458.79        15.39033
459.24        15.39239
459.68        15.27967
460.13        15.14049
460.57        15.07376
461.01           15.12
461.46        15.23963
461.90        15.37695
462.34        15.43542
462.79        15.38994
463.23        15.26771
463.68        15.13723
464.12        15.11412
464.56        15.22531
465.01        15.43682
465.45        15.63523
465.89        15.71246
466.34        15.65976
466.78        15.42979
467.22        15.15104
467.67        15.18337
468.11        15.48383
468.55        15.58992
468.99        15.47169
469.44        15.39667
469.88        15.42314
470.32        15.59413
470.77        15.83709
471.21        15.91637
471.65        15.80195
472.10        15.66602
472.54        15.56224
472.98        15.52616
473.42        15.58088
473.87        15.71693
474.31        15.88755
474.75        16.01462
475.20        16.07906
475.64        16.09188
476.08        16.08261
476.52        16.09585
476.97        16.14507
477.41        16.22193
477.85        16.29167
478.29        16.33249
478.74        16.34216
479.18        16.24785
479.62        16.10789
480.06         16.2826
480.50        16.44481
480.95        16.62684
481.39        16.66208
481.83        16.63655
482.27        16.54395
482.72        16.26735
483.16        15.93219
483.60        15.93318
484.04        16.29156
484.48        16.55452
484.93        16.87021
485.37        17.27666
485.81        17.74673
486.25        17.91425
486.69        23.96288
487.14        19.08573
487.58        12.43669
488.02        15.03156
488.46         17.3058
488.90        17.31865
489.34        17.39917
489.79        17.14225
490.23        17.87186
490.67        18.39029
491.11        18.43039
491.55        18.28666
491.99        17.94035
492.43        17.69278
492.88        17.63396
493.32         17.7006
493.76        17.76258
494.20        17.97681
494.64        18.28034
495.08        18.62897
495.52        18.97886
495.96        19.28718
496.41        19.48541
496.85        19.55989
497.29        19.53638
497.73        19.26793
498.17        18.99906
498.61        19.19393
499.05        19.83304
499.49        19.95146
499.93        20.01886
500.37        20.07765
500.82        20.09184
501.26        20.28928
501.70        20.57244
502.14        20.76118
502.58        20.81297
503.02        20.86081
503.46        20.90345
503.90        20.84378
504.34        20.72623
504.78        20.67329
505.22        20.70745
505.66        20.80293
506.10        20.91747
506.54        20.97771
506.98        20.96719
507.42         20.9117
507.86         20.8694
508.30        20.92809
508.74        21.10019
509.18        21.34925
509.62        21.60693
510.06        21.76265
510.50        21.79049
510.94        21.73408
511.38         21.6415
511.82        21.58824
512.26        21.60047
512.70        21.64837
513.14        21.73604
513.58        21.87071
514.02        22.03047
514.46        22.20594
514.90        22.34304
515.34        22.32014
515.78        22.09592
516.22        21.86308
516.66        21.70577
517.10         21.3165
517.54        20.72463
517.98        21.51637
518.42        21.34531
518.86        21.71138
519.30         21.8929
519.74        22.11375
520.18        22.32283
520.62        22.40918
521.06        22.38428
521.50        22.25505
521.93        22.07859
522.37        21.96295
522.81        21.93686
523.25        21.97273
523.69        22.04265
524.13        22.10028
524.57        22.12794
525.01        22.14096
525.45        22.13694
525.89        22.10986
526.32        22.05951
526.76        21.98629
527.20        21.89989
527.64        21.82659
528.08        21.77636
528.52        21.72233
528.96        21.65441
529.40        21.61497
529.83        21.61434
530.27        21.42476
530.71        21.46081
531.15        21.36622
531.59        21.26987
532.03        21.16156
532.46        21.08782
532.90        21.12374
533.34        21.26613
533.78        21.48437
534.22        21.69311
534.66        21.76701
535.09        21.67819
535.53        21.47565
535.97        21.22722
536.41         21.0475
536.85        20.97361
537.28        20.97623
537.72        21.02398
538.16        21.06552
538.60        21.08403
539.04        21.08261
539.47        21.07863
539.91        21.14862
540.35        21.27502
540.79        21.35819
541.22        21.39256
541.66        21.45769
542.10        21.55096
542.54        21.61544
542.97        21.66905
543.41        21.77657
543.85        21.93919
544.29        22.15154
544.72         22.3508
545.16         22.4473
545.60        22.42934
546.04        22.32348
546.47        22.23857
546.91         22.3574
547.35        22.69774
547.79        23.19864
548.22        23.70844
548.66        23.96921
549.10        23.94168
549.53        23.74588
549.97        23.51734
550.41        23.40489
550.84        23.46461
551.28        23.66124
551.72        23.95261
552.15        24.25703
552.59        24.52956
553.03        24.78742
553.46        25.00334
553.90        25.15591
554.34        25.25086
554.77        25.26608
555.21        25.22531
555.65          25.249
556.08        25.36868
556.52        25.24755
556.96        25.47579
557.39        25.57385
557.83         25.7181
558.27        25.88276
558.70        26.06144
559.14        26.22603
559.57        26.35525
560.01        26.46567
560.45        26.53409
560.88        26.52677
561.32        26.46816
561.75        26.35875
562.19         26.2638
562.63        26.24561
563.06        26.31322
563.50        26.45284
563.93        26.62394
564.37        26.77323
564.80         26.8737
565.24        26.95038
565.68        27.00688
566.11        27.05169
566.55        27.11124
566.98        27.17527
567.42        27.26801
567.85        27.42043
568.29        27.65307
568.72        27.87497
569.16        28.09947
569.60        28.45878
570.03        28.82022
570.47        28.84862
570.90        28.66097
571.34         28.3989
571.77        28.72123
572.21        28.90448
572.64        28.86683
573.08        28.66635
573.51        27.48541
573.95        28.79606
574.38        30.91385
574.82        30.05448
