SpectraSmart Spectrum 2.9.0.0
--------- Device Information -----------
Spectrum Name :  反射率_0
Saving Time :  2024/04/26 00:36:48
Spectro-Module Model Name : SE2030-DUVN
Spectro-Module Serial Number : OS361AC55029948
Wavelength Start : 200
Wavelength End : 1025
Wavelength Unit : Wavelength(nm)
Spectrum Unit : Reflectance(%)
-----------Spectrum Setting ------------
Integration Time : 20ms
Average : 10
Boxcar : 0
Background removal :  enabled
linearity correction :  enabled
SC :  disabled
Intensity correction :  disabled
DWT denoise :  enabled
savitzky-golay :  disabled
FFT :  disabled
Running average :  disabled
Kalman :  disabled
High pass :  disabled
---------------BEGIN--------------------
Wavelength(nm)             Reflectance(%)
200.29               0
200.75         85.2796
201.21        76.55717
201.67        66.43855
202.13        60.65569
202.58        59.91285
203.04        62.84076
203.50        67.65159
203.96        71.05937
204.42         71.9336
204.88        71.46267
205.34        70.65748
205.80        70.50239
206.26        71.45756
206.72        73.98477
207.18        78.75575
207.64        82.10152
208.10        77.64212
208.55        70.41051
209.01        66.58227
209.47        66.66476
209.93        69.25215
210.39        74.02521
210.85        78.55169
211.31        77.45738
211.77        69.58953
212.23        57.24873
212.69          45.558
213.14        42.38715
213.60        48.96555
214.06        63.04725
214.52        79.57494
214.98        90.58562
215.44        93.76489
215.90        91.52467
216.36        86.51044
216.81        82.36378
217.27        80.55965
217.73        79.90065
218.19        79.23387
218.65        77.03635
219.11        72.58357
219.57        65.43552
220.02        56.68343
220.48        52.35837
220.94        55.38025
221.40          63.943
221.86        71.50689
222.32        71.43674
222.77        64.82636
223.23        55.90542
223.69        48.56377
224.15        46.83455
224.61        50.26052
225.06        56.68221
225.52        63.61391
225.98        68.04813
226.44        69.21204
226.90        68.32127
227.36        66.38985
227.81        64.67235
228.27        63.93064
228.73        63.60625
229.19        63.65134
229.65        64.07049
230.10        64.71443
230.56        65.59898
231.02          66.637
231.48        67.73981
231.93        68.79743
232.39        69.82526
232.85         70.5795
233.31        70.75628
233.77        70.29437
234.22        69.29254
234.68        67.91734
235.14        66.58684
235.60        65.56023
236.05        64.82488
236.51        64.38264
236.97        64.11433
237.43        63.94853
237.88        64.01767
238.34        64.16904
238.80         64.3568
239.26        64.47818
239.71         64.5768
240.17        64.38448
240.63        64.10159
241.08        63.90553
241.54        63.78936
242.00        63.71581
242.46        63.44825
242.91         62.9347
243.37        61.47565
243.83        59.40742
244.28        67.43841
244.74        103.1542
245.20        116.4535
245.66        112.6757
246.11         111.211
246.57        112.8307
247.03        118.0818
247.48        125.2422
247.94        92.70766
248.40         77.8836
248.85         76.4053
249.31        77.18721
249.77        78.36816
250.22         79.9276
250.68        82.45741
251.14          85.353
251.59        84.68191
252.05        78.56588
252.51         69.9688
252.96        62.73093
253.42        60.15485
253.88        61.46135
254.33        65.12943
254.79        70.87948
255.25        77.51073
255.70        83.64799
256.16        89.28832
256.62        92.72636
257.07        92.25184
257.53        88.99039
257.99        83.74532
258.44        78.55293
258.90        76.70618
259.35         77.1823
259.81        78.68004
260.27        79.19704
260.72        76.82753
261.18        72.40657
261.63        66.80595
262.09        61.59856
262.55          57.843
263.00        55.54812
263.46        54.32873
263.91        53.44901
264.37        52.47948
264.83        51.18789
265.28        49.62811
265.74        48.16488
266.19        47.03631
266.65        46.43196
267.11        46.13674
267.56        45.81596
268.02        45.10122
268.47        43.88505
268.93        42.32002
269.38        40.65572
269.84        39.54424
270.30        39.15105
270.75        39.29963
271.21         39.6251
271.66        39.57051
272.12        38.99563
272.57        38.07082
273.03        37.09406
273.48        36.42113
273.94        36.16737
274.39        36.14692
274.85        36.17929
275.31         35.9844
275.76        35.48366
276.22        34.81453
276.67        34.07457
277.13        33.50951
277.58        33.11395
278.04         32.8542
278.49        32.58244
278.95        32.17651
279.40        31.57775
279.86         30.9044
280.31        30.21222
280.77        29.70777
281.22        29.37994
281.68        29.19618
282.13        29.06128
282.59        28.89391
283.04          28.653
283.50        28.40204
283.95        28.12666
284.41        27.83772
284.86        27.53041
285.32        27.20726
285.77        26.91676
286.22        26.80305
286.68        26.85473
287.13        27.00054
287.59        27.08998
288.04        26.87937
288.50        26.36762
288.95        25.63083
289.41        24.85956
289.86        24.22703
290.32        23.84284
290.77        23.63226
291.22        23.58564
291.68        23.64692
292.13        23.78737
292.59         24.0205
293.04        24.32334
293.50        24.66091
293.95        25.00493
294.40        25.33151
294.86        25.62414
295.31        25.87437
295.77        26.09145
296.22         26.2863
296.68        26.47498
297.13        26.65364
297.58        26.84912
298.04        27.08684
298.49        27.40557
298.95        27.89816
299.40         28.5604
299.85         29.3516
300.31        30.18596
300.76        30.93968
301.21         31.5504
301.67        32.06147
302.12        32.45327
302.58        32.76548
303.03        32.99821
303.48        33.16014
303.94        33.33367
304.39        33.60813
304.84         34.0033
305.30        34.48328
305.75        34.93322
306.20        35.18764
306.66        35.23668
307.11        35.12575
307.57        34.96744
308.02        34.84704
308.47        34.82912
308.93        34.88347
309.38        35.00582
309.83        35.22418
310.29        35.51321
310.74        35.84491
311.19        36.14734
311.65        36.30786
312.10        36.29799
312.55        36.15049
313.00        35.89811
313.46        35.61314
313.91        35.32414
314.36        35.03475
314.82        34.79667
315.27        34.66529
315.72        34.65486
316.18        34.75183
316.63        34.89229
317.08        34.94224
317.53        34.86293
317.99        34.67242
318.44         34.4519
318.89        34.33888
319.35         34.3504
319.80         34.4491
320.25         34.5143
320.70        34.35263
321.16        33.93272
321.61           33.33
322.06         32.6903
322.51        32.23065
322.97        31.99358
323.42        31.92653
323.87        31.92415
324.32        31.80969
324.78        31.53037
325.23        31.15124
325.68        30.73884
326.13        30.40416
326.59        30.17514
327.04        30.03086
327.49        29.93152
327.94        29.82202
328.39        29.68348
328.85        29.52431
329.30        29.39463
329.75        29.33034
330.20        29.34138
330.66        29.39538
331.11        29.46895
331.56        29.47824
332.01        29.39966
332.46        29.23955
332.92        29.03956
333.37        28.91803
333.82        28.89567
334.27        28.95808
334.72        29.02044
335.17        28.93837
335.63        28.68094
336.08        28.30016
336.53         27.9266
336.98        27.77362
337.43        27.88348
337.88        28.19223
338.34        28.52443
338.79        28.64134
339.24         28.4572
339.69        28.04678
340.14        27.57805
340.59        27.34435
341.05        27.41503
341.50        27.69373
341.95        28.02901
342.40        28.20152
342.85        28.15782
343.30        27.97968
343.75        27.72825
344.20        27.51073
344.66        27.36937
345.11        27.23194
345.56        27.12379
346.01        27.08449
346.46        27.10077
346.91        27.17995
347.36        27.19467
347.81        26.93485
348.26        26.39364
348.72        25.67906
349.17        24.97858
349.62        24.67989
350.07        24.86957
350.52        25.41118
350.97        26.10671
351.42        26.65202
351.87        26.94278
352.32        27.05344
352.77        27.01154
353.22         26.8679
353.67        26.65777
354.13        26.36897
354.58        26.03821
355.03        25.77028
355.48        25.59412
355.93        25.50682
356.38        25.46754
356.83         25.3934
357.28        25.25968
357.73        25.08436
358.18        24.89933
358.63        24.75496
359.08         24.6617
359.53        24.60342
359.98        24.53413
360.43        24.38643
360.88        24.15111
361.33        23.84971
361.78        23.55375
362.23        23.37852
362.68        23.34159
363.13        23.39743
363.58        23.45753
364.03        23.38385
364.48        23.14594
364.93        22.79578
365.38        22.39477
365.83        22.04076
366.28         21.7719
366.73        21.56049
367.18        21.41002
367.63        21.32614
368.08        21.29715
368.53        21.32106
368.98        21.35455
369.43        21.32385
369.88        21.21517
370.33        21.05011
370.78         20.8605
371.23         20.7077
371.68        20.61259
372.13           20.55
372.58        20.52927
373.03         20.5645
373.48        20.64351
373.93        20.76048
374.38        20.84876
374.83        20.80409
375.28        20.61196
375.72        20.29394
376.17        19.95795
376.62        19.74162
377.07        19.68339
377.52        19.73897
377.97        19.84395
378.42        19.89164
378.87        19.84846
379.32        19.75026
379.77        19.62094
380.22        19.49196
380.67        19.37419
381.11        19.25416
381.56        19.13017
382.01        19.01228
382.46        18.90326
382.91        18.80573
383.36        18.71706
383.81        18.62785
384.26        18.53824
384.71        18.45581
385.15        18.37357
385.60        18.29307
386.05        18.20688
386.50        18.10706
386.95        18.01475
387.40        17.96772
387.85        17.97219
388.29        18.01415
388.74        18.05276
389.19        18.00633
389.64        17.86677
390.09        17.64799
390.54         17.4317
390.98        17.35549
391.43        17.45206
391.88        17.66528
392.33        17.87171
392.78         17.8894
393.23        17.69971
393.67          17.367
394.12        17.03663
394.57        16.84957
395.02        16.83628
395.47        16.94374
395.91        17.10981
396.36        17.20069
396.81        17.17774
397.26        17.07219
397.71        16.93083
398.15        16.80394
398.60        16.73348
399.05        16.70596
399.50         16.6822
399.95        16.56227
400.39         16.4117
400.84        16.19849
401.29        16.01885
401.74        16.01141
402.18        16.21028
402.63        16.54333
403.08        16.89427
403.53        17.07759
403.97         17.0463
404.42        16.85611
404.87        16.58382
405.32        16.36691
405.76        16.25477
406.21        16.21364
406.66        16.22021
407.11         16.2456
407.55        16.28056
408.00        16.33459
408.45        16.39317
408.90         16.4125
409.34        16.38074
409.79        16.30576
410.24        16.22464
410.68        16.19387
411.13        16.22857
411.58        16.31562
412.03        16.42009
412.47        16.48298
412.92        16.47444
413.37        16.41124
413.81        16.33558
414.26        16.32788
414.71        16.39398
415.15        16.51424
415.60        16.61263
416.05        16.58722
416.49        16.41953
416.94         16.1563
417.39        15.87767
417.83        15.71858
418.28         15.7229
418.73        15.83795
419.17        16.00788
419.62        16.14309
420.07        16.21533
420.51        16.25001
420.96        16.24142
421.41        16.17795
421.85        16.06307
422.30        15.92014
422.74        15.77552
423.19        15.70651
423.64        15.71099
424.08        15.77806
424.53        15.86436
424.98        15.92333
425.42        15.94457
425.87        15.93376
426.31         15.8924
426.76        15.87084
427.21        15.85274
427.65        15.71845
428.10        15.56644
428.54         15.6518
428.99        15.99087
429.44         16.4735
429.88        16.89437
430.33        16.98911
430.77        16.71614
431.22        16.16603
431.66        15.57343
432.11        15.35337
432.56        15.54543
433.00        15.94393
433.45        16.34293
433.89         16.5911
434.34         16.5679
434.78        16.18757
435.23        15.71375
435.67         15.6641
436.12        15.98969
436.57        16.12724
437.01        16.01509
437.46        15.95486
437.90        15.97241
438.35        15.97854
438.79         15.9569
439.24        15.92862
439.68        15.90318
440.13         15.8121
440.57        15.70135
441.02         15.8554
441.46        16.15783
441.91         16.0351
442.35        15.57566
442.80        15.37913
443.24        15.42266
443.69        15.47584
444.13        15.47527
444.58        15.32033
445.02        15.07156
445.47        15.06116
445.91        15.23822
446.36         15.2455
446.80         15.0629
447.24        14.90016
447.69        14.79922
448.13        14.72503
448.58        14.69387
449.02        14.70984
449.47        14.74984
449.91        14.77324
450.36        14.77103
450.80        14.74936
451.25        14.72497
451.69        14.71332
452.13        14.72165
452.58        14.73072
453.02        14.74012
453.47        14.74648
453.91        14.75007
454.36        14.75931
454.80        14.75354
455.24        14.69691
455.69        14.59706
456.13          14.461
456.58        14.35653
457.02        14.36058
457.46        14.48852
457.91        14.70449
458.35        14.93409
458.79        15.05315
459.24        15.04209
459.68        14.92487
460.13        14.78122
460.57        14.69594
461.01         14.7095
461.46        14.78942
461.90        14.89272
462.34        14.94271
462.79        14.91799
463.23        14.83571
463.68        14.75778
464.12        14.78652
464.56        14.93946
465.01        15.18505
465.45        15.39859
465.89        15.45573
466.34        15.35058
466.78        15.04525
467.22        14.69364
467.67         14.6895
468.11        15.00111
468.55        15.16813
468.99        15.13302
469.44        15.10933
469.88        15.14082
470.32        15.28367
470.77        15.47742
471.21        15.51088
471.65        15.36327
472.10        15.19477
472.54        15.06234
472.98        15.01019
473.42        15.06158
473.87        15.20821
474.31        15.39083
474.75        15.50918
475.20        15.54232
475.64        15.50911
476.08        15.45839
476.52        15.46575
476.97        15.54881
477.41        15.68582
477.85        15.82358
478.29        15.90857
478.74        15.92899
479.18        15.82615
479.62        15.66283
480.06          15.798
480.50        15.92033
480.95        16.05935
481.39        16.06799
481.83        16.04878
482.27        15.99607
482.72        15.79328
483.16        15.53683
483.60         15.5642
484.04        15.89271
484.48        16.10697
484.93        16.36856
485.37        16.71762
485.81        17.19763
486.25        17.33788
486.69        23.59506
487.14         18.7984
487.58        12.26294
488.02        14.72692
488.46         16.8135
488.90        16.72571
489.34        16.71576
489.79        16.50377
490.23        17.32741
490.67        17.95002
491.11        18.08204
491.55        18.03577
491.99        17.77997
492.43        17.57692
492.88        17.50967
493.32        17.51979
493.76        17.50205
494.20         17.6596
494.64        17.94469
495.08        18.30142
495.52        18.68103
495.96        19.02784
496.41        19.26722
496.85        19.39736
497.29        19.43071
497.73        19.18343
498.17        18.90291
498.61        19.08814
499.05        19.73042
499.49        19.85889
499.93        19.94442
500.37         20.0442
500.82        20.10574
501.26        20.32207
501.70        20.59038
502.14        20.73994
502.58        20.74912
503.02        20.78322
503.46        20.84781
503.90        20.83625
504.34        20.76849
504.78        20.72885
505.22        20.73212
505.66        20.76509
506.10        20.81196
506.54        20.84402
506.98        20.85624
507.42        20.85876
507.86        20.88609
508.30        20.98936
508.74         21.1712
509.18        21.40797
509.62        21.64218
510.06        21.78106
510.50        21.80499
510.94        21.74881
511.38        21.66208
511.82        21.62401
512.26        21.65907
512.70        21.73879
513.14        21.85329
513.58         21.9851
514.02        22.10972
514.46        22.22665
514.90        22.30482
515.34        22.25906
515.78        22.05562
516.22         21.8746
516.66        21.78021
517.10        21.43276
517.54        20.84937
517.98         21.6208
518.42        21.41184
518.86        21.73264
519.30        21.86865
519.74        22.04381
520.18        22.20447
520.62        22.23611
521.06        22.15245
521.50        21.96356
521.93        21.74433
522.37        21.62941
522.81        21.64895
523.25        21.76407
523.69         21.9142
524.13        22.00363
524.57        22.00423
525.01        21.94472
525.45        21.85196
525.89         21.7696
526.32        21.71013
526.76        21.65765
527.20         21.6003
527.64        21.52964
528.08        21.44786
528.52          21.345
528.96        21.22256
529.40        21.13799
529.83        21.10787
530.27        20.90231
530.71        20.93158
531.15        20.85781
531.59        20.80495
532.03        20.76048
532.46        20.74823
532.90        20.80534
533.34        20.92122
533.78        21.07602
534.22        21.21397
534.66         21.2556
535.09        21.18249
535.53        21.02969
535.97        20.83921
536.41        20.68412
536.85        20.59174
537.28        20.54667
537.72        20.53939
538.16        20.55337
538.60        20.57992
539.04        20.60858
539.47         20.6401
539.91        20.72549
540.35        20.84249
540.79        20.90521
541.22        20.91559
541.66        20.96142
542.10        21.04598
542.54        21.11031
542.97        21.17902
543.41        21.32714
543.85        21.55409
544.29         21.8478
544.72        22.12912
545.16        22.28358
545.60        22.29128
546.04        22.18234
546.47         22.0743
546.91         22.1651
547.35        22.47968
547.79        22.95819
548.22        23.44497
548.66        23.67476
549.10        23.61112
549.53        23.38011
549.97         23.1351
550.41        23.05175
550.84        23.18781
551.28        23.49563
551.72        23.90763
552.15        24.29817
552.59         24.6097
553.03        24.87422
553.46        25.07805
553.90        25.22299
554.34        25.32254
554.77        25.34271
555.21        25.31798
555.65        25.38654
556.08        25.57766
556.52        25.54785
556.96        25.85615
557.39        25.95842
557.83        26.02823
558.27        26.06124
558.70        26.10292
559.14         26.2093
559.57        26.37614
560.01        26.58989
560.45        26.78524
560.88        26.85424
561.32        26.80137
561.75        26.67355
562.19        26.54731
562.63        26.45428
563.06         26.4369
563.50        26.57666
563.93        26.82436
564.37        27.02408
564.80        27.14115
565.24        27.26365
565.68        27.38097
566.11        27.45069
566.55        27.49736
566.98        27.52528
567.42        27.58476
567.85        27.74833
568.29        28.04358
568.72        28.36607
569.16         28.7129
569.60        29.15313
570.03        29.53742
570.47        29.60929
570.90        29.52986
571.34        29.08495
571.77        29.61969
572.21        29.77048
572.64        29.96435
573.08        29.50412
573.51        28.57239
573.95        29.81404
574.38        31.78633
574.82         30.9974
