SpectraSmart Spectrum 2.9.0.0
--------- Device Information -----------
Spectrum Name :  反射率_0
Saving Time :  2024/04/26 00:38:13
Spectro-Module Model Name : SE2030-DUVN
Spectro-Module Serial Number : OS361AC55029948
Wavelength Start : 200
Wavelength End : 1025
Wavelength Unit : Wavelength(nm)
Spectrum Unit : Reflectance(%)
-----------Spectrum Setting ------------
Integration Time : 20ms
Average : 10
Boxcar : 0
Background removal :  enabled
linearity correction :  enabled
SC :  disabled
Intensity correction :  disabled
DWT denoise :  enabled
savitzky-golay :  disabled
FFT :  disabled
Running average :  disabled
Kalman :  disabled
High pass :  disabled
---------------BEGIN--------------------
Wavelength(nm)             Reflectance(%)
200.29               0
200.75        80.13862
201.21        73.69586
201.67        66.87902
202.13        63.58949
202.58        64.16706
203.04        67.82343
203.50        72.68093
203.96        75.33254
204.42        74.91844
204.88        72.73157
205.34         70.3439
205.80        69.27061
206.26        69.88218
206.72        72.58373
207.18        77.75677
207.64        79.25688
208.10        70.47496
208.55        60.80095
209.01        56.11923
209.47        55.68847
209.93        57.83327
210.39        62.19449
210.85        67.08424
211.31        68.57124
211.77         65.5122
212.23        59.38057
212.69        53.66448
213.14        53.92785
213.60        60.82553
214.06        72.49245
214.52        85.07802
214.98        92.76611
215.44        93.96555
215.90         90.6493
216.36        84.92371
216.81        79.63435
217.27        76.19905
217.73        73.88127
218.19        71.84198
218.65        68.81985
219.11        64.08388
219.57        57.05386
220.02        48.66977
220.48        44.59895
220.94        47.55606
221.40        56.00849
221.86        63.52688
222.32        63.62416
222.77        57.33552
223.23        48.54943
223.69        41.43697
224.15        40.34564
224.61         44.7158
225.06        52.33949
225.52        60.04575
225.98        63.79205
226.44         62.8484
226.90        58.96289
227.36        54.26455
227.81        51.60359
228.27        51.91794
228.73        53.95858
229.19        56.74287
229.65        58.85926
230.10        59.83307
230.56        60.26349
231.02        60.39608
231.48         60.4553
231.93        60.51021
232.39        60.49259
232.85        60.39804
233.31        60.34574
233.77        60.32283
234.22        60.27674
234.68        60.16983
235.14        59.89241
235.60        59.43705
236.05        58.93682
236.51        58.29174
236.97        57.22827
237.43        55.67949
237.88        53.65371
238.34        51.54237
238.80        50.83194
239.26        52.24095
239.71        55.55816
240.17        59.58864
240.63        62.56489
241.08         63.8866
241.54         63.9221
242.00        63.09359
242.46        61.88474
242.91        60.37827
243.37        57.01604
243.83        50.36573
244.28        48.94396
244.74        83.19612
245.20        108.8794
245.66        111.0855
246.11        111.3656
246.57        113.0845
247.03        117.2983
247.48        115.9059
247.94        69.52492
248.40        59.91069
248.85        62.27204
249.31        65.45761
249.77        69.31155
250.22        74.63916
250.68        83.04807
251.14         94.7787
251.59        102.9473
252.05        100.3307
252.51        89.76315
252.96        77.33099
253.42        69.11189
253.88        64.80518
254.33        62.37668
254.79        62.48028
255.25        65.39771
255.70        69.96111
256.16           75.49
256.62        79.22263
257.07        78.37565
257.53        73.94494
257.99        67.12176
258.44        60.58366
258.90        58.20525
259.35        58.98603
259.81         61.1747
260.27        62.25283
260.72        59.84637
261.18        54.83591
261.63        48.45701
262.09        42.72908
262.55        39.33905
263.00         38.1735
263.46        38.35848
263.91        38.72517
264.37          38.285
264.83        36.88836
265.28        34.85704
265.74        32.87333
266.19        31.71164
266.65        31.57454
267.11        32.00514
267.56        32.44909
268.02        32.26527
268.47        31.35395
268.93        29.96064
269.38         28.3973
269.84        27.39939
270.30        27.15705
270.75        27.45777
271.21        27.92154
271.66        27.99172
272.12        27.52293
272.57        26.70349
273.03        25.83792
273.48        25.29992
273.94        25.19796
274.39        25.35241
274.85        25.55404
275.31        25.49886
275.76        25.11125
276.22        24.52945
276.67        23.88651
277.13        23.45458
277.58        23.24111
278.04        23.17857
278.49        23.11082
278.95        22.87357
279.40        22.41734
279.86        21.86868
280.31        21.29272
280.77        20.88569
281.22        20.64955
281.68        20.53715
282.13        20.49356
282.59        20.47404
283.04        20.44482
283.50        20.44202
283.95        20.39949
284.41        20.23351
284.86        19.93002
285.32        19.51964
285.77        19.11775
286.22        18.95704
286.68        19.04895
287.13        19.30669
287.59        19.53279
288.04        19.42755
288.50        18.96762
288.95        18.24859
289.41        17.49424
289.86         16.9418
290.32        16.69557
290.77        16.65652
291.22        16.74473
291.68        16.80431
292.13        16.79481
292.59        16.76304
293.04        16.76165
293.50         16.8713
293.95        17.09621
294.40        17.37741
294.86        17.64143
295.31        17.79272
295.77        17.81518
296.22        17.75011
296.68        17.64996
297.13        17.56952
297.58        17.55515
298.04        17.61069
298.49        17.75329
298.95        18.03704
299.40        18.45005
299.85        18.96549
300.31        19.51818
300.76        20.02007
301.21        20.42076
301.67        20.74929
302.12        20.97937
302.58        21.11728
303.03        21.16636
303.48        21.14039
303.94        21.13235
304.39        21.25751
304.84        21.53903
305.30         21.9357
305.75        22.33126
306.20        22.54684
306.66        22.56696
307.11        22.44888
307.57        22.30513
308.02         22.2443
308.47        22.32051
308.93        22.48412
309.38        22.71843
309.83        23.02435
310.29        23.36506
310.74        23.72741
311.19        24.03024
311.65        24.14975
312.10        24.06906
312.55        23.82883
313.00        23.50507
313.46        23.23669
313.91        23.06519
314.36        22.97182
314.82        22.95709
315.27        23.00804
315.72         23.1128
316.18        23.27152
316.63        23.44208
317.08          23.531
317.53        23.51193
317.99        23.39368
318.44        23.23356
318.89         23.1313
319.35        23.10612
319.80        23.13703
320.25        23.15577
320.70        23.05057
321.16        22.80275
321.61        22.45365
322.06        22.09048
322.51        21.84124
322.97        21.72741
323.42        21.71961
323.87        21.73666
324.32        21.64368
324.78        21.40845
325.23        21.07895
325.68        20.73409
326.13        20.50325
326.59        20.41731
327.04        20.44941
327.49        20.53731
327.94        20.58016
328.39        20.54624
328.85        20.45772
329.30        20.37454
329.75         20.3679
330.20        20.45874
330.66        20.60451
331.11        20.77626
331.56        20.88871
332.01        20.91556
332.46        20.86687
332.92        20.78262
333.37         20.7532
333.82        20.79835
334.27        20.90644
334.72         20.9976
335.17        20.93956
335.63        20.70707
336.08        20.34469
336.53        19.99113
336.98        19.86863
337.43        20.02162
337.88        20.38991
338.34        20.78324
338.79        20.93009
339.24        20.74129
339.69        20.29741
340.14        19.80085
340.59        19.60354
341.05         19.7814
341.50        20.21585
341.95        20.70469
342.40        20.95633
342.85        20.90382
343.30         20.6524
343.75        20.30517
344.20        20.04043
344.66        19.92238
345.11        19.86009
345.56        19.84979
346.01        19.88644
346.46        19.94506
346.91        20.04762
347.36        20.08627
347.81        19.87968
348.26        19.42657
348.72        18.82312
349.17        18.23344
349.62        18.01085
350.07        18.23304
350.52        18.77452
350.97        19.45974
351.42        20.01887
351.87        20.35668
352.32        20.53822
352.77        20.57333
353.22        20.48486
353.67        20.30107
354.13        20.01854
354.58        19.69378
355.03        19.45867
355.48        19.35008
355.93        19.36022
356.38        19.42554
356.83        19.42846
357.28        19.33656
357.73        19.17355
358.18        19.00606
358.63        18.93957
359.08        18.98955
359.53        19.11878
359.98        19.22449
360.43        19.15204
360.88        18.87861
361.33        18.45864
361.78         18.0258
362.23        17.79578
362.68        17.81211
363.13        17.99569
363.58        18.21801
364.03        18.27691
364.48        18.12265
364.93        17.83222
365.38        17.47278
365.83        17.15027
366.28        16.90987
366.73        16.71336
367.18        16.58748
367.63        16.57993
368.08        16.67987
368.53        16.87058
368.98        17.06099
369.43        17.10169
369.88        16.96792
370.33        16.71028
370.78        16.40794
371.23        16.20186
371.68        16.13833
372.13        16.16716
372.58         16.2803
373.03        16.45877
373.48        16.67014
373.93        16.91722
374.38        17.11174
374.83        17.11705
375.28        16.91862
375.72        16.54522
376.17        16.14482
376.62        15.92394
377.07         15.9358
377.52        16.11452
377.97        16.35752
378.42        16.49417
378.87         16.4732
379.32        16.35339
379.77        16.17947
380.22        16.01169
380.67        15.87405
381.11         15.7477
381.56        15.63343
382.01         15.5466
382.46         15.4883
382.91        15.45637
383.36        15.44667
383.81        15.44555
384.26        15.44359
384.71        15.44164
385.15        15.41168
385.60        15.32448
386.05        15.17215
386.50        14.95877
386.95        14.73541
387.40        14.59389
387.85        14.56051
388.29        14.61228
388.74        14.68237
389.19        14.66434
389.64        14.54239
390.09        14.33757
390.54        14.13846
390.98        14.09146
391.43        14.23038
391.88        14.49576
392.33        14.75058
392.78        14.79617
393.23        14.61253
393.67        14.26922
394.12        13.93261
394.57        13.78279
395.02        13.85458
395.47        14.08677
395.91        14.37565
396.36        14.51498
396.81        14.44668
397.26        14.22572
397.71         13.9557
398.15        13.77537
398.60        13.73775
399.05        13.79696
399.50        13.86579
399.95        13.78551
400.39        13.59621
400.84        13.29804
401.29        13.01323
401.74        12.93275
402.18         13.1115
402.63        13.46587
403.08         13.8597
403.53         14.0773
403.97        14.06254
404.42        13.88005
404.87        13.62217
405.32        13.45094
405.76         13.4151
406.21        13.46113
406.66        13.53982
407.11        13.58775
407.55         13.5893
408.00        13.56873
408.45        13.52759
408.90        13.45649
409.34        13.36425
409.79         13.2543
410.24        13.16564
410.68        13.15554
411.13         13.2329
411.58        13.38298
412.03         13.5573
412.47        13.66808
412.92        13.67735
413.37         13.6087
413.81        13.50711
414.26        13.45947
414.71        13.47824
415.15        13.54055
415.60        13.59233
416.05        13.56671
416.49        13.44866
416.94        13.27712
417.39        13.09133
417.83        12.95656
418.28        12.90189
418.73        12.89694
419.17        12.93455
419.62        12.99451
420.07        13.06578
420.51        13.15409
420.96        13.22042
421.41        13.19542
421.85         13.0687
422.30        12.88197
422.74        12.69339
423.19        12.61759
423.64        12.66069
424.08        12.79528
424.53        12.95554
424.98        13.05053
425.42         13.0544
425.87        12.99083
426.31        12.88182
426.76        12.80231
427.21        12.74902
427.65        12.61213
428.10        12.47598
428.54        12.55089
428.99        12.84755
429.44        13.28128
429.88        13.66236
430.33        13.73593
430.77        13.46802
431.22        12.94565
431.66         12.3987
432.11        12.22048
432.56        12.45419
433.00        12.92103
433.45        13.41113
433.89         13.7142
434.34         13.6972
434.78        13.31283
435.23        12.82338
435.67        12.70703
436.12        12.93596
436.57        13.03952
437.01        12.95093
437.46         12.8848
437.90        12.85657
438.35        12.81086
438.79        12.75589
439.24        12.73847
439.68        12.76929
440.13          12.776
440.57        12.77281
441.02        12.95786
441.46        13.22394
441.91        13.10865
442.35        12.69171
442.80         12.4759
443.24        12.44564
443.69        12.41605
444.13        12.33901
444.58        12.14412
445.02        11.88684
445.47         11.8317
445.91        11.94561
446.36        11.96017
446.80        11.85637
447.24        11.78973
447.69        11.77467
448.13        11.75153
448.58        11.72682
449.02        11.71441
449.47        11.70574
449.91        11.68648
450.36        11.65807
450.80        11.61808
451.25        11.59174
451.69        11.60874
452.13        11.67315
452.58        11.76187
453.02        11.84651
453.47        11.87592
453.91        11.84514
454.36        11.77918
454.80        11.69197
455.24        11.60871
455.69        11.55094
456.13        11.50302
456.58        11.50706
457.02        11.60719
457.46        11.80492
457.91        12.07528
458.35         12.3387
458.79        12.46018
459.24        12.42298
459.68        12.25635
460.13        12.06184
460.57        11.96322
461.01        12.00622
461.46        12.14568
461.90        12.31873
462.34        12.41376
462.79        12.40113
463.23        12.30936
463.68        12.20732
464.12        12.20703
464.56        12.33511
465.01        12.55577
465.45        12.75884
465.89        12.83133
466.34        12.76618
466.78        12.53577
467.22         12.2725
467.67        12.31184
468.11        12.62784
468.55        12.82822
468.99        12.85166
469.44        12.86267
469.88         12.8958
470.32         13.0049
470.77        13.14439
471.21        13.14625
471.65        12.99967
472.10         12.8419
472.54        12.72638
472.98        12.70082
473.42        12.78444
473.87        12.96385
474.31        13.18065
474.75        13.33447
475.20        13.40201
475.64        13.40257
476.08        13.37516
476.52         13.3818
476.97        13.44004
477.41        13.53354
477.85         13.6293
478.29        13.70284
478.74        13.74759
479.18        13.70393
479.62        13.61174
480.06        13.76226
480.50        13.87812
480.95        13.98973
481.39        13.97342
481.83        13.92859
482.27        13.85638
482.72        13.65092
483.16        13.40299
483.60        13.43562
484.04        13.76095
484.48        13.98019
484.93        14.23686
485.37        14.62944
485.81        15.05975
486.25        15.26245
486.69         20.0076
487.14        15.90542
487.58        10.54123
488.02        12.82062
488.46        14.66546
488.90        14.61078
489.34        14.81515
489.79        14.73692
490.23         15.5013
490.67        15.97607
491.11        15.93756
491.55        15.78826
491.99        15.52331
492.43        15.31141
492.88        15.23546
493.32        15.30121
493.76        15.39727
494.20        15.62859
494.64        15.93724
495.08        16.29173
495.52        16.65073
495.96        16.97333
496.41        17.19676
496.85        17.30474
497.29        17.31771
497.73        17.10498
498.17        16.88366
498.61        17.06867
499.05        17.64235
499.49        17.74439
499.93        17.79464
500.37        17.83266
500.82        17.83688
501.26        18.02632
501.70        18.31518
502.14        18.53641
502.58        18.63603
503.02        18.70726
503.46        18.74394
503.90         18.6696
504.34        18.53312
504.78        18.45922
505.22        18.47445
505.66        18.54985
506.10        18.65729
506.54         18.7462
506.98        18.80137
507.42        18.84247
507.86        18.89299
508.30        18.98695
508.74        19.12725
509.18        19.29088
509.62        19.45281
510.06        19.57555
510.50        19.64884
510.94        19.69211
511.38          19.706
511.82         19.6907
512.26        19.65426
512.70        19.59243
513.14        19.54722
513.58        19.58797
514.02        19.71353
514.46        19.89655
514.90        20.06276
515.34        20.05801
515.78        19.82983
516.22        19.58661
516.66        19.42274
517.10        19.03186
517.54        18.44621
517.98        19.29039
518.42         19.1407
518.86         19.5272
519.30        19.70498
519.74        19.90737
520.18        20.09327
520.62        20.16667
521.06        20.14327
521.50        20.02587
521.93        19.85922
522.37        19.73129
522.81        19.66847
523.25        19.65282
523.69        19.67335
524.13         19.7089
524.57        19.74666
525.01        19.79167
525.45        19.82972
525.89        19.83579
526.32        19.80208
526.76        19.73413
527.20        19.64113
527.64        19.54843
528.08        19.46861
528.52        19.37851
528.96         19.2785
529.40         19.2207
529.83        19.21839
530.27        19.06675
530.71        19.12632
531.15        19.06606
531.59        18.99598
532.03        18.90787
532.46        18.84951
532.90        18.89954
533.34        19.05556
533.78        19.28601
534.22        19.50017
534.66        19.56574
535.09        19.45579
535.53        19.22138
535.97        18.94579
536.41        18.76616
536.85        18.72368
537.28        18.78391
537.72        18.89367
538.16        18.96523
538.60        18.97433
539.04        18.93597
539.47        18.89469
539.91        18.96276
540.35        19.13204
540.79        19.29699
541.22        19.42125
541.66        19.52836
542.10        19.60578
542.54        19.61892
542.97        19.61114
543.41        19.68335
543.85        19.84785
544.29        20.08591
544.72        20.32322
545.16        20.45235
545.60        20.45355
546.04        20.35719
546.47         20.2709
546.91        20.37385
547.35        20.68591
547.79        21.14927
548.22        21.61459
548.66        21.82984
549.10        21.75944
549.53         21.5199
549.97        21.26032
550.41        21.15308
550.84        21.25605
551.28        21.52858
551.72        21.89996
552.15        22.23992
552.59        22.49292
553.03        22.69172
553.46        22.84929
553.90        22.99036
554.34        23.15004
554.77        23.27139
555.21        23.34316
555.65         23.4129
556.08        23.49499
556.52        23.30092
556.96        23.41211
557.39        23.44018
557.83        23.56209
558.27        23.73848
558.70        23.94182
559.14         24.1111
559.57        24.21776
560.01        24.29009
560.45        24.32336
560.88         24.3104
561.32        24.27874
561.75        24.21768
562.19        24.17249
562.63        24.17993
563.06        24.24384
563.50        24.35904
563.93         24.4987
564.37        24.62979
564.80        24.73175
565.24        24.82133
565.68        24.89548
566.11        24.95267
566.55         25.0147
566.98        25.07528
567.42        25.15885
567.85        25.29599
568.29        25.50208
568.72        25.69746
569.16        25.91844
569.60        26.22754
570.03        26.49415
570.47        26.59244
570.90         26.6527
571.34        25.98148
571.77         26.6015
572.21          26.582
572.64        26.58129
573.08        26.26323
573.51        25.52242
573.95        26.72519
574.38        28.43565
574.82        27.77479
