SpectraSmart Spectrum 2.9.0.0
--------- Device Information -----------
Spectrum Name :  反射率_0
Saving Time :  2024/04/25 23:58:20
Spectro-Module Model Name : SE2030-DUVN
Spectro-Module Serial Number : OS361AC55029948
Wavelength Start : 200
Wavelength End : 1025
Wavelength Unit : Wavelength(nm)
Spectrum Unit : Reflectance(%)
-----------Spectrum Setting ------------
Integration Time : 20ms
Average : 10
Boxcar : 0
Background removal :  enabled
linearity correction :  enabled
SC :  disabled
Intensity correction :  disabled
DWT denoise :  enabled
savitzky-golay :  disabled
FFT :  disabled
Running average :  disabled
Kalman :  disabled
High pass :  disabled
---------------BEGIN--------------------
Wavelength(nm)             Reflectance(%)
200.29               0
200.75        81.86984
201.21        79.95961
201.67        76.48501
202.13        72.54977
202.58        68.54075
203.04        64.42245
203.50        60.98762
203.96        59.91767
204.42        61.19897
204.88        63.85486
205.34        66.54077
205.80        67.96263
206.26        67.91621
206.72        66.29185
207.18        61.45381
207.64         53.8011
208.10        50.78447
208.55        52.56735
209.01        55.30571
209.47        58.17351
209.93        61.45524
210.39         65.9621
210.85        70.60786
211.31        72.32256
211.77        70.11836
212.23        64.94173
212.69        59.69147
213.14        59.08381
213.60        63.66053
214.06        72.18066
214.52        81.24136
214.98        85.62067
215.44        84.16861
215.90         78.6928
216.36         72.0258
216.81        68.05447
217.27         67.7883
217.73        69.75232
218.19        71.63015
218.65        70.38856
219.11        64.86132
219.57        54.30689
220.02        40.03581
220.48        30.70525
220.94        31.50647
221.40         40.6669
221.86        49.80666
222.32        49.90158
222.77        42.06456
223.23        31.25609
223.69        22.67563
224.15        21.63536
224.61        27.36386
225.06        36.93523
225.52        46.42906
225.98        50.83193
226.44        49.21941
226.90        43.81001
227.36        37.11047
227.81        32.46865
228.27        31.07283
228.73        31.65462
229.19        33.50656
229.65        35.59312
230.10        37.37643
230.56        39.08489
231.02        40.61401
231.48        41.78293
231.93        42.59576
232.39        43.04045
232.85        43.15998
233.31        43.11825
233.77        42.94003
234.22        42.56244
234.68        41.99195
235.14        41.20393
235.60        40.28339
236.05        39.40816
236.51        38.59929
236.97        37.71736
237.43        36.76134
237.88        35.81451
238.34        35.21609
238.80        35.87759
239.26        38.14711
239.71        41.74348
240.17        45.88664
240.63        49.65639
241.08        52.60036
241.54        54.64174
242.00        55.74665
242.46        55.98313
242.91        55.40393
243.37        52.93118
243.83        46.77045
244.28        39.99634
244.74        57.01308
245.20        78.91602
245.66        84.40426
246.11        86.71917
246.57        89.92287
247.03        96.75753
247.48        111.4011
247.94        93.37749
248.40        75.27648
248.85        70.81804
249.31        69.81054
249.77        69.77805
250.22          70.186
250.68        71.02486
251.14        72.07086
251.59        71.70827
252.05        69.36872
252.51        66.31563
252.96        63.30436
253.42        61.37883
253.88        60.04432
254.33        58.68968
254.79        58.58271
255.25        60.83248
255.70         64.7592
256.16        69.57447
256.62        72.70955
257.07        71.62667
257.53        67.30286
257.99        60.88804
258.44        55.11887
258.90        53.82048
259.35        55.82721
259.81        59.20831
260.27        61.21119
260.72        59.26682
261.18        54.33354
261.63         47.7949
262.09        41.86112
262.55        38.43157
263.00        37.39621
263.46        37.79059
263.91           38.33
264.37        37.90372
264.83        36.36242
265.28        34.06617
265.74        31.80279
266.19         30.5164
266.65        30.41248
267.11         30.9579
267.56        31.46028
268.02        31.09952
268.47        29.77418
268.93        27.80919
269.38         25.6386
269.84        24.23487
270.30        23.87518
270.75        24.26417
271.21        24.96772
271.66        25.34365
272.12        25.18673
272.57         24.7012
273.03        24.09196
273.48        23.58731
273.94        23.28635
274.39         23.0569
274.85         22.8392
275.31        22.56415
275.76        22.20176
276.22        21.81625
276.67        21.41971
277.13        21.09288
277.58        20.81241
278.04         20.5819
278.49        20.33384
278.95         20.0164
279.40        19.60159
279.86        19.15642
280.31        18.70169
280.77        18.36726
281.22        18.13909
281.68        17.99777
282.13        17.90055
282.59        17.80604
283.04        17.69955
283.50        17.62367
283.95        17.54269
284.41        17.41455
284.86        17.23366
285.32        17.00974
285.77        16.84112
286.22        16.93073
286.68         17.2683
287.13        17.76256
287.59         18.1912
288.04        18.22472
288.50        17.83739
288.95        17.14056
289.41        16.38309
289.86        15.84247
290.32        15.64064
290.77        15.67896
291.22        15.88103
291.68        16.09353
292.13         16.2734
292.59        16.46278
293.04        16.70918
293.50          17.081
293.95        17.57212
294.40        18.12185
294.86         18.6361
295.31        18.99243
295.77        19.17552
296.22        19.23443
296.68        19.25755
297.13        19.35939
297.58        19.59174
298.04        19.93023
298.49        20.35061
298.95        20.84565
299.40        21.38745
299.85        21.97471
300.31        22.55088
300.76         23.0409
301.21        23.41135
301.67        23.69448
302.12        23.90041
302.58        24.09372
303.03         24.2804
303.48        24.45863
303.94        24.67043
304.39        24.94686
304.84        25.29298
305.30        25.68911
305.75        26.05796
306.20        26.28798
306.66        26.37647
307.11         26.3496
307.57        26.28767
308.02        26.24646
308.47        26.27344
308.93        26.34522
309.38        26.46434
309.83        26.66253
310.29         26.9174
310.74        27.20506
311.19         27.4531
311.65        27.55026
312.10        27.47498
312.55        27.26407
313.00        26.96597
313.46        26.67349
313.91        26.41957
314.36        26.20136
314.82        26.04855
315.27        25.99085
315.72        26.02942
316.18        26.15149
316.63        26.30479
317.08        26.37863
317.53        26.33807
317.99        26.19573
318.44        26.00675
318.89        25.86641
319.35        25.79193
319.80         25.7631
320.25        25.71023
320.70        25.52254
321.16        25.18693
321.61        24.74873
322.06          24.305
322.51        23.99805
322.97        23.84657
323.42        23.80952
323.87         23.7952
324.32        23.65192
324.78        23.33972
325.23        22.91562
325.68        22.44287
326.13        22.02604
326.59        21.69973
327.04        21.45014
327.49        21.26784
327.94        21.13856
328.39         21.0517
328.85        21.00698
329.30        21.00827
329.75        21.02593
330.20        21.04538
330.66        21.04492
331.11        21.03149
331.56        20.97934
332.01        20.87959
332.46        20.72543
332.92        20.53024
333.37        20.34138
333.82        20.17409
334.27        20.04152
334.72        19.91575
335.17        19.74399
335.63        19.51977
336.08        19.25922
336.53        19.04576
336.98        19.01374
337.43        19.17772
337.88        19.49579
338.34        19.80082
338.79        19.86277
339.24        19.60889
339.69        19.10721
340.14        18.55314
340.59         18.2914
341.05        18.39699
341.50        18.75824
341.95        19.18547
342.40        19.39852
342.85        19.32894
343.30        19.07796
343.75        18.72076
344.20        18.39242
344.66        18.14996
345.11        17.91551
345.56        17.73364
346.01        17.66958
346.46        17.71349
346.91        17.87461
347.36        17.98695
347.81        17.77778
348.26        17.22673
348.72         16.4489
349.17        15.68906
349.62        15.43482
350.07        15.78349
350.52        16.55976
350.97        17.46711
351.42        18.05225
351.87        18.19056
352.32        18.01725
352.77        17.66419
353.22        17.34624
353.67        17.14296
354.13        16.98813
354.58        16.86237
355.03        16.77631
355.48        16.72384
355.93        16.73215
356.38        16.75837
356.83        16.71535
357.28        16.58426
357.73        16.37548
358.18        16.15352
358.63        16.02694
359.08        16.01657
359.53        16.09385
359.98        16.16983
360.43        16.10634
360.88        15.87969
361.33        15.53277
361.78        15.18092
362.23        15.01034
362.68         15.0543
363.13        15.24232
363.58        15.44483
364.03        15.46087
364.48        15.24625
364.93        14.87749
365.38        14.44868
365.83         14.1075
366.28        13.90932
366.73        13.81281
367.18        13.80342
367.63        13.85828
368.08        13.95006
368.53        14.07488
368.98        14.20006
369.43        14.27021
369.88        14.27234
370.33        14.22244
370.78        14.11579
371.23        13.95581
371.68        13.75709
372.13        13.51626
372.58        13.31215
373.03        13.27358
373.48        13.41779
373.93        13.70722
374.38        14.00357
374.83        14.09062
375.28        13.92561
375.72        13.56059
376.17        13.15557
376.62        12.93252
377.07        12.95093
377.52        13.13575
377.97        13.37675
378.42        13.49725
378.87        13.44913
379.32        13.29846
379.77        13.10952
380.22         12.9694
380.67        12.90281
381.11        12.87689
381.56        12.86765
382.01        12.84934
382.46        12.80955
382.91        12.75847
383.36        12.70123
383.81        12.64069
384.26        12.57997
384.71        12.52137
385.15        12.45137
385.60        12.35703
386.05        12.23531
386.50        12.08769
386.95        11.95372
387.40        11.90069
387.85        11.93873
388.29        12.04295
388.74        12.14755
389.19        12.15992
389.64         12.0688
390.09        11.89767
390.54        11.71781
390.98        11.64843
391.43        11.72347
391.88        11.89402
392.33        12.07138
392.78        12.12567
393.23        12.03898
393.67         11.8537
394.12        11.66728
394.57        11.57165
395.02        11.58784
395.47        11.68186
395.91        11.80626
396.36        11.86157
396.81        11.82034
397.26        11.70242
397.71        11.55844
398.15        11.44966
398.60         11.4085
399.05        11.41981
399.50        11.42448
399.95        11.30644
400.39        11.10458
400.84        10.81284
401.29         10.5433
401.74        10.47748
402.18        10.66426
402.63        11.02541
403.08        11.42304
403.53        11.63729
403.97        11.61131
404.42        11.41035
404.87        11.12916
405.32        10.93577
405.76        10.88377
406.21        10.92027
406.66        10.99657
407.11        11.04783
407.55        11.05788
408.00        11.05175
408.45        11.03461
408.90        11.00348
409.34        10.96172
409.79        10.90204
410.24        10.85113
410.68        10.85078
411.13        10.90891
411.58        11.02285
412.03         11.1441
412.47        11.18676
412.92        11.12373
413.37        10.97731
413.81         10.8278
414.26        10.81334
414.71        10.94741
415.15        11.18814
415.60        11.41577
416.05        11.45671
416.49        11.27372
416.94        10.94018
417.39        10.56002
417.83        10.31211
418.28        10.25939
418.73        10.33331
419.17        10.48918
419.62        10.64856
420.07         10.7816
420.51        10.91539
420.96        11.00422
421.41        10.96488
421.85        10.79174
422.30        10.52642
422.74        10.26192
423.19        10.15947
423.64        10.23344
424.08        10.44657
424.53        10.69824
424.98        10.82716
425.42        10.78637
425.87        10.62088
426.31        10.39947
426.76        10.26389
427.21        10.23245
427.65        10.19397
428.10        10.17734
428.54        10.28689
428.99        10.51324
429.44        10.80923
429.88        11.05711
430.33        11.09996
430.77        10.91995
431.22        10.56644
431.66        10.19284
432.11        10.07644
432.56        10.24253
433.00        10.55585
433.45        10.87246
433.89        11.07854
434.34        11.08301
434.78        10.82733
435.23        10.48849
435.67         10.4091
436.12        10.55808
436.57        10.56506
437.01        10.40275
437.46        10.28821
437.90        10.24732
438.35        10.22403
438.79        10.20737
439.24        10.21045
439.68        10.23194
440.13        10.21709
440.57        10.18891
441.02        10.32061
441.46        10.53015
441.91         10.4487
442.35        10.11525
442.80        9.900272
443.24        9.788305
443.69        9.644746
444.13        9.475734
444.58        9.303559
445.02        9.180174
445.47        9.280856
445.91        9.527505
446.36        9.619083
446.80        9.515456
447.24          9.3701
447.69        9.235126
448.13        9.126173
448.58        9.069252
449.02        9.055372
449.47        9.061621
449.91        9.051015
450.36        9.016478
450.80        8.967575
451.25        8.930593
451.69        8.934199
452.13         8.98391
452.58        9.054931
453.02        9.123504
453.47        9.145704
453.91        9.117501
454.36        9.059602
454.80        8.983001
455.24        8.909097
455.69        8.855409
456.13        8.808421
456.58        8.802896
457.02        8.875653
457.46        9.028774
457.91        9.243151
458.35        9.453557
458.79        9.545379
459.24        9.505898
459.68        9.358249
460.13        9.194768
460.57        9.128763
461.01        9.198467
461.46         9.35909
461.90        9.544565
462.34        9.635873
462.79        9.604805
463.23        9.482795
463.68        9.343649
464.12        9.307109
464.56        9.405317
465.01        9.596676
465.45        9.784406
465.89        9.862019
466.34        9.819081
466.78         9.64329
467.22        9.435412
467.67        9.451606
468.11        9.672287
468.55        9.794257
468.99        9.785458
469.44         9.79423
469.88         9.85063
470.32        9.991765
470.77         10.1585
471.21        10.18209
471.65        10.04516
472.10        9.867254
472.54        9.719589
472.98        9.691518
473.42        9.807563
473.87        10.03762
474.31        10.30335
474.75        10.47321
475.20        10.51737
475.64        10.46848
476.08        10.38416
476.52        10.35477
476.97        10.40419
477.41        10.50642
477.85        10.61748
478.29        10.68907
478.74        10.70864
479.18        10.64122
479.62        10.53126
480.06        10.62405
480.50        10.70931
480.95        10.80096
481.39        10.79873
481.83        10.77293
482.27        10.72547
482.72        10.58313
483.16        10.41037
483.60        10.46237
484.04        10.75074
484.48        10.93761
484.93        11.16816
485.37        11.61189
485.81        12.10639
486.25        12.44422
486.69        15.98627
487.14        12.63825
487.58        8.628263
488.02        10.59281
488.46         11.9727
488.90        11.98356
489.34        12.09439
489.79        12.08867
490.23        12.77361
490.67        13.23015
491.11        13.24971
491.55        13.15007
491.99        12.93287
492.43        12.76162
492.88        12.70846
493.32        12.75243
493.76        12.81297
494.20        13.01499
494.64        13.31531
495.08        13.67243
495.52         14.0441
495.96        14.38592
496.41        14.63941
496.85        14.79522
497.29        14.86056
497.73        14.70754
498.17        14.52251
498.61         14.6665
499.05        15.14536
499.49        15.25879
499.93        15.37406
500.37        15.51155
500.82         15.6226
501.26        15.85461
501.70        16.12311
502.14         16.2962
502.58        16.34727
503.02        16.39264
503.46        16.43634
503.90        16.39751
504.34        16.31304
504.78        16.28327
505.22        16.32725
505.66        16.42751
506.10         16.5466
506.54        16.61716
506.98        16.62511
507.42        16.59377
507.86        16.57788
508.30        16.66144
508.74        16.85551
509.18        17.12313
509.62        17.39942
510.06        17.57958
510.50         17.6364
510.94        17.60908
511.38        17.53587
511.82        17.47768
512.26        17.45838
512.70        17.45457
513.14        17.48068
513.58        17.56036
514.02        17.67998
514.46        17.83003
514.90        17.95546
515.34        17.92966
515.78        17.70711
516.22        17.48734
516.66        17.35766
517.10        16.99049
517.54        16.41109
517.98        17.28822
518.42        17.13143
518.86        17.49764
519.30        17.62551
519.74        17.76141
520.18        17.87759
520.62        17.89888
521.06          17.849
521.50        17.72434
521.93         17.5691
522.37         17.4693
522.81        17.44451
523.25        17.47318
523.69        17.52869
524.13         17.5666
524.57         17.5702
525.01        17.55204
525.45        17.51178
525.89        17.44862
526.32        17.36514
526.76        17.26316
527.20        17.15181
527.64        17.05389
528.08        16.97836
528.52        16.90399
528.96        16.82579
529.40         16.7803
529.83        16.77478
530.27        16.62955
530.71        16.65772
531.15         16.5691
531.59        16.46171
532.03        16.33253
532.46        16.22739
532.90        16.22361
533.34        16.32351
533.78        16.49819
534.22        16.67508
534.66        16.74752
535.09        16.68884
535.53        16.53728
535.97        16.34605
536.41        16.20465
536.85        16.14222
537.28        16.13721
537.72        16.16155
538.16        16.16888
538.60        16.14927
539.04        16.11128
539.47        16.08496
539.91        16.15189
540.35        16.30235
540.79         16.4513
541.22         16.5767
541.66        16.71106
542.10        16.84361
542.54        16.93581
542.97        17.00924
543.41        17.12868
543.85        17.30009
544.29        17.51676
544.72        17.72517
545.16        17.84941
545.60        17.87933
546.04        17.83608
546.47         17.8157
546.91        17.97811
547.35        18.33737
547.79        18.84099
548.22        19.34546
548.66        19.60763
549.10        19.59254
549.53        19.40846
549.97        19.19984
550.41        19.13823
550.84        19.28006
551.28        19.58429
551.72        19.98141
552.15        20.34483
552.59        20.61957
553.03        20.83583
553.46        21.00592
553.90        21.16363
554.34        21.32574
554.77        21.45661
555.21        21.54383
555.65          21.636
556.08         21.7476
556.52        21.61012
556.96        21.76217
557.39        21.84381
557.83        22.01611
558.27        22.23753
558.70        22.47647
559.14         22.6667
559.57        22.77883
560.01        22.84372
560.45         22.8559
560.88        22.80731
561.32        22.72989
561.75        22.61942
562.19        22.53485
562.63        22.53386
563.06        22.62386
563.50        22.79253
563.93        23.00049
564.37        23.19193
564.80        23.33918
565.24        23.46369
565.68        23.56638
566.11        23.65335
566.55        23.74793
566.98        23.83921
567.42         23.9523
567.85        24.12185
568.29        24.36458
568.72        24.59497
569.16        24.81992
569.60        25.15226
570.03        25.48116
570.47        25.51095
570.90        25.34581
571.34        25.12207
571.77        25.44285
572.21        25.52069
572.64        25.58494
573.08        25.34222
573.51        24.70062
573.95        25.84653
574.38        27.42538
574.82        26.99074
