SpectraSmart Spectrum 2.9.0.0
--------- Device Information -----------
Spectrum Name :  反射率_0
Saving Time :  2024/04/25 22:45:54
Spectro-Module Model Name : SE2030-DUVN
Spectro-Module Serial Number : OS361AC55029948
Wavelength Start : 200
Wavelength End : 1025
Wavelength Unit : Wavelength(nm)
Spectrum Unit : Reflectance(%)
-----------Spectrum Setting ------------
Integration Time : 20ms
Average : 10
Boxcar : 0
Background removal :  enabled
linearity correction :  enabled
SC :  disabled
Intensity correction :  disabled
DWT denoise :  enabled
savitzky-golay :  disabled
FFT :  disabled
Running average :  disabled
Kalman :  disabled
High pass :  disabled
---------------BEGIN--------------------
Wavelength(nm)             Reflectance(%)
200.29               0
200.75        101.7745
201.21        94.49297
201.67        84.95954
202.13        78.46459
202.58        75.87476
203.04        76.13256
203.50        77.35635
203.96        76.66165
204.42        73.80201
204.88        70.22458
205.34        67.63157
205.80        67.76862
206.26        71.52728
206.72        81.16125
207.18        101.1292
207.64        121.4173
208.10        114.7752
208.55        93.95731
209.01        79.59059
209.47        74.00025
209.93        73.46692
210.39        75.76523
210.85        78.82758
211.31        78.65916
211.77        74.22955
212.23        67.43451
212.69        61.35361
213.14        60.61016
213.60        65.82491
214.06        75.57719
214.52        86.87382
214.98        95.22035
215.44        99.05289
215.90        99.42075
216.36        97.78556
216.81        96.06283
217.27        95.26862
217.73        94.94452
218.19        94.04887
218.65        91.04601
219.11        85.22385
219.57        75.75693
220.02        64.29093
220.48        58.98365
220.94        63.98645
221.40         76.7277
221.86        88.30834
222.32        89.80302
222.77        82.39355
223.23        71.33316
223.69        61.82112
224.15        59.18023
224.61        62.94704
225.06        70.60983
225.52        78.61071
225.98        82.34281
226.44        81.05092
226.90        76.68401
227.36        72.03985
227.81        70.89835
228.27        74.17522
228.73        80.06457
229.19        86.39032
229.65        90.01319
230.10        90.30704
230.56         88.8699
231.02         86.9088
231.48        85.77768
231.93        85.64687
232.39        86.01288
232.85        86.60889
233.31         87.2141
233.77          87.665
234.22        88.13618
234.68         88.2878
235.14        87.47456
235.60        85.67394
236.05        83.18768
236.51        80.60125
236.97        78.64233
237.43        77.38635
237.88        76.63879
238.34        76.20659
238.80        76.09801
239.26        76.22854
239.71        77.00397
240.17        77.35666
240.63        76.00257
241.08         72.9436
241.54        68.57036
242.00        64.49374
242.46         62.7871
242.91        64.51672
243.37        71.76197
243.83        94.91232
244.28        160.3342
244.74        214.0259
245.20        160.2139
245.66        121.7977
246.11        109.4334
246.57        109.1109
247.03        120.0671
247.48        156.8617
247.94        137.8575
248.40        97.66669
248.85        85.47137
249.31        82.58303
249.77        83.75113
250.22        87.74649
250.68        95.03731
251.14        105.0075
251.59        109.9183
252.05        103.1202
252.51        88.83984
252.96        74.92184
253.42        68.20856
253.88        67.94334
254.33         71.6934
254.79        77.78438
255.25        83.24715
255.70        86.86237
256.16        89.56895
256.62        91.06438
257.07         90.9733
257.53        89.89751
257.99        87.61337
258.44        84.69038
258.90        82.87878
259.35        81.51668
259.81        80.49778
260.27        78.83495
260.72        75.51292
261.18        71.24151
261.63        66.35802
262.09        62.06697
262.55        59.03928
263.00         57.1913
263.46        56.28112
263.91        55.62544
264.37        54.86284
264.83        53.78021
265.28        52.40353
265.74        51.08133
266.19        50.02072
266.65        49.42172
267.11        49.09281
267.56         48.7392
268.02        48.04772
268.47        46.91379
268.93        45.48502
269.38         43.9796
269.84        42.98673
270.30        42.65038
270.75        42.80385
271.21        43.12268
271.66        43.11282
272.12        42.64264
272.57        41.85299
273.03        40.98685
273.48        40.31482
273.94        39.94585
274.39         39.7307
274.85        39.55583
275.31        39.22835
275.76        38.69313
276.22        38.06752
276.67        37.40574
277.13         36.9004
277.58        36.52091
278.04        36.24128
278.49        35.94179
278.95        35.54943
279.40        35.00294
279.86        34.41369
280.31        33.76134
280.77        33.15163
281.22        32.57035
281.68        32.03346
282.13        31.56799
282.59        31.27228
283.04        31.11867
283.50        31.10621
283.95        31.08041
284.41        30.84258
284.86        30.34767
285.32        29.67986
285.77        29.00576
286.22        28.64862
286.68        28.64106
287.13        28.84845
287.59        29.05117
288.04        28.90196
288.50        28.36872
288.95        27.55503
289.41        26.68141
289.86        25.95871
290.32        25.50381
290.77        25.22038
291.22        25.06943
291.68        24.95447
292.13        24.84415
292.59        24.77534
293.04        24.76331
293.50        24.83358
293.95        24.97143
294.40         25.1281
294.86         25.2639
295.31        25.33182
295.77        25.32355
296.22        25.26269
296.68        25.14873
297.13        24.95458
297.58        24.71522
298.04        24.46749
298.49        24.30223
298.95        24.38873
299.40        24.73494
299.85        25.27565
300.31        25.87571
300.76        26.33446
301.21        26.57335
301.67         26.6622
302.12        26.61824
302.58         26.5203
303.03        26.38536
303.48        26.20799
303.94         26.0574
304.39        26.01109
304.84        26.08638
305.30         26.2563
305.75        26.42884
306.20        26.46477
306.66         26.3553
307.11        26.13914
307.57        25.89723
308.02         25.6842
308.47        25.54709
308.93        25.45703
309.38        25.42799
309.83        25.51238
310.29        25.69019
310.74        25.93303
311.19        26.14387
311.65        26.17284
312.10         25.9913
312.55        25.64528
313.00        25.21566
313.46        24.85012
313.91        24.59293
314.36        24.42251
314.82        24.32943
315.27        24.28423
315.72         24.2758
316.18         24.3138
316.63        24.37733
317.08        24.40724
317.53         24.3846
317.99         24.3038
318.44        24.20531
318.89        24.16237
319.35        24.18222
319.80        24.25027
320.25        24.28933
320.70        24.17447
321.16        23.88855
321.61        23.47647
322.06        23.04945
322.51        22.77467
322.97        22.68039
323.42        22.72568
323.87         22.8066
324.32        22.74718
324.78        22.50112
325.23        22.12904
325.68        21.71952
326.13        21.41859
326.59        21.26615
327.04        21.23299
327.49        21.26413
327.94         21.2706
328.39        21.22473
328.85        21.14982
329.30        21.09938
329.75        21.12949
330.20        21.25275
330.66        21.42236
331.11         21.6135
331.56        21.75055
332.01        21.80697
332.46        21.78952
332.92        21.71756
333.37        21.64814
333.82        21.59785
334.27        21.57332
334.72        21.53657
335.17        21.42388
335.63        21.23041
336.08        20.98058
336.53         20.7856
336.98        20.82224
337.43        21.11375
337.88        21.60642
338.34         22.0996
338.79        22.30857
339.24        22.14189
339.69        21.67832
340.14        21.13578
340.59        20.89913
341.05        21.05743
341.50        21.48966
341.95        21.98601
342.40        22.23854
342.85        22.17829
343.30        21.91933
343.75        21.57161
344.20        21.32392
344.66        21.24021
345.11        21.21795
345.56        21.24976
346.01        21.32685
346.46        21.42193
346.91        21.56238
347.36        21.62342
347.81        21.39797
348.26        20.88412
348.72        20.18267
349.17        19.50267
349.62        19.27135
350.07        19.57628
350.52        20.26677
350.97        21.09892
351.42         21.6966
351.87        21.94731
352.32        21.95632
352.77        21.79837
353.22        21.59978
353.67        21.41636
354.13        21.20764
354.58        20.99502
355.03        20.85655
355.48        20.80442
355.93        20.84385
356.38        20.90547
356.83         20.8608
357.28        20.68262
357.73        20.40238
358.18        20.10466
358.63        19.92598
359.08        19.89583
359.53        19.97375
359.98        20.06606
360.43        20.02843
360.88        19.83147
361.33        19.52003
361.78        19.19755
362.23        19.03022
362.68        19.04967
363.13        19.19229
363.58        19.34695
364.03         19.3426
364.48        19.14182
364.93        18.81042
365.38         18.4285
365.83        18.12231
366.28        17.93518
366.73        17.82475
367.18        17.77803
367.63        17.77515
368.08        17.79444
368.53        17.84229
368.98        17.87671
369.43        17.82588
369.88        17.68241
370.33        17.47061
370.78         17.2384
371.23        17.07356
371.68        17.00385
372.13        16.99824
372.58        17.05215
373.03        17.15335
373.48        17.27818
373.93        17.42477
374.38        17.53007
374.83        17.49663
375.28        17.31536
375.72        17.00969
376.17        16.68796
376.62        16.48847
377.07          16.452
377.52        16.53372
377.97        16.68378
378.42        16.81648
378.87         16.8943
379.32        16.93987
379.77        16.94351
380.22        16.88982
380.67        16.78427
381.11        16.63017
381.56        16.45619
382.01        16.32372
382.46        16.24893
382.91        16.21593
383.36        16.20632
383.81        16.18354
384.26        16.13778
384.71          16.089
385.15        16.02304
385.60        15.92826
386.05          15.799
386.50        15.62429
386.95        15.45785
387.40        15.39502
387.85        15.44866
388.29        15.58766
388.74        15.71164
389.19        15.66668
389.64        15.44066
390.09        15.07746
390.54        14.71582
390.98         14.5908
391.43        14.75827
391.88        15.12203
392.33        15.51153
392.78         15.6769
393.23          15.576
393.67         15.2928
394.12        14.97725
394.57        14.78237
395.02        14.74576
395.47        14.81049
395.91        14.92162
396.36        14.96602
396.81        14.91197
397.26         14.7892
397.71         14.6432
398.15        14.51988
398.60        14.45463
399.05        14.43563
399.50        14.41385
399.95        14.28084
400.39        14.09119
400.84        13.82438
401.29        13.58972
401.74        13.55572
402.18        13.76695
402.63        14.14726
403.08        14.56257
403.53        14.80001
403.97        14.80352
404.42        14.63111
404.87        14.37575
405.32        14.20222
405.76        14.16142
406.21        14.20647
406.66        14.28083
407.11         14.3087
407.55        14.27494
408.00        14.20437
408.45        14.12567
408.90        14.07878
409.34        14.07642
409.79        14.09772
410.24        14.13055
410.68        14.16134
411.13        14.18833
411.58        14.22151
412.03        14.24685
412.47        14.24252
412.92        14.19793
413.37        14.11751
413.81         14.0428
414.26        14.05374
414.71        14.15184
415.15        14.31673
415.60         14.4635
416.05        14.47338
416.49        14.32233
416.94        14.06143
417.39        13.76832
417.83        13.57768
418.28        13.53726
418.73        13.59484
419.17        13.71343
419.62        13.82823
420.07        13.91506
420.51        13.99462
420.96        14.03513
421.41        13.97965
421.85        13.82406
422.30        13.60529
422.74        13.38657
423.19        13.29092
423.64        13.32671
424.08        13.47218
424.53        13.65258
424.98        13.75977
425.42        13.76468
425.87        13.69061
426.31        13.58621
426.76        13.57121
427.21        13.64733
427.65        13.68528
428.10         13.7136
428.54        13.86335
428.99        14.12656
429.44          14.438
429.88        14.67268
430.33        14.67931
430.77        14.44405
431.22         14.0206
431.66         13.5771
432.11         13.4383
432.56         13.6316
433.00        13.95297
433.45        14.24856
433.89          14.539
434.34        14.68058
434.78         14.3431
435.23        13.79194
435.67        13.70649
436.12        14.04778
436.57        14.20271
437.01        14.08983
437.46        13.99099
437.90        13.92701
438.35        13.82159
438.79        13.69695
439.24        13.62631
439.68        13.62611
440.13        13.61834
440.57        13.61054
441.02        13.79641
441.46        14.05946
441.91        13.91867
442.35        13.46381
442.80         13.2322
443.24        13.20854
443.69        13.18923
444.13        13.13263
444.58        12.97829
445.02        12.78045
445.47        12.81589
445.91        13.02125
446.36        13.05631
446.80        12.89412
447.24        12.72325
447.69        12.59891
448.13        12.52151
448.58        12.51271
449.02        12.56553
449.47        12.64315
449.91        12.68386
450.36        12.67355
450.80        12.62674
451.25        12.57478
451.69        12.55542
452.13        12.58153
452.58        12.62835
453.02        12.68202
453.47         12.7169
453.91        12.72967
454.36        12.73502
454.80        12.72895
455.24        12.70372
455.69        12.66877
456.13        12.61695
456.58        12.59172
457.02        12.63921
457.46        12.76779
457.91        12.95399
458.35        13.13908
458.79        13.22078
459.24         13.1904
459.68        13.07195
460.13        12.94275
460.57         12.8863
461.01         12.9394
461.46        13.06447
461.90         13.2256
462.34        13.35577
462.79        13.43131
463.23        13.46479
463.68        13.48131
464.12        13.52072
464.56        13.59434
465.01        13.69626
465.45        13.76512
465.89        13.75841
466.34        13.68313
466.78        13.48513
467.22        13.26862
467.67        13.33616
468.11        13.64402
468.55        13.78832
468.99        13.73569
469.44        13.71174
469.88        13.76518
470.32        13.93492
470.77        14.15217
471.21        14.20485
471.65        14.06835
472.10        13.89789
472.54        13.75818
472.98        13.70948
473.42        13.77667
473.87        13.94368
474.31        14.14287
474.75        14.26144
475.20         14.2756
475.64        14.21009
476.08        14.12109
476.52        14.09457
476.97        14.15246
477.41         14.2725
477.85        14.39893
478.29        14.47184
478.74        14.47705
479.18        14.36116
479.62        14.19381
480.06        14.32106
480.50        14.46103
480.95        14.62957
481.39        14.66649
481.83        14.63336
482.27        14.52231
482.72        14.22947
483.16        13.87883
483.60        13.86908
484.04        14.22735
484.48        14.46974
484.93         14.7364
485.37        15.19549
485.81         15.6525
486.25         15.6355
486.69         20.3859
487.14          15.856
487.58        10.68059
488.02        13.19933
488.46        14.69436
488.90        14.91918
489.34        15.33989
489.79        15.27075
490.23         15.7466
490.67        16.06704
491.11        16.06392
491.55        15.97312
491.99        15.75301
492.43         15.5251
492.88        15.35839
493.32        15.30776
493.76        15.28788
494.20        15.41966
494.64        15.65785
495.08         15.9715
495.52        16.31134
495.96        16.61845
496.41        16.82565
496.85        16.92431
497.29        16.93363
497.73        16.72385
498.17        16.50638
498.61        16.68226
499.05        17.23843
499.49        17.34475
499.93        17.41148
500.37         17.4737
500.82        17.49657
501.26        17.67328
501.70        17.91821
502.14        18.07842
502.58        18.11869
503.02        18.15771
503.46        18.19449
503.90        18.14001
504.34        18.03682
504.78        17.99812
505.22        18.04306
505.66        18.14967
506.10        18.26421
506.54        18.29399
506.98        18.22334
507.42        18.08744
507.86        17.97002
508.30        17.99855
508.74          18.193
509.18        18.50299
509.62        18.83952
510.06        19.05656
510.50        19.11448
510.94        19.06548
511.38        18.95962
511.82        18.87714
512.26        18.84859
512.70        18.84155
513.14        18.87113
513.58        18.96434
514.02        19.10452
514.46        19.28067
514.90        19.42677
515.34        19.39774
515.78        19.14704
516.22        18.88109
516.66        18.69694
517.10        18.29154
517.54        17.69728
517.98        18.54976
518.42        18.40477
518.86        18.80747
519.30        19.00374
519.74        19.23013
520.18        19.42752
520.62        19.47079
521.06        19.37521
521.50         19.1552
521.93        18.89212
522.37        18.73374
522.81        18.71857
523.25         18.8077
523.69        18.95318
524.13        19.07679
524.57        19.14862
525.01        19.18811
525.45        19.19687
525.89        19.17695
526.32        19.12985
526.76        19.05167
527.20        18.94631
527.64        18.83184
528.08        18.72085
528.52        18.59928
528.96        18.47289
529.40        18.39756
529.83        18.38661
530.27        18.23813
530.71         18.2977
531.15         18.2499
531.59        18.19805
532.03        18.13599
532.46        18.09379
532.90        18.12196
533.34        18.21724
533.78        18.35893
534.22        18.49325
534.66        18.54314
535.09        18.49001
535.53        18.36585
535.97        18.21346
536.41        18.10528
536.85        18.06552
537.28        18.07776
537.72        18.11941
538.16         18.1532
538.60        18.16835
539.04        18.16294
539.47        18.15891
539.91        18.23365
540.35        18.37237
540.79        18.48623
541.22        18.55559
541.66        18.62406
542.10        18.68633
542.54        18.70288
542.97        18.70592
543.41        18.77877
543.85        18.92863
544.29        19.14023
544.72        19.35078
545.16        19.46954
545.60        19.47963
546.04        19.40708
546.47         19.3402
546.91        19.42817
547.35        19.68771
547.79        20.07177
548.22        20.46198
548.66        20.65455
549.10        20.62244
549.53        20.46428
549.97        20.29515
550.41        20.23765
550.84         20.3356
551.28        20.55939
551.72        20.86438
552.15         21.1668
552.59        21.42316
553.03         21.6503
553.46        21.83245
553.90        21.96298
554.34        22.05136
554.77        22.07528
555.21        22.05223
555.65        22.08086
556.08         22.1859
556.52        22.07442
556.96        22.26566
557.39        22.34503
557.83        22.46749
558.27        22.61037
558.70        22.76106
559.14        22.88265
559.57        22.95739
560.01         23.0061
560.45        23.02462
560.88        23.00777
561.32        22.98081
561.75        22.93332
562.19        22.90596
562.63        22.92859
563.06        23.00218
563.50        23.12192
563.93        23.25834
564.37        23.37407
564.80        23.45121
565.24        23.51027
565.68        23.55653
566.11        23.60119
566.55        23.66721
566.98        23.74211
567.42        23.84768
567.85        24.01075
568.29         24.2431
568.72        24.46431
569.16          24.683
569.60        24.97658
570.03        25.22943
570.47        25.22587
570.90        25.09849
571.34        24.67671
571.77        25.09327
572.21        25.15232
572.64         25.2361
573.08        24.90036
573.51        24.25855
573.95        25.31257
574.38        26.80475
574.82        26.22597
