SpectraSmart Spectrum 2.9.0.0
--------- Device Information -----------
Spectrum Name :  反射率_0
Saving Time :  2024/04/26 00:47:41
Spectro-Module Model Name : SE2030-DUVN
Spectro-Module Serial Number : OS361AC55029948
Wavelength Start : 200
Wavelength End : 1025
Wavelength Unit : Wavelength(nm)
Spectrum Unit : Reflectance(%)
-----------Spectrum Setting ------------
Integration Time : 20ms
Average : 10
Boxcar : 0
Background removal :  enabled
linearity correction :  enabled
SC :  disabled
Intensity correction :  disabled
DWT denoise :  enabled
savitzky-golay :  disabled
FFT :  disabled
Running average :  disabled
Kalman :  disabled
High pass :  disabled
---------------BEGIN--------------------
Wavelength(nm)             Reflectance(%)
200.29               0
200.75        84.90999
201.21        79.82438
201.67        73.48499
202.13        68.12798
202.58        64.13399
203.04        61.37575
203.50        59.93335
203.96        59.99025
204.42        61.19709
204.88        63.07151
205.34        65.00216
205.80        66.57177
206.26        67.96143
206.72        69.71108
207.18        71.49788
207.64        69.75068
208.10        62.85905
208.55        56.51928
209.01        53.59682
209.47        53.24613
209.93        54.28703
210.39        56.86753
210.85        59.25015
211.31        57.68884
211.77        51.59835
212.23        42.49786
212.69          34.464
213.14        33.93264
213.60         41.6581
214.06        55.62147
214.52        71.14919
214.98        81.00869
215.44        83.15459
215.90        79.84155
216.36        73.54913
216.81        67.73617
217.27         63.9819
217.73        61.38535
218.19        58.94971
218.65         55.1759
219.11        49.16549
219.57        40.19296
220.02        29.27914
220.48        23.16316
220.94         25.4101
221.40        34.50247
221.86        43.03577
222.32          43.333
222.77          36.494
223.23        26.73083
223.69        18.87816
224.15        17.91259
224.61        23.16707
225.06          32.099
225.52        40.93966
225.98        44.86563
226.44        43.05898
226.90        37.63271
227.36        31.28217
227.81        27.65494
228.27        27.82818
228.73        30.29033
229.19        33.71895
229.65        36.20657
230.10        37.17495
230.56        37.32193
231.02        37.08977
231.48        36.86176
231.93        36.75994
232.39        36.65478
232.85        36.42637
233.31        36.00079
233.77        35.34814
234.22        34.42206
234.68        33.58096
235.14        33.38328
235.60        33.95773
236.05         35.2277
236.51        36.41889
236.97        36.32716
237.43        34.70993
237.88        31.67406
238.34        28.25739
238.80        27.47144
239.26        30.79709
239.71        37.58401
240.17        45.72442
240.63        51.65675
241.08        54.12375
241.54        53.89813
242.00        52.04861
242.46        50.01076
242.91        48.11547
243.37        44.66168
243.83        38.28032
244.28        37.08001
244.74        70.80746
245.20        97.08628
245.66        99.94849
246.11        100.8192
246.57        103.6294
247.03        110.4257
247.48         120.115
247.94         84.7373
248.40        67.17406
248.85        65.03503
249.31        66.08456
249.77        68.75781
250.22        73.14219
250.68        80.45533
251.14        90.27901
251.59        95.09177
252.05        88.52558
252.51        74.45555
252.96        60.42583
253.42        53.03471
253.88        51.51649
254.33        53.52344
254.79        57.81062
255.25        62.05463
255.70        65.19529
256.16        67.90166
256.62        69.29141
257.07        68.41558
257.53        65.90967
257.99         61.9263
258.44        57.88065
258.90        56.24559
259.35        56.22374
259.81        56.93831
260.27        56.65951
260.72        53.70687
261.18        48.84136
261.63        42.93006
262.09        37.67327
262.55        34.45921
263.00        33.19046
263.46        33.16425
263.91        33.32313
264.37        32.72796
264.83        31.25602
265.28        29.18543
265.74        27.22766
266.19        26.23632
266.65         26.3591
267.11        27.08132
267.56        27.76269
268.02         27.6433
268.47        26.63247
268.93        25.02111
269.38        23.16077
269.84        21.87083
270.30        21.39396
270.75        21.50735
271.21        21.87183
271.66        21.98971
272.12        21.69989
272.57        21.16312
273.03        20.59205
273.48        20.22276
273.94        20.13292
274.39        20.19986
274.85        20.25629
275.31         20.0761
275.76        19.61732
276.22        18.98571
276.67        18.35804
277.13        18.05493
277.58        18.07823
278.04        18.32995
278.49        18.55938
278.95        18.45337
279.40        17.95252
279.86        17.22198
280.31        16.44082
280.77        15.96824
281.22        15.83865
281.68        15.94194
282.13        16.12385
282.59        16.18375
283.04        16.07563
283.50         15.8986
283.95         15.6859
284.41        15.49159
284.86        15.33505
285.32        15.18771
285.77        15.10326
286.22        15.21991
286.68        15.51557
287.13        15.93032
287.59        16.28022
288.04        16.29146
288.50        15.94865
288.95        15.34407
289.41        14.69581
289.86        14.24194
290.32        14.09113
290.77         14.1555
291.22        14.37628
291.68        14.62705
292.13        14.86961
292.59        15.13479
293.04        15.44496
293.50        15.83105
293.95        16.28011
294.40        16.74277
294.86         17.1596
295.31        17.46024
295.77        17.64198
296.22        17.74538
296.68        17.81911
297.13        17.91227
297.58        18.06586
298.04        18.27591
298.49        18.57763
298.95        19.05389
299.40           19.69
299.85        20.44953
300.31        21.20243
300.76        21.75856
301.21        22.05963
301.67        22.17887
302.12        22.19054
302.58         22.2504
303.03        22.38722
303.48        22.56603
303.94         22.7974
304.39        23.06658
304.84        23.36631
305.30        23.69991
305.75         23.9993
306.20        24.16265
306.66         24.1931
307.11        24.11012
307.57        24.00784
308.02         23.9686
308.47        24.03828
308.93        24.18616
309.38        24.38061
309.83        24.59665
310.29        24.80324
310.74         24.9966
311.19        25.14787
311.65        25.21375
312.10        25.18835
312.55        25.08705
313.00        24.92167
313.46        24.72313
313.91         24.5055
314.36        24.28412
314.82        24.11366
315.27        24.06388
315.72        24.14572
316.18        24.33241
316.63        24.55423
317.08        24.67377
317.53        24.64902
317.99        24.50359
318.44        24.30758
318.89        24.17767
319.35        24.13807
319.80        24.16145
320.25        24.16721
320.70        24.02682
321.16        23.71926
321.61        23.29168
322.06        22.85158
322.51        22.55679
322.97        22.43136
323.42        22.43436
323.87        22.45569
324.32        22.31292
324.78        21.96198
325.23        21.46703
325.68        20.93549
326.13        20.54197
326.59        20.33483
327.04         20.2822
327.49        20.30939
327.94        20.29148
328.39        20.19104
328.85        20.03799
329.30        19.91173
329.75          19.916
330.20        20.07202
330.66        20.31557
331.11        20.57913
331.56        20.72046
332.01        20.69568
332.46        20.52804
332.92        20.27605
333.37          20.069
333.82        19.94863
334.27        19.89816
334.72        19.85056
335.17        19.69012
335.63        19.39575
336.08        19.01687
336.53        18.67029
336.98        18.53562
337.43        18.64701
337.88        18.95134
338.34        19.28218
338.79        19.41107
339.24        19.25686
339.69        18.88045
340.14        18.45682
340.59        18.29241
341.05        18.44767
341.50        18.82035
341.95        19.22074
342.40        19.37323
342.85        19.21852
343.30        18.85742
343.75         18.4051
344.20        18.06343
344.66        17.90186
345.11        17.82509
345.56        17.81309
346.01        17.83134
346.46        17.84937
346.91        17.90219
347.36        17.88841
347.81        17.63757
348.26        17.15342
348.72        16.52389
349.17        15.92751
349.62        15.74305
350.07        16.04539
350.52        16.69748
350.97        17.48199
351.42        18.06506
351.87        18.34271
352.32        18.40371
352.77        18.30178
353.22        18.13073
353.67        17.93806
354.13        17.69663
354.58        17.43985
355.03        17.26207
355.48        17.18325
355.93          17.204
356.38        17.25726
356.83        17.21939
357.28        17.06078
357.73        16.80945
358.18        16.54382
358.63         16.3881
359.08        16.37095
359.53        16.46196
359.98        16.56354
360.43        16.52602
360.88        16.32321
361.33        15.99724
361.78        15.68247
362.23        15.59555
362.68        15.76705
363.13        16.10896
363.58        16.44644
364.03        16.51047
364.48        16.24484
364.93        15.74956
365.38        15.16319
365.83        14.70659
366.28        14.45787
366.73        14.35602
367.18        14.36684
367.63        14.43229
368.08        14.51305
368.53        14.62122
368.98        14.72495
369.43        14.76659
369.88         14.7369
370.33        14.65092
370.78        14.51845
371.23        14.36953
371.68        14.22411
372.13        14.07096
372.58        13.97097
373.03        14.02115
373.48        14.22499
373.93        14.54803
374.38        14.85948
374.83        14.95766
375.28        14.80465
375.72        14.44955
376.17        14.04519
376.62        13.80258
377.07         13.7826
377.52        13.91858
377.97        14.11837
378.42        14.23187
378.87        14.21397
379.32        14.11791
379.77        13.98917
380.22        13.88804
380.67        13.83193
381.11         13.7963
381.56        13.76033
382.01        13.70449
382.46        13.62172
382.91        13.52075
383.36        13.41768
383.81        13.33293
384.26         13.2729
384.71        13.23667
385.15        13.19439
385.60         13.1088
386.05        12.96991
386.50        12.78245
386.95        12.60208
387.40        12.52469
387.85        12.56741
388.29        12.69792
388.74        12.82714
389.19        12.82907
389.64        12.69083
390.09        12.44741
390.54        12.20395
390.98        12.13635
391.43        12.28713
391.88        12.58205
392.33        12.88837
392.78        13.01291
393.23         12.9257
393.67         12.6921
394.12        12.43931
394.57        12.29711
395.02        12.29709
395.47        12.39412
395.91        12.53323
396.36        12.60141
396.81        12.56615
397.26        12.45279
397.71          12.316
398.15        12.22008
398.60        12.19808
399.05        12.23181
399.50        12.25553
399.95        12.14327
400.39        11.93721
400.84        11.63064
401.29        11.34617
401.74        11.28232
402.18        11.49128
402.63        11.88785
403.08        12.32074
403.53        12.54918
403.97        12.51199
404.42        12.28227
404.87        11.96367
405.32        11.73949
405.76        11.67001
406.21        11.69841
406.66        11.77667
407.11        11.84175
407.55        11.87563
408.00        11.90204
408.45        11.91795
408.90        11.90292
409.34        11.85562
409.79        11.77578
410.24        11.69707
410.68        11.67166
411.13         11.7113
411.58        11.80858
412.03        11.92284
412.47        11.98193
412.92        11.95754
413.37        11.86723
413.81         11.7688
414.26        11.76553
414.71        11.86663
415.15        12.04364
415.60        12.20065
416.05         12.2039
416.49        12.02631
416.94        11.72551
417.39        11.39634
417.83        11.20057
418.28        11.19099
418.73        11.30591
419.17        11.48345
419.62        11.62076
420.07        11.68736
420.51        11.71479
420.96        11.69707
421.41        11.61964
421.85        11.49017
422.30        11.33042
422.74        11.17899
423.19        11.12181
423.64        11.16085
424.08        11.28048
424.53        11.42962
424.98        11.53863
425.42        11.58461
425.87        11.57876
426.31        11.53114
426.76         11.4977
427.21        11.47263
427.65        11.36456
428.10        11.24396
428.54        11.29186
428.99        11.52084
429.44        11.85557
429.88        12.15719
430.33         12.2424
430.77        12.08163
431.22        11.73374
431.66        11.35567
432.11        11.23332
432.56        11.39398
433.00        11.69231
433.45        11.98362
433.89        12.18129
434.34        12.19554
434.78        11.93394
435.23        11.59689
435.67        11.58729
436.12        11.87072
436.57        12.02367
437.01        11.96976
437.46        11.88876
437.90        11.79666
438.35        11.64769
438.79        11.48409
439.24        11.40479
439.68        11.43054
440.13        11.48101
440.57        11.54209
441.02        11.74608
441.46        11.98381
441.91        11.85429
442.35         11.4413
442.80        11.21493
443.24        11.16463
443.69        11.11564
444.13        11.03522
444.58        10.88085
445.02        10.70014
445.47        10.72492
445.91        10.89857
446.36        10.93068
446.80        10.79439
447.24        10.64563
447.69        10.53172
448.13        10.45303
448.58        10.42965
449.02        10.46007
449.47        10.50677
449.91        10.50705
450.36        10.45203
450.80        10.35811
451.25        10.27909
451.69         10.2884
452.13        10.39832
452.58        10.56591
453.02        10.73912
453.47        10.83276
453.91        10.82988
454.36        10.76281
454.80        10.65195
455.24        10.53444
455.69        10.43827
456.13        10.34854
456.58        10.30536
457.02         10.3504
457.46        10.48868
457.91        10.70259
458.35        10.92787
458.79        11.05014
459.24        11.05327
459.68        10.95462
460.13         10.8383
460.57        10.80451
461.01        10.88809
461.46        11.04669
461.90        11.21714
462.34        11.28742
462.79        11.23231
463.23        11.08406
463.68        10.91934
464.12        10.86456
464.56        10.95431
465.01        11.14773
465.45        11.34465
465.89        11.43882
466.34        11.41791
466.78        11.25821
467.22        11.06005
467.67        11.09648
468.11        11.33966
468.55        11.44571
468.99        11.39098
469.44        11.37121
469.88        11.42857
470.32        11.59614
470.77        11.81277
471.21        11.89322
471.65        11.81152
472.10        11.69937
472.54        11.60824
472.98        11.58714
473.42        11.65838
473.87        11.81057
474.31        11.99087
474.75        12.10883
475.20        12.14688
475.64        12.12378
476.08        12.09086
476.52        12.12776
476.97        12.25024
477.41        12.43413
477.85        12.61824
478.29        12.72891
478.74        12.75001
479.18        12.64453
479.62         12.4801
480.06        12.57183
480.50        12.67845
480.95        12.81059
481.39        12.84568
481.83        12.86098
482.27        12.85217
482.72        12.72704
483.16        12.55122
483.60        12.61297
484.04        12.92924
484.48        13.08598
484.93        13.24701
485.37        13.67541
485.81        14.23694
486.25         14.3633
486.69        18.66248
487.14        14.85896
487.58        9.905854
488.02        12.22953
488.46        13.90049
488.90        13.89816
489.34        13.87294
489.79        13.86852
490.23        14.81205
490.67        15.38318
491.11        15.32865
491.55        15.13315
491.99        14.83072
492.43        14.62405
492.88        14.60446
493.32        14.73698
493.76        14.88763
494.20        15.13797
494.64        15.42333
495.08        15.71662
495.52        16.00546
495.96        16.29546
496.41        16.53851
496.85        16.70978
497.29        16.80266
497.73         16.6478
498.17        16.44632
498.61        16.61303
499.05        17.16214
499.49        17.31095
499.93        17.47455
500.37        17.66753
500.82        17.81653
501.26        18.06397
501.70        18.31142
502.14         18.4203
502.58        18.38598
503.02        18.37833
503.46        18.41264
503.90        18.38803
504.34        18.33077
504.78        18.32862
505.22        18.39289
505.66        18.50814
506.10        18.63565
506.54        18.70554
506.98        18.70408
507.42        18.65579
507.86        18.61577
508.30        18.66989
508.74        18.83207
509.18        19.06642
509.62        19.31957
510.06        19.50386
510.50        19.59472
510.94        19.62712
511.38        19.62013
511.82        19.60377
512.26        19.59489
512.70        19.57695
513.14        19.58422
513.58        19.67493
514.02        19.84162
514.46        20.06022
514.90        20.25343
515.34        20.26185
515.78        20.03289
516.22         19.7747
516.66        19.58698
517.10        19.17481
517.54        18.57322
517.98        19.40241
518.42        19.23973
518.86        19.60703
519.30        19.76063
519.74        19.94009
520.18        20.10514
520.62        20.16006
521.06        20.12215
521.50        19.99162
521.93        19.82402
522.37        19.72528
522.81        19.72008
523.25        19.78083
523.69        19.86938
524.13         19.9238
524.57        19.92417
525.01        19.88919
525.45        19.83076
525.89        19.76742
526.32        19.70514
526.76        19.63812
527.20        19.56271
527.64        19.48219
528.08        19.40241
528.52        19.30925
528.96        19.20555
529.40        19.14626
529.83        19.14484
530.27        18.99101
530.71        19.04744
531.15        18.99169
531.59        18.93357
532.03        18.86546
532.46        18.82034
532.90        18.85246
533.34        18.95757
533.78        19.11267
534.22        19.25592
534.66        19.29833
535.09        19.21877
535.53        19.05324
535.97        18.85233
536.41        18.70057
536.85        18.62826
537.28        18.62054
537.72        18.65125
538.16        18.67669
538.60         18.6855
539.04        18.67599
539.47        18.68248
539.91        18.80245
540.35           19.02
540.79        19.23478
541.22        19.39876
541.66        19.51609
542.10        19.57362
542.54        19.54342
542.97         19.4887
543.41        19.54303
543.85         19.7265
544.29        20.01044
544.72        20.30809
545.16        20.49127
545.60        20.53293
546.04        20.47013
546.47        20.41045
546.91        20.53271
547.35        20.85903
547.79        21.33132
548.22        21.80773
548.66        22.04904
549.10        22.02165
549.53         21.8379
549.97        21.63893
550.41        21.58436
550.84          21.727
551.28        22.02721
551.72        22.41552
552.15        22.76488
552.59        23.02157
553.03        23.21757
553.46        23.36233
553.90        23.48569
554.34        23.60312
554.77        23.68151
555.21        23.72172
555.65        23.76865
556.08        23.89203
556.52        23.75099
556.96        23.92472
557.39        23.97216
557.83        24.06733
558.27        24.18244
558.70        24.32348
559.14        24.48487
559.57        24.64712
560.01        24.81816
560.45        24.95643
560.88        24.99439
561.32        24.94782
561.75        24.83766
562.19        24.73479
562.63         24.6943
563.06        24.73973
563.50        24.89207
563.93        25.10956
564.37        25.29858
564.80        25.42752
565.24        25.54674
565.68        25.64087
566.11         25.6768
566.55         25.6791
566.98        25.65206
567.42        25.65307
567.85        25.76855
568.29        26.02548
568.72        26.31209
569.16        26.61226
569.60        27.00857
570.03        27.36862
570.47        27.40114
570.90        27.22136
571.34        26.94233
571.77        27.18679
572.21        27.28147
572.64        27.23976
573.08        26.89336
573.51        26.25478
573.95        27.47789
574.38        29.20206
574.82        28.31085
