SpectraSmart Spectrum 2.9.0.0
--------- Device Information -----------
Spectrum Name :  反射率_0
Saving Time :  2024/04/25 23:02:34
Spectro-Module Model Name : SE2030-DUVN
Spectro-Module Serial Number : OS361AC55029948
Wavelength Start : 200
Wavelength End : 1025
Wavelength Unit : Wavelength(nm)
Spectrum Unit : Reflectance(%)
-----------Spectrum Setting ------------
Integration Time : 20ms
Average : 10
Boxcar : 0
Background removal :  enabled
linearity correction :  enabled
SC :  disabled
Intensity correction :  disabled
DWT denoise :  enabled
savitzky-golay :  disabled
FFT :  disabled
Running average :  disabled
Kalman :  disabled
High pass :  disabled
---------------BEGIN--------------------
Wavelength(nm)             Reflectance(%)
200.29               0
200.75        85.16953
201.21        77.11636
201.67        67.76847
202.13        62.03842
202.58         60.5455
203.04        62.15534
203.50        65.48103
203.96        68.04439
204.42        68.92583
204.88         68.9494
205.34        68.82359
205.80        69.32799
206.26        71.00004
206.72        74.69855
207.18         81.7167
207.64        87.78815
208.10        83.58119
208.55        74.69501
209.01        69.47036
209.47         68.8799
209.93        71.23988
210.39         75.9551
210.85        80.62439
211.31        79.98023
211.77        72.73273
212.23          61.005
212.69        49.61728
213.14        45.96587
213.60        51.16847
214.06        63.22956
214.52         77.1943
214.98        85.26511
215.44        85.49984
215.90        80.47613
216.36        73.55458
216.81        69.40212
217.27        69.30749
217.73        71.43537
218.19        73.71184
218.65        73.57451
219.11        70.14914
219.57        63.24298
220.02        54.01169
220.48        48.95729
220.94        51.44281
221.40        59.58653
221.86        66.94143
222.32        66.96968
222.77        60.59222
223.23        51.81849
223.69        44.54689
224.15        42.76478
224.61        45.97736
225.06         52.1355
225.52        58.38051
225.98        61.18098
226.44        59.90427
226.90        56.12217
227.36        51.73404
227.81        49.23572
228.27        49.51007
228.73        51.49492
229.19        54.30428
229.65        56.64389
230.10        58.04163
230.56        58.94313
231.02        59.63752
231.48        60.46401
231.93        61.43533
232.39        62.39172
232.85        63.11904
233.31        63.39362
233.77        63.13294
234.22        62.42001
234.68        61.31636
235.14        59.97324
235.60         58.5913
236.05        57.29906
236.51        56.14684
236.97         55.0357
237.43        53.89706
237.88        52.75884
238.34        51.80326
238.80         51.7825
239.26        53.00734
239.71        55.42413
240.17        58.04641
240.63        59.64058
241.08         59.8947
241.54        59.00875
242.00        57.69705
242.46        56.91369
242.91        57.09646
243.37        58.33444
243.83        63.59614
244.28        85.11506
244.74        117.0247
245.20        110.1509
245.66        98.61309
246.11        95.00653
246.57        96.45315
247.03        103.6893
247.48        125.7251
247.94        116.1223
248.40        92.72216
248.85        85.34241
249.31        83.43047
249.77        83.59836
250.22        85.03137
250.68         87.7297
251.14        91.19898
251.59        91.79448
252.05        87.14371
252.51        79.74756
252.96        72.81877
253.42        69.25746
253.88        68.37761
254.33         68.9652
254.79        71.14867
255.25        74.45163
255.70        77.96658
256.16        81.55695
256.62        83.60614
257.07        82.47295
257.53        79.03468
257.99        73.96355
258.44        69.02952
258.90        67.14179
259.35        67.38296
259.81        68.59263
260.27        68.92082
260.72        66.61205
261.18        62.40992
261.63        57.10642
262.09        52.24046
262.55        48.90574
263.00         47.0703
263.46        46.28447
263.91         45.7275
264.37        44.80872
264.83        43.35182
265.28        41.49457
265.74        39.75336
266.19        38.63507
266.65        38.31976
267.11        38.46992
267.56        38.61427
268.02         38.2121
268.47         37.1627
268.93        35.67792
269.38        34.05761
269.84        33.03045
270.30         32.7838
270.75        33.10789
271.21        33.62318
271.66        33.76491
272.12        33.38069
272.57        32.64655
273.03        31.84545
273.48        31.31442
273.94        31.16485
274.39        31.22767
274.85        31.32649
275.31         31.1977
275.76        30.77097
276.22        30.17088
276.67        29.51657
277.13        29.07286
277.58        28.83326
278.04        28.74639
278.49        28.62691
278.95        28.28572
279.40        27.66957
279.86        26.92346
280.31        26.15689
280.77        25.64744
281.22        25.40157
281.68        25.34963
282.13        25.37582
282.59        25.35953
283.04        25.25074
283.50        25.12403
283.95        24.95154
284.41        24.71605
284.86        24.41675
285.32        24.06087
285.77        23.74297
286.22         23.6741
286.68        23.85085
287.13        24.18192
287.59        24.46053
288.04        24.36374
288.50         23.8717
288.95        23.08703
289.41        22.24771
289.86         21.6026
290.32        21.27402
290.77        21.16672
291.22        21.22378
291.68        21.31878
292.13        21.41401
292.59        21.54987
293.04        21.75672
293.50        22.08009
293.95        22.50727
294.40        22.98101
294.86        23.43427
295.31        23.78384
295.77        24.01779
296.22        24.17109
296.68        24.28428
297.13        24.39363
297.58        24.54213
298.04        24.74238
298.49        25.03097
298.95        25.49739
299.40        26.13441
299.85        26.90351
300.31        27.71535
300.76         28.4385
301.21        29.00913
301.67        29.47269
302.12        29.81094
302.58        30.06046
303.03        30.22741
303.48        30.32409
303.94        30.44394
304.39        30.69464
304.84        31.09868
305.30        31.61396
305.75        32.11699
306.20        32.42655
306.66        32.52257
307.11        32.44861
307.57        32.31627
308.02        32.21629
308.47        32.21155
308.93         32.2714
309.38        32.38127
309.83        32.55165
310.29        32.76123
310.74        32.99706
311.19        33.21643
311.65        33.34968
312.10        33.37856
312.55        33.32273
313.00        33.19431
313.46        33.02747
313.91        32.83587
314.36        32.63159
314.82        32.46774
315.27        32.40741
315.72        32.46701
316.18        32.62526
316.63        32.82577
317.08        32.94918
317.53        32.95757
317.99        32.86755
318.44        32.73973
318.89        32.67814
319.35        32.69614
319.80        32.76658
320.25        32.80255
320.70        32.66579
321.16        32.33882
321.61        31.88236
322.06        31.40455
322.51        31.06531
322.97        30.89355
323.42        30.84859
323.87        30.86161
324.32        30.81723
324.78        30.67553
325.23        30.48202
325.68        30.25146
326.13        30.01211
326.59        29.77638
327.04        29.55158
327.49        29.36207
327.94        29.25894
328.39        29.25258
328.85        29.32033
329.30        29.45716
329.75         29.6003
330.20        29.72527
330.66        29.82843
331.11        29.91633
331.56        29.95656
332.01        29.94394
332.46        29.86224
332.92        29.75135
333.37        29.73034
333.82        29.81248
334.27        29.99034
334.72        30.15059
335.17        30.09531
335.63        29.78996
336.08        29.30899
336.53        28.83699
336.98        28.67575
337.43        28.88805
337.88         29.3796
338.34        29.94068
338.79        30.27355
339.24        30.26702
339.69        30.01452
340.14        29.66344
340.59          29.474
341.05        29.51693
341.50        29.70006
341.95        29.93694
342.40        30.10995
342.85        30.18172
343.30        30.20865
343.75        30.17785
344.20        30.06141
344.66        29.87029
345.11        29.58348
345.56        29.29964
346.01        29.16889
346.46        29.20825
346.91        29.38638
347.36        29.54836
347.81        29.44319
348.26        29.04316
348.72        28.46734
349.17        27.88739
349.62        27.66146
350.07        27.87107
350.52        28.38379
350.97        29.02696
351.42        29.54006
351.87        29.83313
352.32        29.97523
352.77        29.98095
353.22        29.87796
353.67        29.69398
354.13        29.42108
354.58        29.11082
355.03        28.89041
355.48        28.79099
355.93        28.80286
356.38        28.85014
356.83        28.79775
357.28        28.61283
357.73        28.32742
358.18        28.03045
358.63        27.86106
359.08        27.84729
359.53        27.95015
359.98        28.05115
360.43        27.96913
360.88        27.67275
361.33         27.2165
361.78        26.75633
362.23        26.54458
362.68        26.62477
363.13        26.90141
363.58        27.19205
364.03        27.21294
364.48        26.90246
364.93        26.36612
365.38        25.74053
365.83         25.2436
366.28         24.9499
366.73        24.79011
367.18        24.73499
367.63        24.73791
368.08        24.76133
368.53        24.81951
368.98        24.85853
369.43        24.78428
369.88        24.58589
370.33        24.29204
370.78        23.96065
371.23        23.70082
371.68        23.55133
372.13        23.47928
372.58        23.49109
373.03        23.58978
373.48         23.7511
373.93        23.96629
374.38        24.14845
374.83        24.16397
375.28        23.99188
375.72        23.65863
376.17        23.28346
376.62        23.02832
377.07        22.94006
377.52        22.96746
377.97        23.04903
378.42        23.08101
378.87        23.02985
379.32        22.93654
379.77        22.81082
380.22        22.66073
380.67        22.49539
381.11        22.30677
381.56        22.12037
382.01        21.99224
382.46        21.93261
382.91        21.92777
383.36        21.93637
383.81        21.88719
384.26        21.76636
384.71         21.6017
385.15        21.41975
385.60        21.27499
386.05        21.17029
386.50        21.08013
386.95        21.00725
387.40        20.95876
387.85        20.93441
388.29         20.9355
388.74        20.93402
389.19        20.85125
389.64        20.68226
390.09        20.43662
390.54        20.20758
390.98        20.15341
391.43        20.30647
391.88        20.60002
392.33        20.88581
392.78        20.94511
393.23        20.75485
393.67        20.39294
394.12        20.02771
394.57          19.824
395.02        19.81968
395.47        19.95251
395.91        20.16106
396.36        20.30717
396.81        20.34585
397.26        20.30587
397.71        20.21705
398.15        20.10234
398.60        20.00621
399.05         19.9258
399.50        19.84198
399.95         19.6743
400.39        19.50848
400.84        19.29558
401.29        19.12894
401.74        19.13364
402.18        19.34013
402.63         19.6811
403.08        20.04334
403.53        20.24514
403.97        20.24007
404.42         20.0774
404.87        19.83397
405.32        19.64764
405.76        19.56421
406.21        19.55136
406.66        19.57682
407.11        19.60009
407.55        19.61293
408.00        19.62724
408.45        19.64457
408.90        19.65013
409.34        19.64018
409.79        19.61369
410.24        19.58982
410.68        19.59975
411.13        19.65365
411.58        19.74418
412.03        19.84602
412.47         19.9172
412.92        19.93143
413.37        19.90265
413.81        19.86201
414.26        19.87658
414.71        19.94844
415.15        20.05927
415.60        20.15102
416.05         20.1495
416.49        20.04135
416.94        19.86749
417.39        19.67343
417.83        19.53537
418.28         19.4879
418.73        19.49847
419.17        19.56703
419.62        19.68986
420.07        19.85222
420.51        20.05295
420.96        20.22853
421.41        20.26811
421.85        20.14931
422.30        19.93578
422.74        19.70231
423.19        19.60086
423.64        19.64564
424.08        19.80519
424.53        20.01424
424.98        20.19156
425.42        20.31002
425.87        20.37845
426.31         20.4034
426.76        20.45481
427.21          20.514
427.65        20.42282
428.10         20.2829
428.54        20.39315
428.99        20.77265
429.44        21.29097
429.88        21.73087
430.33        21.82433
430.77        21.53302
431.22        20.95728
431.66         20.3406
432.11        20.15759
432.56        20.44942
433.00        20.89371
433.45        21.29666
433.89        21.76043
434.34        22.07109
434.78         21.7191
435.23        21.03717
435.67        20.90321
436.12        21.30189
436.57        21.56391
437.01        21.58501
437.46        21.57857
437.90        21.56919
438.35        21.57898
438.79        21.58669
439.24        21.54424
439.68        21.46968
440.13        21.30043
440.57        21.12977
441.02        21.38874
441.46         21.9274
441.91        21.93853
442.35        21.49168
442.80        21.35106
443.24        21.48293
443.69         21.5844
444.13        21.57814
444.58        21.33805
445.02        20.96399
445.47        20.91465
445.91        21.14171
446.36        21.18629
446.80        21.02349
447.24        20.93199
447.69        20.93714
448.13        20.93724
448.58        20.93969
449.02        20.96711
449.47        21.00438
449.91        21.02542
450.36        21.02845
450.80        21.01209
451.25        21.00126
451.69        21.02256
452.13        21.08346
452.58         21.1627
453.02         21.2408
453.47        21.28993
453.91        21.30412
454.36        21.29847
454.80        21.26996
455.24        21.20968
455.69        21.13457
456.13        21.04111
456.58        20.98491
457.02        21.01567
457.46        21.14722
457.91        21.35178
458.35        21.56777
458.79         21.6952
459.24        21.72033
459.68        21.65553
460.13        21.56575
460.57        21.50471
461.01        21.51113
461.46        21.56445
461.90        21.63909
462.34        21.69182
462.79        21.70473
463.23        21.68358
463.68        21.67373
464.12        21.75582
464.56        21.93663
465.01         22.2018
465.45        22.41356
465.89        22.45521
466.34        22.32845
466.78        21.95199
467.22        21.52081
467.67        21.56562
468.11        22.02774
468.55        22.24864
468.99        22.15476
469.44        22.07667
469.88        22.08779
470.32        22.26484
470.77        22.53465
471.21        22.61133
471.65        22.46631
472.10        22.31968
472.54        22.23251
472.98        22.22353
473.42         22.3136
473.87        22.50466
474.31        22.72186
474.75        22.84485
475.20        22.85405
475.64        22.77425
476.08        22.67799
476.52        22.67516
476.97         22.7934
477.41        23.00254
477.85        23.22979
478.29        23.40269
478.74        23.49998
479.18        23.42764
479.62        23.26273
480.06        23.51544
480.50        23.72034
480.95        23.93241
481.39        23.94046
481.83        23.91121
482.27        23.84073
482.72        23.54467
483.16         23.1794
483.60        23.25587
484.04        23.78842
484.48        24.16834
484.93        24.59204
485.37        25.01673
485.81         25.4952
486.25        25.62784
486.69        34.79745
487.14        27.85981
487.58        17.48114
488.02        21.65833
488.46        24.67884
488.90        24.48457
489.34        24.88425
489.79        24.55959
490.23        25.73489
490.67        26.32646
491.11        26.12106
491.55        26.11738
491.99        26.20308
492.43        26.13311
492.88        25.96963
493.32        26.02844
493.76        26.14304
494.20        26.39357
494.64        26.69969
495.08        27.07062
495.52        27.46658
495.96        27.79457
496.41        27.99726
496.85        28.18914
497.29        28.35416
497.73        28.06193
498.17        27.64108
498.61        27.86383
499.05        28.73537
499.49        28.88463
499.93        29.00721
500.37        29.14987
500.82        29.22475
501.26        29.50673
501.70        29.84652
502.14        30.00715
502.58        29.96259
503.02        29.95767
503.46        30.00659
503.90        29.95227
504.34        29.84638
504.78        29.84675
505.22        29.97332
505.66        30.19009
506.10        30.42212
506.54        30.53976
506.98        30.51405
507.42        30.38833
507.86        30.25906
508.30        30.27533
508.74        30.46578
509.18        30.77587
509.62        31.11486
510.06        31.33398
510.50        31.39372
510.94        31.34995
511.38        31.25722
511.82        31.20018
512.26        31.20914
512.70        31.24914
513.14        31.32673
513.58        31.45516
514.02        31.61618
514.46        31.80399
514.90        31.96025
515.34        31.95904
515.78        31.76083
516.22        31.53751
516.66        31.38111
517.10        31.05305
517.54        30.58397
517.98        31.35117
518.42          31.273
518.86        31.61881
519.30        31.74945
519.74        31.87503
520.18        31.97907
520.62        32.00904
521.06        31.98812
521.50        31.91125
521.93        31.80796
522.37        31.73814
522.81        31.71745
523.25        31.73126
523.69        31.77352
524.13        31.83128
524.57        31.89352
525.01        31.96247
525.45        32.01231
525.89        32.00158
526.32        31.92155
526.76        31.78557
527.20        31.62805
527.64          31.515
528.08        31.46864
528.52        31.44271
528.96        31.40292
529.40         31.3811
529.83        31.38511
530.27        31.09336
530.71        31.13235
531.15        31.02394
531.59        30.96109
532.03        30.91621
532.46         30.9225
532.90        31.02718
533.34        31.21551
533.78        31.46416
534.22        31.68977
534.66        31.77201
535.09        31.68335
535.53          31.472
535.97        31.20707
536.41        31.00942
536.85        30.91917
537.28         30.9105
537.72        30.94612
538.16         30.9662
538.60        30.95499
539.04        30.91197
539.47        30.87144
539.91        30.96162
540.35         31.1567
540.79        31.30685
541.22        31.38887
541.66        31.49521
542.10        31.61713
542.54        31.68254
542.97        31.72655
543.41        31.85685
543.85        32.08007
544.29        32.37707
544.72        32.66513
545.16        32.82976
545.60        32.84861
546.04        32.75369
546.47        32.66706
546.91        32.79384
547.35        33.15685
547.79        33.69611
548.22        34.23844
548.66         34.4894
549.10        34.41019
549.53        34.14655
549.97        33.87365
550.41        33.77925
550.84        33.92827
551.28        34.27709
551.72         34.7338
552.15        35.12578
552.59        35.39001
553.03        35.57341
553.46         35.6995
553.90        35.83744
554.34        36.00946
554.77        36.15149
555.21        36.24766
555.65        36.38982
556.08        36.59607
556.52         36.4031
556.96        36.67464
557.39        36.73677
557.83        36.85675
558.27        36.99384
558.70         37.1556
559.14        37.33437
559.57        37.50373
560.01        37.68204
560.45        37.82187
560.88        37.83149
561.32        37.73148
561.75         37.5834
562.19        37.47727
562.63        37.38473
563.06        37.37687
563.50        37.68687
563.93        38.19355
564.37        38.49755
564.80        38.53676
565.24        38.52251
565.68        38.50322
566.11        38.49076
566.55        38.53923
566.98        38.63059
567.42         38.7835
567.85        39.02141
568.29         39.3618
568.72        39.67756
569.16         39.9921
569.60        40.46641
570.03        40.91385
570.47        40.90709
570.90        40.63923
571.34        40.08176
571.77        40.61712
572.21        40.70248
572.64        40.82365
573.08        40.24606
573.51        38.89512
573.95        40.65144
574.38        43.47765
574.82        42.12906
