SpectraSmart Spectrum 2.9.0.0
--------- Device Information -----------
Spectrum Name :  反射率_0
Saving Time :  2024/04/26 00:53:43
Spectro-Module Model Name : SE2030-DUVN
Spectro-Module Serial Number : OS361AC55029948
Wavelength Start : 200
Wavelength End : 1025
Wavelength Unit : Wavelength(nm)
Spectrum Unit : Reflectance(%)
-----------Spectrum Setting ------------
Integration Time : 20ms
Average : 10
Boxcar : 0
Background removal :  enabled
linearity correction :  enabled
SC :  disabled
Intensity correction :  disabled
DWT denoise :  enabled
savitzky-golay :  disabled
FFT :  disabled
Running average :  disabled
Kalman :  disabled
High pass :  disabled
---------------BEGIN--------------------
Wavelength(nm)             Reflectance(%)
200.29               0
200.75        81.75924
201.21        78.38528
201.67        74.16563
202.13        71.06076
202.58         69.3306
203.04        68.93678
203.50        68.97231
203.96        68.04797
204.42        66.15507
204.88        63.94214
205.34        62.37668
205.80        62.48655
206.26        64.83335
206.72        71.00545
207.18        83.87322
207.64        96.92737
208.10        92.52803
208.55        78.72604
209.01         69.3956
209.47        66.43433
209.93        67.30138
210.39        70.64872
210.85        74.22944
211.31        73.42522
211.77        67.15923
212.23        57.46889
212.69        48.45464
213.14         46.3524
213.60        52.03059
214.06        63.66262
214.52        77.03426
214.98        85.61848
215.44        87.57243
215.90        84.87878
216.36        79.99149
216.81        76.28354
217.27        75.01618
217.73        75.06239
218.19        75.03027
218.65        73.06883
219.11        68.35728
219.57        60.31519
220.02        50.09209
220.48        44.45473
220.94        46.92623
221.40        55.72351
221.86        63.61163
222.32        63.16392
222.77        55.47223
223.23        44.92374
223.69        36.12071
224.15        33.74432
224.61        37.20595
225.06        44.15022
225.52         51.0919
225.98        53.64001
226.44        51.09837
226.90        45.40802
227.36        39.20916
227.81        36.05165
228.27        36.91561
228.73         40.2777
229.19        44.55222
229.65         47.4264
230.10        48.30751
230.56        48.12297
231.02         47.5748
231.48        47.39938
231.93        47.71978
232.39         48.2314
232.85        48.73404
233.31        49.04659
233.77        49.07794
234.22        48.89242
234.68        48.57576
235.14          48.195
235.60        47.84164
236.05        47.61541
236.51        47.38064
236.97        46.85786
237.43         46.0185
237.88        44.90717
238.34        44.08965
238.80        45.11993
239.26        48.59319
239.71        54.21082
240.17        60.26373
240.63        64.22193
241.08        65.35993
241.54        64.12204
242.00        61.88741
242.46        60.67178
242.91        61.38992
243.37          64.506
243.83        75.21301
244.28        109.4285
244.74        145.8038
245.20         125.411
245.66        105.9873
246.11        97.86412
246.57        93.96848
247.03        88.94376
247.48        74.92936
247.94        71.08955
248.40        82.67481
248.85        87.44888
249.31        90.11754
249.77        92.15459
250.22        94.42801
250.68        97.54726
251.14        100.8526
251.59        100.1982
252.05        93.25927
252.51        83.15824
252.96         74.2696
253.42        70.17026
253.88        69.90263
254.33        72.01399
254.79        75.82493
255.25        79.67359
255.70        82.58033
256.16        84.97085
256.62        85.83769
257.07        84.12395
257.53        80.66599
257.99        75.83729
258.44        71.07823
258.90        68.97579
259.35        68.66717
259.81        69.22302
260.27          69.013
260.72        66.46717
261.18        62.27858
261.63        57.11419
262.09        52.36852
262.55         48.9849
263.00        46.94564
263.46        45.88413
263.91        45.07597
264.37        44.01722
264.83        42.52767
265.28        40.70839
265.74        39.00999
266.19         37.8492
266.65        37.40581
267.11        37.39186
267.56        37.40152
268.02        36.96315
268.47        35.97093
268.93        34.58954
269.38        33.06874
269.84        32.05214
270.30        31.69646
270.75        31.82914
271.21        32.07786
271.66        31.88495
272.12        31.12667
272.57        30.00165
273.03        28.86795
273.48        28.17539
273.94        28.04614
274.39        28.26897
274.85        28.59375
275.31         28.6477
275.76        28.32905
276.22        27.79307
276.67         27.1678
277.13        26.72939
277.58        26.48764
278.04        26.37805
278.49        26.25927
278.95        26.00166
279.40        25.55455
279.86        25.03734
280.31        24.49396
280.77        24.09595
281.22        23.83407
281.68        23.67309
282.13        23.56415
282.59        23.47805
283.04        23.38539
283.50        23.33015
283.95        23.24196
284.41        23.03444
284.86        22.69827
285.32        22.27307
285.77        21.89405
286.22         21.8272
286.68        22.07975
287.13        22.53555
287.59        22.96645
288.04        23.02254
288.50        22.66946
288.95        22.01874
289.41        21.29508
289.86        20.73049
290.32        20.44705
290.77        20.35233
291.22         20.4173
291.68        20.56069
292.13        20.75171
292.59        21.01735
293.04        21.35166
293.50        21.74075
293.95        22.15992
294.40        22.57201
294.86        22.94781
295.31        23.26201
295.77        23.51782
296.22        23.73408
296.68         23.9211
297.13        24.06726
297.58         24.2007
298.04        24.34419
298.49        24.56284
298.95        24.98974
299.40        25.62429
299.85        26.41356
300.31        27.22867
300.76        27.87653
301.21        28.29131
301.67        28.55321
302.12        28.69838
302.58        28.83811
303.03        28.99251
303.48         29.1402
303.94        29.34488
304.39        29.67136
304.84        30.12044
305.30        30.65911
305.75        31.14942
306.20        31.38708
306.66         31.3582
307.11        31.12271
307.57        30.82574
308.02        30.61117
308.47        30.55364
308.93        30.60561
309.38        30.74405
309.83        30.96171
310.29        31.22339
310.74        31.51806
311.19         31.7778
311.65        31.89524
312.10         31.8478
312.55        31.66395
313.00         31.3905
313.46        31.12281
313.91        30.89212
314.36        30.69525
314.82        30.55695
315.27        30.49556
315.72        30.51421
316.18        30.60521
316.63        30.72932
317.08        30.79543
317.53        30.77407
317.99        30.67282
318.44        30.53745
318.89        30.44857
319.35        30.41711
319.80          30.427
320.25        30.41014
320.70        30.25917
321.16        29.96149
321.61        29.55983
322.06        29.14952
322.51        28.87181
322.97        28.74761
323.42        28.74437
323.87          28.774
324.32        28.68923
324.78        28.45069
325.23        28.11207
325.68        27.74313
326.13        27.46184
326.59        27.29829
327.04        27.23298
327.49        27.22371
327.94        27.20544
328.39        27.15627
328.85        27.08833
329.30        27.04548
329.75        27.05807
330.20         27.1334
330.66        27.23552
331.11         27.3528
331.56        27.42513
332.01        27.43265
332.46        27.37641
332.92        27.27415
333.37        27.19466
333.82        27.14792
334.27        27.13596
334.72        27.10724
335.17        26.97444
335.63        26.72702
336.08        26.40193
336.53        26.11499
336.98        26.05322
337.43        26.24755
337.88        26.64163
338.34        27.05595
338.79        27.24297
339.24        27.11565
339.69        26.74627
340.14        26.30902
340.59        26.11149
341.05        26.22482
341.50        26.54706
341.95        26.92146
342.40        27.12132
342.85        27.09193
343.30        26.91952
343.75        26.66504
344.20        26.43452
344.66        26.27239
345.11        26.10897
345.56        25.97886
346.01        25.93385
346.46        25.96503
346.91        26.08058
347.36        26.14324
347.81        25.92736
348.26        25.42125
348.72        24.73107
349.17        24.06153
349.62        23.82862
350.07        24.11942
350.52        24.78711
350.97        25.59183
351.42        26.16701
351.87        26.40263
352.32        26.39726
352.77        26.23697
353.22        26.06461
353.67        25.93559
354.13        25.80756
354.58        25.66427
355.03        25.52623
355.48        25.39647
355.93        25.29364
356.38        25.20804
356.83        25.10699
357.28        24.98056
357.73        24.83164
358.18        24.66898
358.63        24.50844
359.08        24.35722
359.53         24.2181
359.98        24.07819
360.43        23.91723
360.88        23.73573
361.33        23.53842
361.78        23.36538
362.23        23.28187
362.68        23.28851
363.13        23.34998
363.58        23.39755
364.03        23.32541
364.48        23.11202
364.93        22.80086
365.38        22.43444
365.83         22.0811
366.28        21.77588
366.73        21.50444
367.18        21.30007
367.63        21.21565
368.08        21.24603
368.53        21.36692
368.98         21.5041
369.43        21.53644
369.88        21.43841
370.33        21.25169
370.78        21.01388
371.23        20.79655
371.68        20.63153
372.13        20.48881
372.58        20.41278
373.03        20.47544
373.48        20.67025
373.93        20.97297
374.38         21.2509
374.83        21.29832
375.28        21.07942
375.72        20.64192
376.17        20.15692
376.62         19.8678
377.07        19.84201
377.52         20.0065
377.97        20.23866
378.42        20.33925
378.87        20.25352
379.32        20.04852
379.77        19.80768
380.22        19.64621
380.67        19.59009
381.11        19.59955
381.56        19.61122
382.01        19.53572
382.46        19.35508
382.91        19.10585
383.36         18.8582
383.81        18.71848
384.26        18.70935
384.71        18.79286
385.15        18.89203
385.60        18.90821
386.05        18.81056
386.50        18.62647
386.95        18.41253
387.40        18.26904
387.85        18.22679
388.29        18.24853
388.74        18.28787
389.19        18.25652
389.64        18.14016
390.09        17.95922
390.54        17.77745
390.98        17.69841
391.43        17.75136
391.88        17.89205
392.33        18.02872
392.78        18.02723
393.23        17.87549
393.67        17.61886
394.12        17.37553
394.57        17.25017
395.02        17.26422
395.47        17.37279
395.91        17.52643
396.36        17.61291
396.81        17.59946
397.26        17.50984
397.71        17.37342
398.15        17.21633
398.60        17.08108
399.05        16.96707
399.50        16.86105
399.95        16.69576
400.39         16.5421
400.84        16.35884
401.29        16.21906
401.74        16.21905
402.18        16.38338
402.63        16.65574
403.08        16.94834
403.53        17.11989
403.97        17.13193
404.42        17.02065
404.87        16.84257
405.32        16.70057
405.76        16.62937
406.21        16.60707
406.66        16.60753
407.11        16.59779
407.55         16.5717
408.00        16.53532
408.45        16.50029
408.90        16.47544
409.34         16.4619
409.79        16.45389
410.24        16.44449
410.68        16.42389
411.13        16.39588
411.58        16.36818
412.03        16.34483
412.47        16.33778
412.92        16.34099
413.37        16.34808
413.81        16.37057
414.26        16.44363
414.71        16.55586
415.15        16.69597
415.60        16.79822
416.05        16.77637
416.49        16.61686
416.94        16.36318
417.39        16.07739
417.83        15.86838
418.28        15.78073
418.73        15.77458
419.17        15.83867
419.62        15.94555
420.07        16.07525
420.51        16.23502
420.96        16.36362
421.41        16.35433
421.85        16.19053
422.30         15.9301
422.74         15.6586
423.19        15.53529
423.64        15.57469
424.08        15.74044
424.53        15.95252
424.98        16.09742
425.42         16.1395
425.87        16.10254
426.31        16.01624
426.76         15.9757
427.21        15.97733
427.65        15.88465
428.10        15.77208
428.54        15.86737
428.99        16.18212
429.44        16.59905
429.88        16.93992
430.33         17.0319
430.77         16.8138
431.22        16.24772
431.66        15.58825
432.11        15.37237
432.56        15.64415
433.00        16.13252
433.45        16.61105
433.89        16.92263
434.34        16.93244
434.78        16.55008
435.23        16.05736
435.67        16.00367
436.12        16.34538
436.57        16.50315
437.01        16.41304
437.46        16.38074
437.90        16.43081
438.35        16.47376
438.79        16.48775
439.24        16.48587
439.68        16.47667
440.13        16.39037
440.57         16.2794
441.02        16.44841
441.46         16.7779
441.91        16.66705
442.35        16.20298
442.80        16.00272
443.24        16.04331
443.69        16.09115
444.13         16.0787
444.58        15.89804
445.02        15.61543
445.47        15.57523
445.91        15.74066
446.36         15.7699
446.80         15.6417
447.24        15.55993
447.69        15.53876
448.13        15.49394
448.58        15.43444
449.02        15.38568
449.47         15.3465
449.91        15.31306
450.36        15.29016
450.80        15.26978
451.25        15.27735
451.69        15.34044
452.13        15.45977
452.58        15.61192
453.02        15.75322
453.47        15.81454
453.91        15.78568
454.36        15.69126
454.80        15.56504
455.24        15.46564
455.69        15.42095
456.13        15.40396
456.58        15.42641
457.02        15.48061
457.46        15.56541
457.91          15.678
458.35        15.78016
458.79        15.80283
459.24        15.74738
459.68        15.62252
460.13        15.49887
460.57        15.44778
461.01        15.50197
461.46        15.62995
461.90        15.78887
462.34        15.90231
462.79         15.9442
463.23        15.92681
463.68        15.89151
464.12        15.91049
464.56        16.00081
465.01        16.15004
465.45        16.26383
465.89        16.26219
466.34        16.14715
466.78        15.86076
467.22        15.54596
467.67         15.5881
468.11        15.94317
468.55        16.13316
468.99        16.09229
469.44         16.0416
469.88          16.032
470.32        16.12434
470.77        16.27751
471.21        16.30839
471.65        16.20238
472.10        16.11439
472.54        16.07808
472.98        16.09539
473.42        16.17594
473.87        16.32109
474.31        16.48233
474.75        16.57723
475.20        16.59265
475.64        16.54558
476.08        16.47802
476.52        16.45516
476.97        16.49564
477.41        16.58271
477.85        16.68557
478.29        16.78687
478.74        16.87811
479.18        16.88078
479.62        16.81929
480.06        17.01689
480.50        17.12686
480.95         17.2005
481.39        17.11823
481.83        17.05063
482.27        17.00531
482.72         16.8334
483.16        16.61663
483.60        16.69433
484.04        17.06998
484.48        17.29241
484.93        17.52713
485.37        17.87662
485.81        18.32147
486.25        18.46427
486.69        24.50632
487.14        19.79371
487.58        12.73087
488.02        15.72059
488.46        17.84288
488.90        18.00965
489.34        18.11322
489.79        17.93647
490.23        18.77158
490.67        19.18598
491.11        19.01674
491.55        19.02181
491.99        19.11204
492.43        19.04349
492.88        18.86009
493.32        18.81264
493.76        18.81342
494.20        18.97472
494.64        19.25081
495.08        19.60937
495.52          19.992
495.96         20.3326
496.41        20.55338
496.85        20.64863
497.29        20.64605
497.73        20.38792
498.17        20.13359
498.61        20.37562
499.05         21.1001
499.49        21.28648
499.93        21.43027
500.37        21.57219
500.82        21.65791
501.26        21.90913
501.70        22.21703
502.14        22.39475
502.58        22.40984
503.02        22.42696
503.46        22.45337
503.90        22.38238
504.34        22.25785
504.78        22.20425
505.22        22.24283
505.66         22.3465
506.10        22.47555
506.54        22.55937
506.98        22.57943
507.42        22.55972
507.86         22.5447
508.30         22.6016
508.74         22.7418
509.18         22.9369
509.62        23.14073
510.06        23.27983
510.50        23.33591
510.94        23.33801
511.38        23.31481
511.82         23.3109
512.26         23.3413
512.70        23.38529
513.14        23.44736
513.58        23.53605
514.02         23.6363
514.46        23.74175
514.90        23.81408
515.34        23.75686
515.78        23.53454
516.22        23.33037
516.66        23.21748
517.10         22.8762
517.54        22.32752
517.98        23.12845
518.42         22.9754
518.86        23.33193
519.30        23.49098
519.74        23.67048
520.18        23.83258
520.62        23.88923
521.06        23.85703
521.50        23.74136
521.93         23.5816
522.37        23.45485
522.81        23.38548
523.25        23.35621
523.69        23.36634
524.13        23.41126
524.57         23.4786
525.01         23.5662
525.45        23.63992
525.89        23.64336
526.32        23.56284
526.76         23.4158
527.20        23.23385
527.64        23.07803
528.08        22.97211
528.52        22.88054
528.96        22.78947
529.40         22.7382
529.83        22.73433
530.27        22.54033
530.71        22.59261
531.15        22.51504
531.59        22.44093
532.03        22.35749
532.46        22.30394
532.90        22.34484
533.34        22.47486
533.78        22.66542
534.22        22.84303
534.66        22.90072
535.09        22.81387
535.53        22.62774
535.97        22.39631
536.41        22.21179
536.85        22.10818
537.28        22.06545
537.72         22.0702
538.16        22.09925
538.60        22.14284
539.04        22.19382
539.47        22.25349
539.91        22.37882
540.35        22.54329
540.79        22.64519
541.22        22.68953
541.66        22.77736
542.10        22.91042
542.54        23.02676
542.97        23.12541
543.41        23.24494
543.85        23.38289
544.29        23.54082
544.72        23.69244
545.16        23.80107
545.60         23.8603
546.04        23.89048
546.47        23.94587
546.91        24.09089
547.35         24.3441
547.79        24.74935
548.22        25.18945
548.66        25.39925
549.10        25.35544
549.53        25.19641
549.97        25.04759
550.41         25.0215
550.84        25.16308
551.28         25.4507
551.72        25.81929
552.15        26.14597
552.59        26.38258
553.03        26.55812
553.46        26.68873
553.90         26.8225
554.34        26.97725
554.77        27.10827
555.21        27.20003
555.65        27.31292
556.08        27.46134
556.52        27.30223
556.96        27.49981
557.39        27.57491
557.83        27.73009
558.27        27.92391
558.70        28.13999
559.14        28.33478
559.57        28.48028
560.01        28.60206
560.45        28.67701
560.88        28.66613
561.32        28.59546
561.75        28.47132
562.19         28.3625
562.63        28.32113
563.06        28.36481
563.50        28.51088
563.93        28.71118
564.37        28.87585
564.80        28.97424
565.24        29.05021
565.68         29.1154
566.11        29.18356
566.55        29.28316
566.98         29.4004
567.42        29.54582
567.85        29.72899
568.29        29.96879
568.72        30.17504
569.16        30.37952
569.60        30.75155
570.03        31.15446
570.47        31.20666
570.90        31.03443
571.34        30.76693
571.77        31.11287
572.21        31.24199
572.64        31.40592
573.08        30.82902
573.51        29.72646
573.95        31.03241
574.38        33.22071
574.82        32.42293
