SpectraSmart Spectrum 2.9.0.0
--------- Device Information -----------
Spectrum Name :  反射率_0
Saving Time :  2024/04/26 00:54:26
Spectro-Module Model Name : SE2030-DUVN
Spectro-Module Serial Number : OS361AC55029948
Wavelength Start : 200
Wavelength End : 1025
Wavelength Unit : Wavelength(nm)
Spectrum Unit : Reflectance(%)
-----------Spectrum Setting ------------
Integration Time : 20ms
Average : 10
Boxcar : 0
Background removal :  enabled
linearity correction :  enabled
SC :  disabled
Intensity correction :  disabled
DWT denoise :  enabled
savitzky-golay :  disabled
FFT :  disabled
Running average :  disabled
Kalman :  disabled
High pass :  disabled
---------------BEGIN--------------------
Wavelength(nm)             Reflectance(%)
200.29               0
200.75        83.14676
201.21        76.49126
201.67        68.49882
202.13        63.79526
202.58        62.99899
203.04        64.95824
203.50        68.29656
203.96        70.62627
204.42        71.10249
204.88        70.60151
205.34        69.81142
205.80        69.30971
206.26        69.22851
206.72        69.43375
207.18         69.1944
207.64        65.88941
208.10        60.20997
208.55         56.6312
209.01        55.71706
209.47        56.52586
209.93        58.34031
210.39        61.33781
210.85        64.07018
211.31        63.24916
211.77        58.25866
212.23        50.54691
212.69        43.30563
213.14        41.59246
213.60        46.07722
214.06        55.32208
214.52        66.45229
214.98        74.92579
215.44        79.09154
215.90        80.08326
216.36        78.69189
216.81        75.93694
217.27        72.88782
217.73        69.46094
218.19        65.67232
218.65        61.28128
219.11        55.76384
219.57        48.28671
220.02        39.40761
220.48        34.09241
220.94        35.04185
221.40        41.50703
221.86        47.99187
222.32        48.64803
222.77        44.00179
223.23        37.03865
223.69        31.32913
224.15        30.61479
224.61        34.39455
225.06        40.90639
225.52         47.0057
225.98        48.73514
226.44        45.59306
226.90        39.40372
227.36        32.92433
227.81        29.88531
228.27        31.25124
228.73        35.46646
229.19        40.70271
229.65        44.23165
230.10         45.3938
230.56        45.25161
231.02        44.68488
231.48        44.66087
231.93        45.32223
232.39        46.23359
232.85        47.16188
233.31        47.87594
233.77        48.24999
234.22        48.40293
234.68        48.25287
235.14        47.55787
235.60         46.3782
236.05        44.90942
236.51        43.40715
236.97        42.11892
237.43         41.0972
237.88        40.30764
238.34        39.94379
238.80        40.54931
239.26        42.26719
239.71        45.03138
240.17        47.94359
240.63        49.87537
241.08        50.56108
241.54        50.18667
242.00        49.28959
242.46        48.61823
242.91        48.45195
243.37        48.43167
243.83        50.59558
244.28        68.74241
244.74        109.4631
245.20        112.6565
245.66        102.2251
246.11        96.25652
246.57        91.66821
247.03        82.50098
247.48        45.61343
247.94         15.6933
248.40        42.76179
248.85        56.66311
249.31        63.69336
249.77        68.65737
250.22        73.80223
250.68         80.9557
251.14        89.83976
251.59        93.64875
252.05        86.91583
252.51        73.60732
252.96        60.49888
253.42        53.40895
253.88        51.72204
254.33        53.36221
254.79        58.17072
255.25        65.11943
255.70        72.45573
256.16        79.64854
256.62        84.40271
257.07        84.45352
257.53        80.91737
257.99        74.90372
258.44        68.71801
258.90        65.89825
259.35        65.66187
259.81        66.68999
260.27        66.98021
260.72        64.62086
261.18        60.33949
261.63        54.98969
262.09        50.17971
262.55        47.08967
263.00        45.62385
263.46        45.21535
263.91        44.94279
264.37        44.11427
264.83        42.55935
265.28        40.46746
265.74        38.40453
266.19        36.96812
266.65        36.39186
267.11          36.345
267.56        36.33962
268.02        35.79391
268.47        34.59687
268.93        32.95388
269.38        31.21287
269.84        30.18667
270.30        30.06833
270.75        30.61556
271.21        31.32107
271.66        31.43401
272.12        30.77691
272.57        29.59158
273.03         28.3214
273.48         27.5521
273.94        27.43929
274.39        27.73393
274.85        28.11298
275.31        28.09964
275.76        27.58551
276.22        26.77752
276.67        25.90471
277.13        25.37868
277.58        25.22784
278.04        25.33125
278.49        25.44522
278.95        25.29729
279.40        24.81333
279.86        24.15635
280.31        23.45579
280.77        23.00861
281.22        22.82727
281.68        22.82794
282.13        22.88058
282.59        22.84033
283.04        22.66499
283.50        22.44628
283.95        22.19141
284.41        21.92797
284.86         21.6675
285.32        21.39951
285.77        21.19899
286.22        21.24283
286.68        21.51404
287.13        21.92973
287.59        22.28158
288.04        22.24957
288.50        21.81428
288.95        21.07871
289.41        20.28349
289.86        19.68787
290.32        19.41523
290.77         19.3704
291.22        19.49726
291.68        19.66929
292.13        19.84935
292.59        20.07895
293.04        20.37996
293.50        20.78369
293.95        21.27293
294.40        21.78781
294.86        22.27618
295.31        22.68043
295.77        22.99063
296.22         23.2344
296.68         23.4186
297.13        23.52653
297.58        23.59234
298.04        23.64494
298.49        23.77125
298.95        24.13684
299.40        24.75122
299.85        25.55715
300.31        26.41524
300.76        27.11137
301.21        27.57164
301.67        27.87942
302.12        28.07216
302.58        28.26414
303.03         28.4732
303.48        28.66833
303.94        28.91026
304.39        29.26209
304.84        29.72338
305.30        30.26546
305.75        30.74271
306.20        30.93815
306.66        30.84215
307.11        30.52421
307.57         30.1566
308.02        29.92282
308.47        29.90273
308.93        30.03564
309.38        30.26958
309.83        30.55069
310.29        30.83052
310.74        31.10985
311.19        31.34263
311.65        31.45528
312.10        31.43582
312.55        31.30585
313.00        31.09209
313.46        30.85838
313.91        30.62797
314.36        30.40326
314.82        30.24265
315.27        30.21537
315.72        30.33066
316.18         30.5667
316.63        30.82683
317.08         30.9256
317.53        30.81782
317.99        30.54396
318.44        30.22819
318.89         30.0755
319.35        30.12424
319.80        30.31738
320.25        30.51843
320.70        30.50144
321.16        30.21646
321.61        29.74611
322.06        29.22382
322.51        28.84868
322.97        28.66488
323.42        28.62115
323.87         28.6352
324.32        28.57269
324.78        28.39132
325.23         28.1431
325.68         27.8748
326.13        27.66185
326.59        27.52238
327.04        27.44591
327.49        27.40011
327.94        27.34209
328.39        27.25853
328.85        27.15157
329.30        27.07577
329.75        27.07957
330.20        27.17209
330.66        27.31844
331.11        27.47536
331.56        27.52824
332.01        27.44705
332.46        27.24513
332.92        26.98979
333.37        26.84151
333.82        26.83855
334.27        26.96023
334.72        27.09666
335.17        27.05771
335.63        26.80108
336.08        26.39128
336.53        25.99183
336.98        25.86814
337.43        26.07142
337.88        26.51759
338.34        26.99407
338.79        27.19977
339.24        27.03463
339.69        26.59806
340.14        26.08486
340.59        25.83503
341.05        25.93459
341.50        26.26655
341.95        26.68363
342.40        26.97639
342.85        27.08494
343.30        27.08938
343.75        27.00485
344.20        26.85585
344.66        26.66861
345.11        26.39891
345.56        26.13684
346.01        26.02209
346.46        26.06639
346.91        26.24927
347.36        26.40244
347.81        26.24978
348.26        25.76426
348.72        25.07319
349.17          24.384
349.62        24.11548
350.07        24.36064
350.52        24.96613
350.97         25.7145
351.42        26.27705
351.87        26.54482
352.32          26.603
352.77         26.4975
353.22        26.30594
353.67        26.07235
354.13        25.77978
354.58        25.45274
355.03        25.17523
355.48        24.97328
355.93        24.85338
356.38        24.79058
356.83        24.72592
357.28        24.63834
357.73        24.53433
358.18        24.43035
358.63        24.35332
359.08        24.30617
359.53        24.28005
359.98        24.23284
360.43        24.10381
360.88        23.88809
361.33        23.60466
361.78        23.33125
362.23        23.19427
362.68        23.21038
363.13        23.32812
363.58        23.44846
364.03        23.41559
364.48        23.19606
364.93        22.85112
365.38        22.44311
365.83        22.07261
366.28        21.78153
366.73        21.53803
367.18        21.36726
367.63         21.3095
368.08        21.35545
368.53         21.4937
368.98        21.63449
369.43        21.63189
369.88         21.4604
370.33         21.1625
370.78        20.82928
371.23        20.62119
371.68        20.58564
372.13        20.67197
372.58        20.83019
373.03        20.97145
373.48        21.05555
373.93        21.10916
374.38        21.12072
374.83        21.07053
375.28        20.96313
375.72        20.78848
376.17         20.6109
376.62        20.49974
377.07        20.47202
377.52        20.50508
377.97        20.55931
378.42        20.56776
378.87        20.50825
379.32         20.4006
379.77        20.25884
380.22        20.10051
380.67        19.93439
381.11        19.76038
381.56        19.57773
382.01        19.39516
382.46        19.22166
382.91         19.0614
383.36        18.93322
383.81        18.86199
384.26        18.84769
384.71        18.87937
385.15        18.91377
385.60        18.90165
386.05        18.82291
386.50        18.68401
386.95        18.52254
387.40        18.40764
387.85        18.36333
388.29        18.37209
388.74        18.39385
389.19        18.34594
389.64        18.21693
390.09        18.01787
390.54        17.83183
390.98        17.79565
391.43        17.93561
391.88        18.19259
392.33        18.42126
392.78        18.40946
393.23        18.14228
393.67        17.70183
394.12        17.26905
394.57        17.03171
395.02        17.02858
395.47        17.19229
395.91        17.43939
396.36        17.59511
396.81         17.6026
397.26        17.50077
397.71        17.34356
398.15        17.19359
398.60        17.09842
399.05        17.04096
399.50        16.97995
399.95        16.81167
400.39        16.60382
400.84        16.32787
401.29        16.09066
401.74        16.04855
402.18        16.24261
402.63        16.59742
403.08        16.98623
403.53        17.20637
403.97         17.2045
404.42        17.03737
404.87        16.78543
405.32        16.59337
405.76        16.50916
406.21        16.49249
406.66        16.51151
407.11        16.52672
407.55        16.52727
408.00        16.52678
408.45        16.51867
408.90        16.47598
409.34        16.39746
409.79        16.29125
410.24         16.1918
410.68        16.14871
411.13        16.17393
411.58        16.25573
412.03        16.36182
412.47        16.43637
412.92         16.4494
413.37        16.41581
413.81        16.36787
414.26        16.37325
414.71        16.43481
415.15        16.53265
415.60        16.60744
416.05         16.5843
416.49        16.44964
416.94        16.24547
417.39        16.02094
417.83        15.85932
418.28        15.79617
418.73        15.79631
419.17        15.85364
419.62        15.95069
420.07         16.0724
420.51        16.22389
420.96        16.34729
421.41        16.34227
421.85         16.1919
422.30        15.95017
422.74        15.69941
423.19        15.59417
423.64        15.64689
424.08        15.82335
424.53         16.0359
424.98        16.15817
425.42        16.15468
425.87        16.05523
426.31        15.90875
426.76        15.83822
427.21        15.84586
427.65        15.79027
428.10        15.72905
428.54        15.85185
428.99         16.1603
429.44        16.57038
429.88        16.91317
430.33        16.97739
430.77        16.73189
431.22         16.2437
431.66        15.72641
432.11        15.57028
432.56        15.80912
433.00        16.24767
433.45        16.67546
433.89        16.93564
434.34          16.907
434.78         16.4977
435.23        15.99724
435.67         15.9628
436.12        16.35005
436.57        16.58205
437.01        16.55942
437.46        16.53172
437.90        16.51412
438.35        16.43181
438.79         16.3175
439.24        16.26938
439.68        16.31064
440.13        16.34439
440.57        16.36617
441.02        16.59208
441.46        16.88233
441.91        16.66781
442.35        16.08905
442.80        15.82705
443.24        15.86991
443.69        15.96018
444.13        16.01836
444.58        15.91529
445.02        15.70222
445.47        15.73453
445.91        15.95743
446.36        15.99123
446.80        15.81295
447.24        15.63839
447.69        15.52331
448.13        15.45173
448.58        15.44541
449.02        15.50861
449.47        15.59499
449.91        15.62513
450.36        15.58469
450.80        15.49039
451.25        15.40129
451.69        15.39857
452.13        15.49754
452.58        15.65427
453.02        15.81096
453.47        15.87777
453.91        15.83745
454.36        15.72692
454.80        15.57699
455.24        15.43857
455.69        15.34471
456.13        15.27336
456.58        15.25732
457.02        15.32094
457.46        15.46533
457.91        15.67316
458.35        15.88242
458.79         15.9866
459.24         15.9732
459.68        15.85814
460.13        15.71845
460.57        15.63655
461.01         15.6516
461.46        15.73173
461.90        15.83698
462.34        15.89465
462.79        15.88295
463.23        15.81895
463.68        15.75288
464.12        15.76932
464.56        15.88469
465.01        16.07603
465.45        16.23856
465.89        16.27856
466.34         16.1934
466.78        15.92946
467.22        15.62123
467.67        15.64268
468.11        15.94912
468.55        16.06451
468.99        15.95403
469.44        15.88477
469.88        15.91453
470.32        16.09015
470.77        16.33579
471.21        16.40827
471.65        16.27657
472.10          16.114
472.54        15.98402
472.98         15.9365
473.42        15.99608
473.87         16.1515
474.31        16.33428
474.75        16.43172
475.20        16.42353
475.64        16.33632
476.08        16.23363
476.52        16.21195
476.97        16.29426
477.41        16.45274
477.85        16.62533
478.29        16.74463
478.74        16.79293
479.18        16.71011
479.62        16.55975
480.06        16.71884
480.50        16.85821
480.95        17.00756
481.39        17.01631
481.83         17.0044
482.27        16.96803
482.72        16.77715
483.16        16.52939
483.60        16.58216
484.04         16.9396
484.48        17.16795
484.93        17.44663
485.37        17.80592
485.81        18.19107
486.25        18.54372
486.69        24.51644
487.14        19.70076
487.58        12.70243
488.02        15.69161
488.46        17.71628
488.90        17.81889
489.34        17.75076
489.79        17.53831
490.23        18.42083
490.67         19.0579
491.11        19.16545
491.55        19.10834
491.99        18.85771
492.43         18.6599
492.88        18.59862
493.32         18.6242
493.76        18.62375
494.20        18.80733
494.64         19.1221
495.08        19.50837
495.52        19.90655
495.96        20.24969
496.41           20.46
496.85        20.53351
497.29        20.50313
497.73        20.22239
498.17        19.95015
498.61        20.16737
499.05        20.85788
499.49        21.01454
499.93        21.12869
500.37        21.24238
500.82         21.3006
501.26        21.51854
501.70        21.79055
502.14        21.93536
502.58         21.9329
503.02        21.96265
503.46        22.03312
503.90        22.03071
504.34        21.98255
504.78         21.9869
505.22        22.05688
505.66        22.17136
506.10        22.29472
506.54        22.36511
506.98        22.36913
507.42        22.32833
507.86        22.29256
508.30        22.33809
508.74        22.47694
509.18        22.67857
509.62        22.89058
510.06        23.02693
510.50        23.06743
510.94        23.04874
511.38        23.00075
511.82        22.97015
512.26        22.97478
512.70        22.99087
513.14        23.03851
513.58        23.15162
514.02        23.31598
514.46        23.51629
514.90         23.6792
515.34        23.65379
515.78        23.39409
516.22        23.09883
516.66        22.88055
517.10        22.48422
517.54        21.94708
517.98         22.8124
518.42        22.73218
518.86        23.12165
519.30        23.25902
519.74        23.38536
520.18        23.48203
520.62        23.49079
521.06        23.43794
521.50        23.31322
521.93        23.16019
522.37        23.06392
522.81        23.04432
523.25        23.08446
523.69        23.15082
524.13        23.18689
524.57         23.1753
525.01        23.12985
525.45        23.06844
525.89        23.02061
526.32        22.99086
526.76        22.96867
527.20        22.93151
527.64        22.85399
528.08        22.73782
528.52        22.57545
528.96        22.39007
529.40        22.27793
529.83        22.26313
530.27        22.09313
530.71        22.17736
531.15        22.12076
531.59        22.04605
532.03        21.95184
532.46        21.88412
532.90        21.91615
533.34        22.04571
533.78        22.23897
534.22        22.41982
534.66        22.47942
535.09        22.39173
535.53        22.20235
535.97        21.96545
536.41        21.77275
536.85         21.6586
537.28        21.60401
537.72        21.59451
538.16        21.60544
538.60          21.628
539.04        21.65664
539.47          21.699
539.91        21.81913
540.35        21.99245
540.79        22.11753
541.22        22.18896
541.66        22.29016
542.10        22.41826
542.54        22.51363
542.97        22.58914
543.41        22.70424
543.85        22.86204
544.29        23.06167
544.72        23.25348
545.16        23.36869
545.60         23.3973
546.04        23.35542
546.47        23.33898
546.91        23.50974
547.35        23.87915
547.79        24.39652
548.22        24.90682
548.66        25.14696
549.10        25.08313
549.53        24.83878
549.97        24.57663
550.41        24.48591
550.84        24.62774
551.28         24.9551
551.72        25.38575
552.15        25.76768
552.59        26.03906
553.03        26.23966
553.46        26.38015
553.90        26.49861
554.34        26.61474
554.77        26.68508
555.21        26.71314
555.65        26.79145
556.08        26.94089
556.52        26.81558
556.96        27.04726
557.39        27.13228
557.83        27.26283
558.27        27.41005
558.70        27.57223
559.14        27.73026
559.57        27.86405
560.01         27.9886
560.45        28.07783
560.88        28.09212
561.32        28.05345
561.75        27.96218
562.19        27.88027
562.63         27.8634
563.06         27.9208
563.50        28.04206
563.93        28.19411
564.37        28.33713
564.80        28.44688
565.24        28.54497
565.68        28.62946
566.11        28.70045
566.55        28.78189
566.98        28.86455
567.42        28.97392
567.85        29.14064
568.29        29.38481
568.72        29.62094
569.16        29.88498
569.60        30.24896
570.03        30.55991
570.47        30.64627
570.90         30.6825
571.34        29.97997
571.77         30.7243
572.21        30.84438
572.64        31.00309
573.08        30.59714
573.51        29.48603
573.95        30.81275
574.38        32.95301
574.82        32.06435
