SpectraSmart Spectrum 2.9.0.0
--------- Device Information -----------
Spectrum Name :  反射率_0
Saving Time :  2024/04/26 00:45:39
Spectro-Module Model Name : SE2030-DUVN
Spectro-Module Serial Number : OS361AC55029948
Wavelength Start : 200
Wavelength End : 1025
Wavelength Unit : Wavelength(nm)
Spectrum Unit : Reflectance(%)
-----------Spectrum Setting ------------
Integration Time : 20ms
Average : 10
Boxcar : 0
Background removal :  enabled
linearity correction :  enabled
SC :  disabled
Intensity correction :  disabled
DWT denoise :  enabled
savitzky-golay :  disabled
FFT :  disabled
Running average :  disabled
Kalman :  disabled
High pass :  disabled
---------------BEGIN--------------------
Wavelength(nm)             Reflectance(%)
200.29               0
200.75        90.66582
201.21        86.28468
201.67        79.72452
202.13        74.90052
202.58        72.61586
203.04        72.12331
203.50        72.59624
203.96        72.87734
204.42         72.5915
204.88        72.10363
205.34        72.01649
205.80        73.05551
206.26        75.77316
206.72        81.69743
207.18        92.16367
207.64        97.48105
208.10        84.63612
208.55        67.91574
209.01        58.90738
209.47        56.96775
209.93        59.16525
210.39        64.54058
210.85        70.90237
211.31        73.18015
211.77        69.74644
212.23        62.49183
212.69        55.33508
213.14        54.44335
213.60        60.72054
214.06        72.20729
214.52         84.9513
214.98         92.9833
215.44          94.616
215.90        91.76364
216.36        86.72183
216.81        82.56653
217.27        80.57693
217.73        79.81634
218.19        78.94515
218.65        76.08993
219.11        70.33821
219.57        60.92492
220.02        49.11488
220.48        42.40574
220.94        44.94572
221.40        54.96784
221.86        64.48772
222.32        65.17766
222.77        58.18288
223.23        48.23906
223.69        40.35744
224.15        39.74156
224.61        45.73431
225.06        55.61885
225.52        65.67496
225.98        71.05997
226.44        70.83395
226.90        67.00234
227.36          62.036
227.81          59.264
228.27        59.77022
228.73        62.18504
229.19        65.28581
229.65        67.33057
230.10        67.86539
230.56        67.71626
231.02        67.45474
231.48        67.69118
231.93         68.4453
232.39        69.44017
232.85        70.32513
233.31        70.70448
233.77        70.42674
234.22        69.59952
234.68         68.3325
235.14        66.88823
235.60        65.50005
236.05        64.27665
236.51        63.13103
236.97        61.74544
237.43        59.99726
237.88        57.92608
238.34        55.92772
238.80        55.46889
239.26         57.2077
239.71        60.89581
240.17        65.07761
240.63         67.6422
241.08        67.95649
241.54        66.51134
242.00        64.09538
242.46         61.5626
242.91        58.88044
243.37        53.98521
243.83        44.07687
244.28        33.73861
244.74        60.37246
245.20        94.68667
245.66        102.8795
246.11        105.3039
246.57        107.8345
247.03         111.589
247.48        112.3849
247.94        84.26797
248.40          76.919
248.85        77.55422
249.31        79.06497
249.77        80.62277
250.22        82.53572
250.68        85.54414
251.14        89.21187
251.59        89.65176
252.05        84.44299
252.51        76.06779
252.96        68.37286
253.42        64.84208
253.88        64.70908
254.33        66.60763
254.79        70.08338
255.25         73.8019
255.70        76.94727
256.16        79.90784
256.62        81.55684
257.07        80.75829
257.53        78.22778
257.99        74.18372
258.44        70.20737
258.90        68.99605
259.35        69.57679
259.81        70.98965
260.27        71.21538
260.72         68.3129
261.18         63.2191
261.63        56.90249
262.09        51.32756
262.55        48.07878
263.00        46.98516
263.46        47.24162
263.91        47.62716
264.37        47.16246
264.83        45.68222
265.28        43.50947
265.74         41.3512
266.19        39.99658
266.65        39.69161
267.11        39.96968
267.56         40.2746
268.02        39.98753
268.47        38.98777
268.93        37.53304
269.38        35.91735
269.84        34.84475
270.30        34.51166
270.75        34.71672
271.21        35.12508
271.66        35.24567
272.12        34.93364
272.57        34.32832
273.03        33.67841
273.48        33.26418
273.94         33.1769
274.39        33.26789
274.85        33.34116
275.31        33.09948
275.76        32.48877
276.22        31.66008
276.67        30.80883
277.13        30.31705
277.58        30.18375
278.04        30.30322
278.49        30.41474
278.95        30.22838
279.40        29.66337
279.86        28.90432
280.31        28.06892
280.77        27.45193
281.22        27.07942
281.68         26.8852
282.13        26.79217
282.59        26.74281
283.04        26.68498
283.50        26.66449
283.95         26.6068
284.41        26.42344
284.86        26.09206
285.32        25.64725
285.77        25.18917
286.22        24.93996
286.68        24.91652
287.13        25.03526
287.59        25.13383
288.04        24.95245
288.50        24.47996
288.95        23.79573
289.41        23.09337
289.86        22.55291
290.32        22.27279
290.77        22.16479
291.22        22.18692
291.68        22.23893
292.13        22.28822
292.59        22.36707
293.04        22.48481
293.50        22.65881
293.95        22.87888
294.40        23.10685
294.86        23.32252
295.31        23.50792
295.77        23.66604
296.22        23.81833
296.68        23.95841
297.13        24.04477
297.58        24.10146
298.04        24.15997
298.49        24.30815
298.95        24.71585
299.40        25.38742
299.85        26.25257
300.31        27.15903
300.76        27.87772
301.21        28.32941
301.67        28.60292
302.12        28.74031
302.58        28.86306
303.03        28.99666
303.48        29.11768
303.94         29.2957
304.39        29.60412
304.84         30.0482
305.30        30.59866
305.75        31.11244
306.20        31.37564
306.66        31.37042
307.11         31.1529
307.57        30.88013
308.02        30.71488
308.47        30.73063
308.93        30.87324
309.38          31.085
309.83        31.30569
310.29        31.49438
310.74        31.65896
311.19        31.78411
311.65        31.84248
312.10        31.82831
312.55         31.7479
313.00         31.5974
313.46        31.38693
313.91         31.1263
314.36        30.83986
314.82        30.59955
315.27         30.4949
315.72        30.54589
316.18        30.72143
316.63        30.94562
317.08        31.06847
317.53         31.0446
317.99        30.90164
318.44        30.71645
318.89        30.61758
319.35         30.6275
319.80        30.71225
320.25        30.77758
320.70         30.6741
321.16         30.3753
321.61        29.93742
322.06        29.47484
322.51        29.15598
322.97         29.0127
323.42        29.00985
323.87        29.04879
324.32        28.96494
324.78        28.71525
325.23        28.35654
325.68        27.98409
326.13        27.75583
326.59        27.70543
327.04        27.79958
327.49        27.94352
327.94        27.98628
328.39        27.88592
328.85        27.67708
329.30         27.4666
329.75        27.39571
330.20        27.50339
330.66        27.72073
331.11        27.98127
331.56        28.13442
332.01         28.1336
332.46        28.00891
332.92        27.80649
333.37        27.64747
333.82        27.56479
334.27        27.54389
334.72        27.53068
335.17        27.43478
335.63        27.23956
336.08        26.98609
336.53         26.7767
336.98        26.77357
337.43         27.0028
337.88        27.41288
338.34        27.83664
338.79        28.05074
339.24        27.97539
339.69        27.67537
340.14        27.31774
340.59        27.19701
341.05        27.37478
341.50        27.74763
341.95        28.15795
342.40        28.37901
342.85        28.35889
343.30        28.18873
343.75        27.92552
344.20        27.66912
344.66        27.46935
345.11        27.26214
345.56        27.10796
346.01        27.09693
346.46        27.22087
346.91        27.46912
347.36        27.66817
347.81        27.53551
348.26         27.0457
348.72        26.32492
349.17        25.59557
349.62         25.3042
350.07        25.55372
350.52        26.18943
350.97        26.98609
351.42         27.5988
351.87        27.91622
352.32        28.03007
352.77        27.99216
353.22        27.89028
353.67        27.76419
354.13         27.5805
354.58        27.35563
355.03        27.16415
355.48        27.02565
355.93        26.95288
356.38        26.89936
356.83        26.77308
357.28        26.55769
357.73        26.27648
358.18        26.00659
358.63        25.86869
359.08        25.88227
359.53        26.00829
359.98        26.13729
360.43        26.10214
360.88        25.86874
361.33        25.48323
361.78        25.07006
362.23         24.8334
362.68        24.81369
363.13        24.93883
363.58        25.07451
364.03        25.01029
364.48         24.7041
364.93        24.24126
365.38        23.72893
365.83        23.33536
366.28        23.11532
366.73        23.00966
367.18        22.99538
367.63        23.03555
368.08        23.09734
368.53        23.19216
368.98        23.25886
369.43        23.19656
369.88        22.99569
370.33        22.68577
370.78        22.35108
371.23        22.14295
371.68         22.1033
372.13         22.1841
372.58        22.33825
373.03        22.47838
373.48        22.56296
373.93         22.6185
374.38        22.61857
374.83        22.52109
375.28        22.33238
375.72        22.05448
376.17        21.78399
376.62        21.64302
377.07        21.65909
377.52        21.78902
377.97        21.96535
378.42        22.07406
378.87        22.07664
379.32        22.00876
379.77        21.88395
380.22        21.72013
380.67        21.53338
381.11        21.32131
381.56        21.11121
382.01        20.96074
382.46        20.88224
382.91         20.8594
383.36        20.86616
383.81        20.85334
384.26        20.80482
384.71        20.73928
385.15        20.64148
385.60        20.50451
386.05        20.32385
386.50        20.09236
386.95        19.86709
387.40        19.75074
387.85        19.76359
388.29        19.87088
388.74        19.98678
389.19        19.96218
389.64        19.78004
390.09        19.47496
390.54        19.16785
390.98        19.06287
391.43        19.20894
391.88        19.52429
392.33        19.84657
392.78        19.93841
393.23        19.76952
393.67        19.42272
394.12        19.07268
394.57        18.89487
395.02         18.9286
395.47        19.10962
395.91        19.35872
396.36        19.50837
396.81        19.50859
397.26        19.39886
397.71         19.2419
398.15        19.11058
398.60        19.05272
399.05        19.04386
399.50        19.03123
399.95         18.8898
400.39        18.69263
400.84        18.40935
401.29        18.14871
401.74        18.06775
402.18        18.21216
402.63         18.5074
403.08        18.84097
403.53        19.02997
403.97        19.02597
404.42        18.88393
404.87        18.66924
405.32        18.49885
405.76        18.41251
406.21        18.37623
406.66        18.37753
407.11        18.40669
407.55        18.45945
408.00        18.54307
408.45        18.62354
408.90        18.62132
409.34        18.52129
409.79        18.34764
410.24        18.18074
410.68        18.13597
411.13        18.23709
411.58        18.45307
412.03        18.70436
412.47        18.85026
412.92        18.83455
413.37        18.70044
413.81         18.5303
414.26        18.46897
414.71        18.53869
415.15        18.69649
415.60        18.84819
416.05        18.86393
416.49        18.71463
416.94        18.45886
417.39        18.17346
417.83        17.98542
418.28        17.94193
418.73        17.99299
419.17        18.10323
419.62        18.21578
420.07         18.3077
420.51        18.39802
420.96        18.46058
421.41        18.44619
421.85        18.34843
422.30        18.20517
422.74        18.06013
423.19        18.02154
423.64        18.09225
424.08        18.25001
424.53         18.4394
424.98        18.59438
425.42        18.69273
425.87        18.73959
426.31        18.73162
426.76        18.72056
427.21        18.68817
427.65        18.49684
428.10        18.26797
428.54        18.31423
428.99          18.663
429.44        19.18655
429.88        19.65182
430.33        19.76004
430.77        19.46246
431.22        18.86105
431.66        18.21765
432.11        18.00975
432.56        18.28539
433.00        18.77773
433.45        19.25221
433.89        19.62634
434.34        19.72202
434.78         19.2419
435.23        18.55347
435.67        18.49232
436.12        19.00905
436.57        19.32528
437.01         19.3089
437.46        19.27576
437.90        19.24034
438.35        19.11774
438.79          18.938
439.24        18.79878
439.68        18.73551
440.13        18.65052
440.57        18.58791
441.02        18.86829
441.46         19.3421
441.91        19.31927
442.35        18.88338
442.80        18.73582
443.24        18.85044
443.69        18.94842
444.13         18.9528
444.58        18.74201
445.02        18.40005
445.47        18.33863
445.91         18.5118
446.36        18.51118
446.80        18.31792
447.24        18.17659
447.69        18.12714
448.13        18.10921
448.58        18.13224
449.02         18.2054
449.47        18.28722
449.91        18.30867
450.36        18.25876
450.80        18.15235
451.25        18.03878
451.69        17.98403
452.13        18.00761
452.58        18.07745
453.02        18.16435
453.47        18.22229
453.91        18.23983
454.36        18.23785
454.80        18.21651
455.24        18.17178
455.69        18.11999
456.13        18.05432
456.58        18.02306
457.02        18.07217
457.46        18.21278
457.91        18.41746
458.35        18.63204
458.79        18.76551
459.24        18.80509
459.68        18.76306
460.13         18.6925
460.57          18.633
461.01        18.62005
461.46        18.63639
461.90        18.67417
462.34        18.71455
462.79        18.74572
463.23        18.76741
463.68        18.80198
464.12        18.88665
464.56        19.02217
465.01        19.20842
465.45        19.34635
465.89        19.36173
466.34        19.26077
466.78        18.96272
467.22        18.62621
467.67        18.69695
468.11        19.11843
468.55        19.32299
468.99        19.24416
469.44        19.16528
469.88        19.15271
470.32        19.27601
470.77        19.47772
471.21        19.52277
471.65        19.39062
472.10        19.26916
472.54        19.21276
472.98        19.24139
473.42        19.36933
473.87        19.59359
474.31        19.83474
474.75        19.96485
475.20        19.96295
475.64         19.8573
476.08        19.72581
476.52        19.68846
476.97        19.77535
477.41         19.9538
477.85        20.15303
478.29        20.29658
478.74        20.36322
479.18        20.27931
479.62        20.11453
480.06        20.31332
480.50        20.47489
480.95        20.64327
481.39         20.6425
481.83         20.6261
482.27        20.59095
482.72        20.37511
483.16        20.09271
483.60        20.17076
484.04        20.64156
484.48        20.91757
484.93        21.18335
485.37        21.62696
485.81        22.30507
486.25         22.0446
486.69        30.55355
487.14        24.26892
487.58        15.58182
488.02        18.99138
488.46        21.65985
488.90        21.54228
489.34        21.89147
489.79        21.59361
490.23        22.48522
490.67        23.03627
491.11        22.99453
491.55        22.91407
491.99        22.72852
492.43        22.53351
492.88        22.41264
493.32        22.47219
493.76        22.54914
494.20         22.7604
494.64         23.0311
495.08        23.33465
495.52        23.65602
495.96        23.98642
496.41        24.24882
496.85        24.44958
497.29         24.5709
497.73        24.25069
498.17        23.82242
498.61        24.09699
499.05        25.04257
499.49         25.2319
499.93         25.2449
500.37        25.25982
500.82        25.24586
501.26         25.4515
501.70        25.76045
502.14        25.96385
502.58        26.00497
503.02        26.04019
503.46        26.06779
503.90        25.96867
504.34         25.8122
504.78        25.76848
505.22        25.85559
505.66        26.06086
506.10        26.31881
506.54        26.40777
506.98        26.27322
507.42        26.40003
507.86         26.1174
508.30        26.16123
508.74        26.33282
509.18        26.59917
509.62        26.88272
510.06        27.07326
510.50        27.14483
510.94        27.13542
511.38        27.07653
511.82         27.0146
512.26        26.97231
512.70        26.92904
513.14        26.91665
513.58        26.99037
514.02        27.14311
514.46        27.35421
514.90        27.54909
515.34        27.57424
515.78        27.37955
516.22        27.15525
516.66        26.99422
517.10        26.63371
517.54        26.10658
517.98        26.87976
518.42        26.75269
518.86         27.1038
519.30        27.25628
519.74          27.426
520.18        27.57606
520.62        27.61889
521.06        27.57106
521.50         27.4366
521.93        27.26364
522.37        27.14334
522.81        27.10218
523.25        27.11992
523.69        27.17816
524.13        27.24469
524.57        27.30344
525.01        27.36086
525.45        27.40718
525.89        27.42531
526.32        27.40922
526.76        27.36288
527.20        27.29027
527.64         27.2104
528.08        27.13668
528.52        27.04113
528.96        26.92892
529.40        26.88184
529.83        26.91655
530.27        26.73721
530.71        26.84583
531.15        26.77489
531.59        26.67751
532.03        26.54928
532.46        26.44527
532.90        26.45201
533.34        26.57204
533.78        26.77218
534.22        26.96903
534.66        27.04087
535.09        26.95823
535.53         26.7712
535.97        26.54177
536.41        26.37543
536.85        26.30808
537.28        26.31484
537.72        26.36658
538.16        26.41702
538.60        26.45238
539.04         26.4698
539.47        26.49162
539.91        26.61804
540.35        26.82394
540.79        26.97944
541.22        27.07013
541.66        27.18519
542.10        27.31771
542.54        27.40186
542.97         27.4551
543.41        27.55127
543.85        27.69552
544.29        27.88271
544.72        28.06079
545.16        28.15949
545.60        28.16788
546.04        28.10522
546.47        28.06699
546.91        28.21503
547.35        28.56013
547.79        29.05086
548.22        29.53694
548.66        29.76113
549.10        29.69197
549.53        29.45972
549.97        29.21236
550.41        29.10649
550.84        29.20052
551.28        29.45772
551.72        29.82636
552.15          30.202
552.59        30.53056
553.03        30.83686
553.46        31.08885
553.90         31.2597
554.34        31.35428
554.77        31.38175
555.21        31.29272
555.65         31.3399
556.08        31.52642
556.52         31.3863
556.96         31.6392
557.39         31.7073
557.83        31.81157
558.27        31.90486
558.70        32.01136
559.14        32.16161
559.57        32.34069
560.01        32.54903
560.45        32.72611
560.88        32.77934
561.32          32.724
561.75        32.57743
562.19         32.4389
562.63        32.41464
563.06        32.52276
563.50        32.73334
563.93        32.98661
564.37        33.20393
564.80        33.34622
565.24        33.45093
565.68        33.52274
566.11        33.57113
566.55        33.63166
566.98        33.69455
567.42        33.79512
567.85        33.98114
568.29        34.27739
568.72        34.57187
569.16        34.89589
569.60        35.35791
570.03        35.78358
570.47        35.88836
570.90        35.82202
571.34        35.16888
571.77        35.85566
572.21        35.88051
572.64        35.80627
573.08        35.68889
573.51        34.14056
573.95        35.70499
574.38        38.11853
574.82        37.30942
