SpectraSmart Spectrum 2.9.0.0
--------- Device Information -----------
Spectrum Name :  反射率_0
Saving Time :  2024/04/25 22:48:32
Spectro-Module Model Name : SE2030-DUVN
Spectro-Module Serial Number : OS361AC55029948
Wavelength Start : 200
Wavelength End : 1025
Wavelength Unit : Wavelength(nm)
Spectrum Unit : Reflectance(%)
-----------Spectrum Setting ------------
Integration Time : 20ms
Average : 10
Boxcar : 0
Background removal :  enabled
linearity correction :  enabled
SC :  disabled
Intensity correction :  disabled
DWT denoise :  enabled
savitzky-golay :  disabled
FFT :  disabled
Running average :  disabled
Kalman :  disabled
High pass :  disabled
---------------BEGIN--------------------
Wavelength(nm)             Reflectance(%)
200.29               0
200.75        86.95235
201.21        82.21912
201.67        77.26839
202.13        75.03769
202.58        75.80994
203.04        78.97733
203.50        82.96358
203.96        85.04228
204.42        84.63164
204.88        82.85979
205.34        81.22562
205.80        81.36563
206.26        84.07737
206.72        90.90321
207.18        104.9155
207.64        118.9348
208.10        113.6766
208.55        98.24928
209.01        87.69711
209.47        83.41335
209.93        82.60614
210.39        83.88289
210.85        85.05745
211.31         82.1191
211.77        74.49858
212.23        64.04762
212.69        54.93732
213.14        53.51519
213.60        60.54498
214.06        74.14032
214.52        89.56142
214.98        99.43337
215.44        101.7443
215.90        98.77724
216.36        93.33541
216.81        89.30227
217.27        88.16497
217.73        88.65279
218.19        89.43475
218.65        88.87962
219.11        86.35244
219.57        81.53477
220.02        75.75359
220.48        74.54576
220.94        79.97245
221.40        89.93236
221.86        97.26682
222.32         95.1503
222.77        85.36725
223.23        72.84023
223.69        62.74967
224.15        60.46352
224.61        65.23795
225.06        74.24527
225.52        83.65031
225.98        88.39191
226.44        87.47762
226.90        82.93586
227.36        77.28564
227.81        73.92214
228.27        73.94179
228.73        75.93794
229.19        78.65359
229.65        80.29307
230.10        80.44881
230.56        80.09234
231.02        79.78091
231.48         80.1385
231.93        81.15212
232.39        82.46457
232.85        83.84892
233.31         85.1254
233.77        86.14546
234.22        87.03487
234.68        87.35534
235.14        86.35188
235.60        84.00845
236.05        80.68707
236.51        77.28965
236.97        74.93713
237.43        73.81813
237.88        73.82982
238.34        74.44938
238.80         74.6804
239.26        73.95725
239.71        72.74612
240.17        71.09579
240.63        69.76837
241.08        69.16599
241.54        68.99001
242.00        69.24207
242.46        69.92159
242.91        71.42036
243.37        74.67533
243.83         84.7793
244.28        119.6733
244.74        162.2076
245.20        141.6606
245.66        121.5158
246.11        116.2884
246.57        120.3163
247.03        138.4968
247.48        191.4991
247.94        158.7426
248.40        100.6945
248.85        83.37465
249.31        79.08407
249.77        80.55545
250.22        85.99709
250.68        96.17302
251.14        110.8332
251.59         120.435
252.05        115.4855
252.51        100.3605
252.96        84.25081
253.42        75.72614
253.88        74.22838
254.33        76.69012
254.79        81.74404
255.25        86.87261
255.70        90.79877
256.16         94.4112
256.62        96.64812
257.07        96.33488
257.53        94.29079
257.99        90.65537
258.44        86.82776
258.90        85.49197
259.35        85.63984
259.81        86.46248
260.27        86.18956
260.72        83.10237
261.18        78.13914
261.63        72.08353
262.09        66.60848
262.55        62.86678
263.00        60.77959
263.46        59.86469
263.91        59.24003
264.37        58.37329
264.83        57.01152
265.28        55.26143
265.74        53.51653
266.19        52.04287
266.65        51.11395
267.11        50.54819
267.56        50.03878
268.02        49.26396
268.47        48.09876
268.93         46.6636
269.38        45.23057
269.84        44.47218
270.30        44.51706
270.75        45.16153
271.21        45.87885
271.66        45.87824
272.12        45.00781
272.57        43.51819
273.03        41.94816
273.48        41.01595
273.94        40.90897
274.39        41.31459
274.85        41.85158
275.31        41.92806
275.76        41.39293
276.22        40.49778
276.67        39.45663
277.13        38.69798
277.58        38.25039
278.04        38.01302
278.49        37.77208
278.95        37.33819
279.40        36.62991
279.86        35.81064
280.31        34.95296
280.77        34.29385
281.22        33.83117
281.68        33.52807
282.13        33.29138
282.59        33.05594
283.04        32.77401
283.50        32.50995
283.95        32.22617
284.41         31.9056
284.86        31.53261
285.32        31.11551
285.77        30.72227
286.22        30.53278
286.68        30.54325
287.13        30.67282
287.59        30.73978
288.04        30.44738
288.50        29.79291
288.95        28.86587
289.41        27.91304
289.86        27.18376
290.32        26.79728
290.77        26.64653
291.22        26.65339
291.68        26.65713
292.13        26.60901
292.59        26.55975
293.04        26.55038
293.50        26.65203
293.95        26.85956
294.40        27.10798
294.86        27.33538
295.31        27.46094
295.77         27.4723
296.22        27.41027
296.68        27.29652
297.13        27.13688
297.58        26.97434
298.04        26.83168
298.49        26.78835
298.95          26.999
299.40         27.4628
299.85        28.11864
300.31        28.81959
300.76        29.34482
301.21         29.6151
301.67        29.70861
302.12         29.6629
302.58        29.59478
303.03        29.52497
303.48         29.4371
303.94        29.38441
304.39        29.41521
304.84        29.54047
305.30        29.74418
305.75        29.93481
306.20        29.97787
306.66         29.8675
307.11        29.63328
307.57        29.37134
308.02        29.15393
308.47        29.03152
308.93        28.97547
309.38        28.96951
309.83        29.01928
310.29        29.10341
310.74        29.21196
311.19        29.29996
311.65        29.29622
312.10         29.1843
312.55         28.9823
313.00        28.71913
313.46        28.45615
313.91        28.21145
314.36        27.98978
314.82        27.81205
315.27         27.6939
315.72        27.64074
316.18        27.64557
316.63        27.68583
317.08        27.70116
317.53         27.6694
317.99           27.59
318.44         27.4924
318.89        27.42877
319.35        27.40189
319.80         27.4027
320.25        27.36911
320.70        27.20434
321.16        26.90026
321.61        26.49488
322.06        26.08528
322.51        25.81648
322.97        25.70939
323.42        25.72891
323.87        25.78173
324.32        25.71042
324.78        25.47219
325.23        25.12191
325.68         24.7326
326.13        24.42611
326.59        24.23845
327.04        24.15365
327.49        24.13236
327.94         24.1129
328.39        24.07434
328.85        24.02424
329.30        24.01548
329.75        24.09798
330.20        24.27464
330.66        24.49989
331.11        24.71872
331.56        24.80449
332.01        24.72612
332.46        24.50591
332.92        24.21721
333.37        24.02523
333.82        23.97888
334.27        24.05667
334.72        24.17416
335.17        24.18128
335.63        24.03709
336.08        23.78902
336.53        23.54943
336.98        23.49992
337.43        23.67584
337.88        24.02322
338.34         24.3734
338.79        24.49913
339.24        24.32655
339.69        23.92859
340.14        23.49819
340.59        23.36899
341.05         23.6052
341.50        24.08426
341.95        24.60948
342.40        24.89834
342.85        24.88455
343.30        24.67376
343.75        24.33731
344.20         24.0039
344.66        23.73731
345.11        23.46699
345.56        23.26219
346.01        23.22487
346.46        23.34726
346.91        23.62024
347.36        23.85215
347.81        23.72901
348.26        23.21899
348.72        22.45471
349.17        21.68079
349.62         21.3834
350.07        21.67213
350.52        22.37681
350.97         23.2428
351.42        23.88121
351.87        24.17187
352.32        24.22253
352.77        24.10942
353.22        23.95818
353.67        23.82047
354.13        23.65217
354.58        23.45736
355.03        23.28998
355.48        23.16271
355.93        23.09392
356.38        23.04453
356.83        22.93316
357.28        22.74481
357.73        22.49733
358.18         22.2563
358.63        22.12598
359.08        22.12396
359.53        22.21831
359.98        22.31543
360.43        22.27202
360.88        22.06015
361.33        21.72021
361.78        21.36408
362.23        21.17404
362.68        21.18517
363.13        21.33237
363.58         21.4907
364.03        21.46589
364.48        21.21684
364.93        20.81657
365.38        20.36574
365.83        20.02312
366.28        19.83958
366.73        19.76411
367.18        19.76038
367.63        19.76997
368.08        19.76257
368.53        19.75689
368.98        19.73592
369.43        19.66632
369.88        19.54843
370.33        19.39248
370.78        19.22277
371.23        19.08934
371.68        19.00756
372.13        18.95585
372.58        18.94702
373.03        18.99811
373.48        19.09657
373.93        19.23563
374.38        19.33734
374.83          19.281
375.28        19.05379
375.72         18.6866
376.17        18.31227
376.62        18.10786
377.07        18.11945
377.52        18.28754
377.97        18.52428
378.42         18.6842
378.87        18.71904
379.32        18.67366
379.77        18.57558
380.22        18.46412
380.67        18.35532
381.11        18.23171
381.56        18.10193
382.01        17.99397
382.46        17.91395
382.91         17.8629
383.36        17.82158
383.81        17.75136
384.26        17.64787
384.71         17.5286
385.15        17.40792
385.60        17.31899
386.05        17.25893
386.50        17.20521
386.95        17.16093
387.40         17.1329
387.85        17.11965
388.29        17.12462
388.74        17.11133
389.19        17.00326
389.64        16.79708
390.09        16.50511
390.54        16.23028
390.98        16.14664
391.43         16.2925
391.88        16.60013
392.33        16.91117
392.78        16.99139
393.23        16.81272
393.67        16.45568
394.12        16.09533
394.57        15.91811
395.02        15.96345
395.47        16.16541
395.91        16.43394
396.36        16.58567
396.81        16.56501
397.26        16.41672
397.71        16.21742
398.15        16.06334
398.60        16.00335
399.05        16.00713
399.50        16.00881
399.95        15.87238
400.39        15.65549
400.84        15.34512
401.29        15.06008
401.74         14.9817
402.18         15.1609
402.63        15.51371
403.08        15.91272
403.53        16.15428
403.97        16.18225
404.42        16.05723
404.87        15.84584
405.32        15.66774
405.76        15.56855
406.21        15.51557
406.66        15.50141
407.11        15.52353
407.55        15.57701
408.00        15.66392
408.45        15.75537
408.90        15.77975
409.34        15.71813
409.79        15.59246
410.24         15.4514
410.68        15.36466
411.13        15.35262
411.58        15.39907
412.03        15.47723
412.47        15.54218
412.92         15.5659
413.37        15.55921
413.81        15.54731
414.26        15.58448
414.71        15.66867
415.15        15.78344
415.60        15.86235
416.05        15.82082
416.49        15.64573
416.94        15.38088
417.39        15.09696
417.83        14.91411
418.28        14.87533
418.73        14.93526
419.17        15.05751
419.62        15.17785
420.07        15.27242
420.51        15.35986
420.96        15.41091
421.41        15.37381
421.85        15.24352
422.30        15.05532
422.74        14.86477
423.19        14.78866
423.64        14.83219
424.08        14.97232
424.53        15.13911
424.98        15.23652
425.42        15.23813
425.87        15.16391
426.31        15.04615
426.76        14.98075
427.21        14.96495
427.65        14.87269
428.10        14.77129
428.54         14.8607
428.99         15.1463
429.44        15.53776
429.88        15.87114
430.33        15.93976
430.77        15.71496
431.22        15.26701
431.66        14.78449
432.11        14.63413
432.56        14.85107
433.00        15.19135
433.45        15.49308
433.89        15.83288
434.34        16.03864
434.78        15.65741
435.23        14.99607
435.67        14.88883
436.12        15.29603
436.57        15.49982
437.01        15.40264
437.46         15.3232
437.90        15.27983
438.35        15.18267
438.79        15.05623
439.24        14.98164
439.68        14.97769
440.13        14.96058
440.57        14.93646
441.02        15.11485
441.46        15.36924
441.91        15.17707
442.35          14.651
442.80        14.39032
443.24         14.3801
443.69        14.39523
444.13          14.377
444.58        14.23391
445.02        14.02031
445.47        14.04678
445.91        14.25882
446.36        14.30907
446.80        14.17092
447.24        14.03753
447.69        13.95525
448.13        13.90285
448.58        13.89793
449.02        13.94409
449.47          14.001
449.91          14.001
450.36        13.93459
450.80        13.81871
451.25         13.7106
451.69        13.68774
452.13         13.7666
452.58        13.90754
453.02        14.05909
453.47        14.13863
453.91        14.12947
454.36        14.06301
454.80        13.96419
455.24        13.87492
455.69         13.8218
456.13        13.78404
456.58        13.78933
457.02        13.85773
457.46        13.99264
457.91        14.18169
458.35        14.37423
458.79        14.48066
459.24         14.4914
459.68        14.41559
460.13        14.32481
460.57        14.29494
461.01        14.35842
461.46        14.48244
461.90        14.61757
462.34        14.67558
462.79        14.63457
463.23        14.51848
463.68        14.39128
464.12        14.36173
464.56        14.45666
465.01        14.64548
465.45        14.82583
465.89        14.90069
466.34        14.86292
466.78        14.66762
467.22        14.42957
467.67        14.48032
468.11        14.77688
468.55        14.87892
468.99        14.76955
469.44        14.72391
469.88        14.79936
470.32        15.02916
470.77        15.32271
471.21        15.41942
471.65        15.28212
472.10        15.08775
472.54        14.91038
472.98         14.8206
473.42        14.85158
473.87        14.98657
474.31        15.16291
474.75        15.27598
475.20        15.30344
475.64        15.26822
476.08         15.2196
476.52        15.23234
476.97        15.32259
477.41        15.46525
477.85        15.60622
478.29        15.69162
478.74         15.7088
479.18        15.60013
479.62        15.42341
480.06        15.52837
480.50        15.60829
480.95        15.69003
481.39        15.64524
481.83        15.60234
482.27        15.56364
482.72        15.40147
483.16         15.1854
483.60         15.2602
484.04        15.64155
484.48        15.79016
484.93        15.92225
485.37        16.41364
485.81        17.05638
486.25         17.0184
486.69        22.16425
487.14        17.29534
487.58        11.57411
488.02        14.30886
488.46          16.093
488.90        16.14381
489.34        16.15791
489.79        16.02925
490.23        16.84192
490.67        17.29955
491.11        17.18429
491.55        17.05376
491.99        16.87503
492.43        16.66687
492.88        16.50177
493.32        16.45996
493.76        16.45663
494.20        16.64192
494.64        16.96761
495.08        17.38392
495.52        17.82152
495.96        18.19751
496.41        18.43248
496.85        18.52268
497.29        18.49527
497.73        18.21967
498.17        17.93384
498.61         18.0712
499.05         18.6242
499.49        18.71175
499.93        18.78231
500.37        18.87188
500.82        18.92657
501.26         19.1282
501.70        19.37721
502.14        19.51197
502.58        19.51228
503.02        19.53507
503.46        19.58607
503.90        19.56391
504.34           19.49
504.78        19.44783
505.22        19.45211
505.66        19.49064
506.10        19.54391
506.54        19.57604
506.98        19.58153
507.42        19.57355
507.86        19.59178
508.30        19.69659
508.74         19.8908
509.18        20.14369
509.62        20.39589
510.06        20.55089
510.50         20.5871
510.94        20.54485
511.38        20.46019
511.82        20.39098
512.26        20.36146
512.70        20.34723
513.14        20.37645
513.58        20.49501
514.02        20.68704
514.46        20.92993
514.90         21.1349
515.34          21.125
515.78        20.84754
516.22        20.51655
516.66        20.24962
517.10        19.78624
517.54        19.17137
517.98        20.00453
518.42        19.87493
518.86        20.28236
519.30        20.48008
519.74         20.7045
520.18        20.90372
520.62        20.96421
521.06        20.90003
521.50        20.71795
521.93        20.48289
522.37        20.31804
522.81        20.25829
523.25        20.27571
523.69        20.34039
524.13        20.40079
524.57        20.43575
525.01        20.45905
525.45        20.46769
525.89        20.45476
526.32        20.41785
526.76        20.35635
527.20        20.27161
527.64        20.17766
528.08         20.0851
528.52        19.97527
528.96        19.85611
529.40        19.79263
529.83         19.7996
530.27        19.65957
530.71        19.73792
531.15        19.68386
531.59        19.60898
532.03        19.51117
532.46        19.43804
532.90        19.46786
533.34        19.60076
533.78         19.8035
534.22         19.9997
534.66        20.07912
535.09        20.01454
535.53         19.8489
535.97        19.63693
536.41        19.47031
536.85        19.38255
537.28        19.35536
537.72         19.3665
538.16        19.37936
538.60        19.38358
539.04        19.37692
539.47        19.38505
539.91        19.49275
540.35        19.68152
540.79        19.85311
541.22        19.97285
541.66        20.06786
542.10        20.12941
542.54         20.1214
542.97        20.09292
543.41        20.15757
543.85        20.32755
544.29        20.57537
544.72        20.82568
545.16        20.96836
545.60        20.98055
546.04        20.89811
546.47        20.80769
546.91        20.85546
547.35        21.06267
547.79        21.38443
548.22        21.72306
548.66        21.90752
549.10        21.91437
549.53        21.83169
549.97        21.74615
550.41        21.73255
550.84         21.8242
551.28        22.00742
551.72        22.25748
552.15        22.52393
552.59        22.77645
553.03        23.02209
553.46        23.23828
553.90        23.41186
554.34        23.54602
554.77        23.61503
555.21        23.63372
555.65         23.6997
556.08        23.83597
556.52        23.73141
556.96        23.93232
557.39        23.97613
557.83        24.03365
558.27         24.0894
558.70        24.16762
559.14        24.28922
559.57        24.44348
560.01        24.62918
560.45        24.79513
560.88        24.86261
561.32        24.83875
561.75        24.73425
562.19        24.62024
562.63        24.57096
563.06        24.60241
563.50        24.69935
563.93        24.82366
564.37        24.92618
564.80        24.98542
565.24        25.02879
565.68        25.07054
566.11        25.13254
566.55        25.23864
566.98        25.37062
567.42        25.53243
567.85        25.72423
568.29        25.95616
568.72         26.1509
569.16        26.33671
569.60        26.64877
570.03        26.97236
570.47        27.01172
570.90        26.87907
571.34        26.58121
571.77        26.98418
572.21        27.06865
572.64        27.13096
573.08        26.84466
573.51         26.0049
573.95        27.14161
574.38        28.83191
574.82        28.16283
