SpectraSmart Spectrum 2.9.0.0
--------- Device Information -----------
Spectrum Name :  反射率_0
Saving Time :  2024/04/26 00:56:03
Spectro-Module Model Name : SE2030-DUVN
Spectro-Module Serial Number : OS361AC55029948
Wavelength Start : 200
Wavelength End : 1025
Wavelength Unit : Wavelength(nm)
Spectrum Unit : Reflectance(%)
-----------Spectrum Setting ------------
Integration Time : 20ms
Average : 10
Boxcar : 0
Background removal :  enabled
linearity correction :  enabled
SC :  disabled
Intensity correction :  disabled
DWT denoise :  enabled
savitzky-golay :  disabled
FFT :  disabled
Running average :  disabled
Kalman :  disabled
High pass :  disabled
---------------BEGIN--------------------
Wavelength(nm)             Reflectance(%)
200.29               0
200.75        96.93611
201.21        92.79465
201.67        87.30121
202.13        84.09344
202.58        83.74944
203.04         85.7674
203.50        88.52505
203.96        89.30955
204.42        87.73687
204.88        84.96278
205.34        82.79853
205.80        83.23663
206.26         87.2659
206.72        97.31689
207.18        117.3102
207.64        134.4931
208.10        122.3917
208.55        98.44965
209.01        83.65321
209.47        79.04639
209.93        80.50065
210.39        85.92748
210.85        92.99624
211.31        96.53416
211.77        94.61243
212.23        89.10311
212.69        83.57534
213.14         83.6228
213.60        89.89345
214.06        100.3393
214.52         111.028
214.98        116.1659
215.44        114.5103
215.90        108.4732
216.36        100.7233
216.81        94.81322
217.27        92.21815
217.73        91.74957
218.19          92.265
218.65        92.40046
219.11        91.61144
219.57         89.7543
220.02        87.69047
220.48        88.72179
220.94        93.46387
221.40        100.4146
221.86        104.4672
222.32        101.0079
222.77        91.73529
223.23        80.64983
223.69          72.097
224.15        70.64912
224.61        75.60581
225.06        84.60211
225.52        94.15097
225.98        99.57288
226.44         99.9772
226.90        97.18145
227.36        93.58952
227.81        92.50889
228.27         94.8814
228.73        99.09731
229.19        103.6326
229.65        106.3141
230.10        106.6504
230.56         105.964
231.02        104.8694
231.48        104.0465
231.93        103.6104
232.39        103.3246
232.85        103.3305
233.31        104.0538
233.77        105.4607
234.22        107.5477
234.68        109.4619
235.14        109.6019
235.60        107.6193
236.05        104.0833
236.51        100.1988
236.97        97.58002
237.43        96.55222
237.88        96.85213
238.34        97.85131
238.80        98.51736
239.26        98.17465
239.71        97.46986
240.17        96.02834
240.63        93.95818
241.08        91.66279
241.54        89.11746
242.00        87.17877
242.46        86.97501
242.91         89.5859
243.37        97.34126
243.83        121.5159
244.28        194.4406
244.74        264.0526
245.20        208.4665
245.66        166.0681
246.11        155.4072
246.57        163.1002
247.03        197.9114
247.48        301.3065
247.94        243.4948
248.40        131.7511
248.85        98.00999
249.31        88.65421
249.77        89.11377
250.22        95.56921
250.68        108.5131
251.14        127.7777
251.59        141.5254
252.05        137.1917
252.51        119.9389
252.96        100.5984
253.42        89.39768
253.88        86.09915
254.33        87.26705
254.79        92.09126
255.25        98.79427
255.70        105.5005
256.16        112.2301
256.62        117.1955
257.07        118.5281
257.53        117.2242
257.99        113.8357
258.44        109.5517
258.90        107.0296
259.35        105.5006
259.81         104.544
260.27         103.062
260.72        99.95836
261.18        95.99041
261.63        91.40751
262.09        87.18893
262.55        83.56701
263.00        80.54096
263.46        78.21088
263.91        76.26559
264.37         74.8988
264.83        73.77823
265.28        72.70238
265.74        71.59899
266.19        69.97643
266.65        68.13065
267.11        66.24926
267.56        64.47832
268.02        63.02748
268.47        61.76226
268.93        60.62774
269.38         59.6213
269.84        58.94606
270.30        58.61031
270.75        58.57747
271.21        58.58892
271.66        58.23858
272.12        57.45181
272.57        56.30613
273.03        55.14111
273.48        54.36932
273.94        54.11234
274.39        54.16589
274.85        54.25528
275.31        53.91312
275.76        53.04187
276.22        51.86985
276.67         50.6198
277.13        49.76912
277.58        49.32125
278.04        49.16805
278.49        49.03141
278.95        48.66227
279.40        47.94265
279.86        47.06491
280.31        46.08912
280.77        45.26799
281.22        44.60521
281.68        44.08519
282.13        43.64076
282.59        43.27246
283.04        42.92821
283.50        42.66521
283.95        42.40748
284.41        42.09419
284.86        41.68863
285.32        41.21928
285.77        40.75351
286.22        40.48862
286.68        40.42389
287.13        40.45281
287.59        40.40924
288.04        40.00331
288.50        39.24175
288.95         38.2146
289.41           37.14
289.86         36.2017
290.32        35.53127
290.77        35.04307
291.22        34.74633
291.68        34.60842
292.13        34.59387
292.59        34.71028
293.04        34.90285
293.50        35.09449
293.95        35.24129
294.40        35.32803
294.86        35.35986
295.31        35.35729
295.77        35.33835
296.22        35.30495
296.68        35.25263
297.13        35.14822
297.58        35.01507
298.04        34.89069
298.49        34.84545
298.95        35.02166
299.40        35.41681
299.85        35.97286
300.31        36.56056
300.76        36.98825
301.21         37.1891
301.67        37.24327
302.12        37.17347
302.58        37.08644
303.03         36.9913
303.48        36.87526
303.94        36.80314
304.39        36.83403
304.84         36.9795
305.30        37.21732
305.75        37.42656
306.20        37.43525
306.66        37.23894
307.11         36.8829
307.57        36.50654
308.02        36.23126
308.47        36.12437
308.93        36.14378
309.38        36.24549
309.83        36.39707
310.29        36.56102
310.74        36.72503
311.19        36.86034
311.65        36.92052
312.10        36.89001
312.55        36.78226
313.00        36.58319
313.46        36.28979
313.91        35.91388
314.36        35.48314
314.82        35.10319
315.27        34.90931
315.72        34.93222
316.18         35.1344
316.63        35.39644
317.08        35.49458
317.53        35.36827
317.99        35.06256
318.44        34.72038
318.89        34.57554
319.35        34.66838
319.80        34.93554
320.25        35.19296
320.70        35.13929
321.16         34.7167
321.61        34.03603
322.06        33.31371
322.51        32.87645
322.97        32.79057
323.42        32.96535
323.87        33.23346
324.32        33.31159
324.78         33.1119
325.23        32.73416
325.68        32.28316
326.13        31.93334
326.59        31.73677
327.04        31.65263
327.49        31.63759
327.94        31.63275
328.39        31.61397
328.85        31.59679
329.30         31.6162
329.75        31.67183
330.20        31.76463
330.66         31.8673
331.11        31.98141
331.56        32.06818
332.01        32.11709
332.46        32.12239
332.92        32.10361
333.37        32.14256
333.82        32.24071
334.27        32.39349
334.72        32.52242
335.17          32.496
335.63        32.29013
336.08        31.95286
336.53        31.62164
336.98        31.52368
337.43        31.70583
337.88        32.10616
338.34        32.53893
338.79        32.74879
339.24        32.64296
339.69        32.29629
340.14        31.88756
340.59        31.72824
341.05        31.88956
341.50        32.26752
341.95        32.68477
342.40        32.88853
342.85        32.82228
343.30        32.57586
343.75        32.25316
344.20        32.03209
344.66        31.97371
345.11        31.99201
345.56        32.04961
346.01        32.08932
346.46        32.08495
346.91        32.07412
347.36        32.01346
347.81        31.82495
348.26        31.52221
348.72        31.16195
349.17        30.83048
349.62        30.74969
350.07        30.95944
350.52        31.37314
350.97        31.87362
351.42        32.28139
351.87        32.53146
352.32        32.66831
352.77        32.67936
353.22        32.55161
353.67        32.30685
354.13        31.96054
354.58        31.59221
355.03        31.36932
355.48        31.32836
355.93        31.43577
356.38        31.59318
356.83         31.6322
357.28        31.50624
357.73        31.25887
358.18        30.96688
358.63        30.75247
359.08        30.64816
359.53        30.61889
359.98        30.59251
360.43        30.46091
360.88        30.20403
361.33        29.85723
361.78        29.51497
362.23        29.32645
362.68        29.31534
363.13        29.42315
363.58        29.53086
364.03        29.45433
364.48        29.15593
364.93        28.70527
365.38        28.19906
365.83        27.79185
366.28        27.53491
366.73        27.37946
367.18        27.30124
367.63        27.26072
368.08        27.22985
368.53        27.22053
368.98        27.19592
369.43        27.09119
369.88        26.90015
370.33        26.64381
370.78        26.36505
371.23        26.14477
371.68        26.01084
372.13        25.93658
372.58        25.92775
373.03         25.9887
373.48        26.09983
373.93        26.25353
374.38        26.37663
374.83        26.35566
375.28        26.17603
375.72        25.86501
376.17        25.53082
376.62        25.31445
377.07        25.25772
377.52         25.3126
377.97        25.43141
378.42        25.53397
378.87        25.58232
379.32        25.59616
379.77         25.5597
380.22        25.44789
380.67         25.2627
381.11        25.01056
381.56        24.72453
382.01        24.47274
382.46        24.28188
382.91        24.14666
383.36        24.04994
383.81        23.95664
384.26        23.85766
384.71        23.76445
385.15        23.68384
385.60        23.64281
386.05        23.62987
386.50        23.62479
386.95        23.60549
387.40        23.54127
387.85        23.43388
388.29        23.30032
388.74        23.16936
389.19        23.02714
389.64        22.87576
390.09         22.7061
390.54        22.57045
390.98        22.55384
391.43        22.67252
391.88        22.88917
392.33        23.09295
392.78        23.11893
393.23        22.95521
393.67        22.65424
394.12        22.36946
394.57         22.2437
395.02        22.30625
395.47        22.49852
395.91        22.75362
396.36        22.91869
396.81        22.94463
397.26        22.86123
397.71        22.70219
398.15         22.4977
398.60        22.30288
399.05        22.11984
399.50        21.94053
399.95        21.68817
400.39        21.46048
400.84        21.20576
401.29        21.01145
401.74        20.98874
402.18        21.16583
402.63        21.47184
403.08        21.81995
403.53         22.0701
403.97        22.17647
404.42        22.17276
404.87        22.07183
405.32        21.90594
405.76        21.70411
406.21        21.47676
406.66        21.27567
407.11        21.17938
407.55        21.20504
408.00        21.33126
408.45        21.50616
408.90        21.60936
409.34        21.59858
409.79        21.50674
410.24        21.39256
410.68        21.34213
411.13        21.37909
411.58        21.47255
412.03        21.58089
412.47        21.63966
412.92        21.61364
413.37        21.53051
413.81        21.42715
414.26        21.37539
414.71          21.381
415.15        21.42476
415.60        21.45415
416.05        21.40461
416.49        21.26445
416.94        21.07146
417.39        20.86621
417.83        20.71532
418.28        20.65036
418.73         20.6424
419.17        20.69005
419.62        20.78857
420.07          20.923
420.51           21.09
420.96        21.23349
421.41        21.25747
421.85        21.13907
422.30        20.93481
422.74        20.70327
423.19        20.57417
423.64        20.55709
424.08        20.62941
424.53        20.73381
424.98        20.80939
425.42        20.84092
425.87        20.83177
426.31        20.79637
426.76        20.81433
427.21        20.86368
427.65        20.78286
428.10        20.65031
428.54        20.72903
428.99        21.03158
429.44        21.43671
429.88        21.75912
430.33        21.78269
430.77        21.47957
431.22        20.93098
431.66         20.3496
432.11        20.18272
432.56        20.46767
433.00        20.84135
433.45        21.12861
433.89        21.62398
434.34        22.06773
434.78         21.5867
435.23        20.60455
435.67        20.43103
436.12        21.02319
436.57         21.3546
437.01        21.27893
437.46        21.20624
437.90         21.1604
438.35        21.04954
438.79         20.9113
439.24         20.8416
439.68        20.86662
440.13         20.8758
440.57        20.88708
441.02        21.19413
441.46        21.61575
441.91        21.45594
442.35        20.83938
442.80        20.45958
443.24        20.35261
443.69        20.45908
444.13        20.65274
444.58        20.49518
445.02        20.05382
445.47        19.94081
445.91        20.13297
446.36        20.16311
446.80        20.01414
447.24        19.94773
447.69        19.98046
448.13        20.00859
448.58        20.03228
449.02        20.07195
449.47        20.10059
449.91        20.07394
450.36        19.99133
450.80        19.86285
451.25        19.73447
451.69        19.66598
452.13        19.67557
452.58        19.73413
453.02        19.81788
453.47        19.88917
453.91        19.93529
454.36        19.97192
454.80        19.98446
455.24        19.94508
455.69        19.86592
456.13        19.74799
456.58        19.65771
457.02        19.66515
457.46        19.78868
457.91        19.99495
458.35        20.21969
458.79        20.35668
459.24        20.38949
459.68        20.33452
460.13        20.25307
460.57        20.19449
461.01        20.19634
461.46        20.23716
461.90        20.29868
462.34        20.34895
462.79        20.37187
463.23        20.36965
463.68        20.37583
464.12        20.44901
464.56        20.59414
465.01        20.80669
465.45        20.96745
465.89        20.97945
466.34        20.84737
466.78        20.49059
467.22        20.09286
467.67        20.15288
468.11        20.61484
468.55        20.86187
468.99        20.81003
469.44        20.74726
469.88        20.73806
470.32         20.8581
470.77         21.0548
471.21        21.08939
471.65        20.94351
472.10        20.81789
472.54        20.75157
472.98        20.73381
473.42        20.78006
473.87        20.90242
474.31        21.05544
474.75        21.16284
475.20        21.21095
475.64        21.20693
476.08        21.19066
476.52        21.22386
476.97        21.32117
477.41        21.46594
477.85        21.60785
478.29        21.70877
478.74         21.7603
479.18        21.66884
479.62        21.49588
480.06        21.70019
480.50        21.84604
480.95        21.98193
481.39        21.93083
481.83        21.87422
482.27        21.81288
482.72        21.56741
483.16        21.24726
483.60        21.29673
484.04        21.70937
484.48        21.91054
484.93        22.16878
485.37        22.60008
485.81        23.08574
486.25         23.5973
486.69        30.90375
487.14        24.80154
487.58        15.97392
488.02        19.70612
488.46        22.26592
488.90        22.24774
489.34        22.32719
489.79        22.15371
490.23        23.35969
490.67        23.92957
491.11        23.62795
491.55        23.49139
491.99         23.4572
492.43        23.29134
492.88        23.06915
493.32        23.07204
493.76        23.14175
494.20        23.33894
494.64        23.58656
495.08        23.88012
495.52        24.19619
495.96        24.49364
496.41        24.70588
496.85        24.88385
497.29        25.00239
497.73        24.67033
498.17        24.21036
498.61        24.39549
499.05        25.22023
499.49        25.37669
499.93        25.45681
500.37        25.53646
500.82        25.56147
501.26        25.80605
501.70        26.14297
502.14        26.34291
502.58        26.35089
503.02        26.34246
503.46        26.32258
503.90         26.1663
504.34        25.95885
504.78         25.9018
505.22        26.02704
505.66         26.2841
506.10        26.57399
506.54        26.72555
506.98        26.69549
507.42        26.54024
507.86        26.36567
508.30        26.33489
508.74        26.48394
509.18        26.75433
509.62        27.05911
510.06        27.25798
510.50        27.31144
510.94         27.2712
511.38        27.18892
511.82        27.14268
512.26        27.15946
512.70        27.20813
513.14        27.28219
513.58        27.37503
514.02        27.46793
514.46        27.56045
514.90        27.62873
515.34        27.59833
515.78        27.43764
516.22         27.3143
516.66        27.27476
517.10        26.98085
517.54        26.44443
517.98        27.14902
518.42        26.94252
518.86        27.25902
519.30        27.43816
519.74        27.67419
520.18        27.89743
520.62        27.97048
521.06        27.89732
521.50         27.6994
521.93        27.45333
522.37        27.29519
522.81        27.26273
523.25        27.31964
523.69        27.42315
524.13        27.50431
524.57        27.53882
525.01        27.54736
525.45        27.53686
525.89        27.51684
526.32        27.48861
526.76        27.44458
527.20        27.38292
527.64        27.31381
528.08        27.24716
528.52        27.16221
528.96        27.05562
529.40        26.99491
529.83        26.99778
530.27        26.77142
530.71        26.84451
531.15        26.78971
531.59        26.76517
532.03        26.75238
532.46        26.77013
532.90        26.84398
533.34        26.96062
533.78        27.10558
534.22         27.2275
534.66        27.25399
535.09        27.16885
535.53        27.00756
535.97        26.81393
536.41         26.6652
536.85        26.58911
537.28        26.57033
537.72        26.59184
538.16        26.62576
538.60        26.66115
539.04        26.68524
539.47        26.70722
539.91        26.80937
540.35        26.96308
540.79        27.04754
541.22        27.05917
541.66        27.10267
542.10        27.17848
542.54        27.21889
542.97        27.24415
543.41        27.33118
543.85        27.48316
544.29        27.69183
544.72        27.89692
545.16         28.0155
545.60        28.03059
546.04        27.96076
546.47         27.9026
546.91        28.02068
547.35        28.33007
547.79        28.78487
548.22        29.23386
548.66        29.41833
549.10        29.30955
549.53        29.03655
549.97        28.76668
550.41        28.68687
550.84        28.85506
551.28        29.22206
551.72        29.69259
552.15        30.09079
552.59        30.34981
553.03        30.51741
553.46        30.61052
553.90        30.68265
554.34        30.75865
554.77        30.78698
555.21        30.77895
555.65         30.8527
556.08        31.03201
556.52        30.91331
556.96        31.20477
557.39        31.29457
557.83        31.39955
558.27        31.49664
558.70        31.60594
559.14        31.74292
559.57        31.89361
560.01        32.06337
560.45        32.20596
560.88        32.24852
561.32        32.20675
561.75        32.09467
562.19        31.98985
562.63        31.95255
563.06         32.0025
563.50        32.15349
563.93         32.3536
564.37        32.51025
564.80        32.59213
565.24        32.65023
565.68        32.69707
566.11        32.74583
566.55        32.82971
566.98        32.93437
567.42        33.07608
567.85        33.27705
568.29        33.55358
568.72        33.78855
569.16        34.01463
569.60        34.41724
570.03        34.84988
570.47        34.89766
570.90        34.67603
571.34        34.33566
571.77        34.67855
572.21        34.64605
572.64        34.59447
573.08        34.13578
573.51        33.40429
573.95        34.83857
574.38        36.69382
574.82        36.12466
