SpectraSmart Spectrum 2.9.0.0
--------- Device Information -----------
Spectrum Name :  反射率_0
Saving Time :  2024/04/26 00:31:20
Spectro-Module Model Name : SE2030-DUVN
Spectro-Module Serial Number : OS361AC55029948
Wavelength Start : 200
Wavelength End : 1025
Wavelength Unit : Wavelength(nm)
Spectrum Unit : Reflectance(%)
-----------Spectrum Setting ------------
Integration Time : 20ms
Average : 10
Boxcar : 0
Background removal :  enabled
linearity correction :  enabled
SC :  disabled
Intensity correction :  disabled
DWT denoise :  enabled
savitzky-golay :  disabled
FFT :  disabled
Running average :  disabled
Kalman :  disabled
High pass :  disabled
---------------BEGIN--------------------
Wavelength(nm)             Reflectance(%)
200.29               0
200.75        97.29129
201.21         94.2215
201.67        89.15347
202.13        84.85271
202.58        81.97714
203.04        80.13348
203.50        79.24219
203.96        79.38915
204.42         80.2681
204.88        81.57978
205.34        83.08947
205.80        84.71938
206.26        86.85848
206.72        90.75842
207.18         96.9193
207.64        98.58624
208.10        88.62163
208.55        76.86233
209.01        71.42757
209.47        71.94257
209.93        76.30592
210.39        84.13504
210.85        92.76548
211.31        95.65533
211.77         90.7252
212.23        80.36108
212.69        69.88052
213.14        67.60677
213.60        74.84378
214.06        88.95999
214.52        104.5959
214.98        113.5247
215.44        113.6894
215.90        108.0894
216.36        100.0165
216.81        93.89918
217.27        91.46904
217.73        91.28556
218.19        91.85467
218.65        91.36663
219.11        89.11982
219.57        84.85337
220.02        80.06793
220.48        80.35392
220.94        87.42502
221.40        98.73709
221.86         106.587
222.32        103.8997
222.77        92.78488
223.23        78.60546
223.69        67.08661
224.15        64.11346
224.61        68.93328
225.06        78.56184
225.52        88.82473
225.98        94.14404
226.44        93.46912
226.90        88.98772
227.36        83.66256
227.81        81.53504
228.27        83.69444
228.73        88.32405
229.19        93.40524
229.65        96.08176
230.10        95.79701
230.56        94.07655
231.02        92.10042
231.48        91.16971
231.93        91.38676
232.39        92.27784
232.85        93.32455
233.31        93.92431
233.77        93.86653
234.22         93.3962
234.68        92.60884
235.14        91.73522
235.60        90.95087
236.05        90.23512
236.51        89.55091
236.97        88.77062
237.43        87.79068
237.88        86.65007
238.34         85.3597
238.80        84.68812
239.26        84.98771
239.71        86.39086
240.17        87.77483
240.63         87.7705
241.08        86.18589
241.54        83.46099
242.00        80.74807
242.46        79.45682
242.91        80.47308
243.37         84.8371
243.83        100.0923
244.28        150.8984
244.74         208.195
245.20        176.5263
245.66        147.9281
246.11        141.0524
246.57        147.8748
247.03        175.3351
247.48        255.9536
247.94        212.3884
248.40        125.6477
248.85        99.19913
249.31        91.67839
249.77        91.39476
250.22         95.2828
250.68        103.4998
251.14        115.6528
251.59        123.3943
252.05        118.7225
252.51        105.7985
252.96         92.2342
253.42         85.2223
253.88         84.2554
254.33        86.61506
254.79        91.71993
255.25        98.04343
255.70        104.0031
256.16        109.7986
256.62        113.6107
257.07        113.5541
257.53        110.7592
257.99        105.9031
258.44        100.7934
258.90        98.65961
259.35        98.48032
259.81        99.27189
260.27        99.17506
260.72        96.41116
261.18        91.88631
261.63        86.26196
262.09        81.09446
262.55        77.29211
263.00        74.79597
263.46        73.33164
263.91        72.12624
264.37        70.85842
264.83        69.24094
265.28        67.30325
265.74        65.38483
266.19         63.6393
266.65        62.37627
267.11        61.45465
267.56        60.60588
268.02        59.57541
268.47        58.20792
268.93         56.6162
269.38        55.02376
269.84        54.03347
270.30        53.77976
270.75        54.08791
271.21        54.52408
271.66        54.42693
272.12         53.6542
272.57        52.38702
273.03        51.05365
273.48        50.19306
273.94        49.96096
274.39        50.10279
274.85        50.30504
275.31        50.06283
275.76           49.26
276.22        48.12999
276.67        46.90479
277.13        46.06039
277.58        45.60658
278.04        45.43417
278.49        45.25294
278.95        44.78539
279.40        43.92672
279.86        42.88192
280.31           41.77
280.77        40.91862
281.22        40.34415
281.68        39.99466
282.13        39.74125
282.59        39.48695
283.04        39.16283
283.50        38.84345
283.95        38.50409
284.41        38.15809
284.86        37.78346
285.32        37.37879
285.77        36.96249
286.22        36.65199
286.68        36.44432
287.13        36.28666
287.59        36.06992
288.04        35.59264
288.50        34.87741
288.95        33.97837
289.41        33.09513
289.86        32.39444
290.32        31.97978
290.77        31.76447
291.22        31.70142
291.68        31.67504
292.13        31.64354
292.59        31.64016
293.04        31.68223
293.50        31.81007
293.95        32.00997
294.40        32.23108
294.86        32.42871
295.31        32.54499
295.77        32.57333
296.22        32.54153
296.68         32.4626
297.13        32.32969
297.58        32.17869
298.04        32.03828
298.49        31.98001
298.95        32.14877
299.40        32.54598
299.85        33.11942
300.31        33.74512
300.76        34.23628
301.21        34.52355
301.67        34.67929
302.12        34.72161
302.58        34.74652
303.03        34.76347
303.48        34.76365
303.94         34.8063
304.39        34.94491
304.84         35.1909
305.30        35.52018
305.75        35.83165
306.20        35.98276
306.66        35.96619
307.11        35.81198
307.57        35.62027
308.02        35.45787
308.47        35.38405
308.93        35.37719
309.38        35.42854
309.83        35.56094
310.29         35.7519
310.74        35.97216
311.19        36.17459
311.65        36.28442
312.10        36.27694
312.55        36.17604
313.00        35.97175
313.46        35.66512
313.91        35.27325
314.36        34.82532
314.82        34.42918
315.27        34.22568
315.72        34.24651
316.18        34.45024
316.63        34.72587
317.08        34.86198
317.53        34.79568
317.99        34.56737
318.44         34.2896
318.89        34.14877
319.35        34.17806
319.80        34.32716
320.25         34.4542
320.70        34.33199
321.16        33.91998
321.61         33.3032
322.06        32.65594
322.51        32.23861
322.97        32.09838
323.42         32.1648
323.87        32.28853
324.32        32.21897
324.78         31.8856
325.23        31.38052
325.68        30.81507
326.13        30.37248
326.59        30.10744
327.04        29.98405
327.49        29.94866
327.94        29.91983
328.39        29.86593
328.85        29.80147
329.30        29.77467
329.75         29.8152
330.20        29.92545
330.66        30.06365
331.11        30.19662
331.56        30.23186
332.01        30.14666
332.46        29.95335
332.92        29.70699
333.37        29.55062
333.82        29.51759
334.27        29.59468
334.72        29.69731
335.17        29.67669
335.63        29.49567
336.08        29.20175
336.53        28.92054
336.98        28.85876
337.43        29.05436
337.88        29.44442
338.34        29.83834
338.79        29.97602
339.24        29.77111
339.69        29.30468
340.14        28.78048
340.59        28.55453
341.05        28.70582
341.50        29.11177
341.95        29.57726
342.40        29.81773
342.85         29.7687
343.30        29.54181
343.75        29.21317
344.20        28.91806
344.66         28.7166
345.11        28.52225
345.56        28.39709
346.01        28.43673
346.46        28.62512
346.91         28.9519
347.36         29.2028
347.81        29.02924
348.26        28.40182
348.72        27.47231
349.17        26.53048
349.62        26.13591
350.07        26.41656
350.52        27.17568
350.97        28.13121
351.42        28.85019
351.87        29.19141
352.32        29.27266
352.77        29.15231
353.22        28.92835
353.67        28.65681
354.13        28.30781
354.58        27.92652
355.03        27.63547
355.48        27.46561
355.93         27.4171
356.38        27.42824
356.83        27.37788
357.28        27.23196
357.73         27.0145
358.18        26.78299
358.63        26.62993
359.08        26.57383
359.53        26.58682
359.98        26.58795
360.43        26.45609
360.88        26.17331
361.33        25.77873
361.78        25.39008
362.23        25.19649
362.68        25.22981
363.13         25.4187
363.58        25.62362
364.03        25.62663
364.48        25.37961
364.93        24.96226
365.38        24.47515
365.83        24.07988
366.28        23.83193
366.73        23.67783
367.18        23.60184
367.63        23.57991
368.08        23.58546
368.53        23.62723
368.98        23.65353
369.43        23.57438
369.88        23.38114
370.33        23.10629
370.78        22.80793
371.23        22.59291
371.68         22.4957
372.13        22.47674
372.58          22.539
373.03        22.68104
373.48        22.87441
373.93         23.1123
374.38        23.29502
374.83        23.27043
375.28         23.0206
375.72        22.58169
376.17        22.10951
376.62        21.82405
377.07        21.78466
377.52        21.92324
377.97        22.13796
378.42        22.25806
378.87        22.23177
379.32        22.11905
379.77        21.95842
380.22        21.80161
380.67        21.66817
381.11        21.53438
381.56        21.40788
382.01        21.31709
382.46        21.26374
382.91        21.24432
383.36        21.23066
383.81        21.17041
384.26        21.05574
384.71        20.90939
385.15        20.74738
385.60        20.60859
386.05        20.49348
386.50        20.38064
386.95        20.28621
387.40        20.23996
387.85        20.24191
388.29           20.28
388.74        20.30567
389.19        20.21634
389.64          20.004
390.09        19.68977
390.54        19.37719
390.98        19.24304
391.43        19.33335
391.88        19.58198
392.33        19.84929
392.78        19.92734
393.23        19.78886
393.67        19.50213
394.12        19.22061
394.57        19.09327
395.02        19.15229
395.47        19.33765
395.91        19.58027
396.36        19.73066
396.81        19.74302
397.26        19.65138
397.71        19.50294
398.15        19.34754
398.60        19.23606
399.05        19.16043
399.50         19.0923
399.95        18.93842
400.39        18.77789
400.84        18.56911
401.29        18.40816
401.74        18.42599
402.18        18.65317
402.63        19.01698
403.08        19.40083
403.53        19.61969
403.97        19.62616
404.42        19.47251
404.87         19.2315
405.32        19.03502
405.76         18.9294
406.21        18.88259
406.66        18.87662
407.11        18.89125
407.55        18.91966
408.00         18.9695
408.45        19.01884
408.90        19.00985
409.34        18.93126
409.79        18.80074
410.24        18.67206
410.68        18.62253
411.13        18.67171
411.58        18.80031
412.03        18.96307
412.47        19.08107
412.92        19.11393
413.37        19.08318
413.81        19.03377
414.26        19.05398
414.71        19.15042
415.15        19.29615
415.60        19.41499
416.05        19.40693
416.49        19.25218
416.94        18.99716
417.39        18.71287
417.83        18.51814
418.28        18.45788
418.73        18.49058
419.17        18.57951
419.62        18.66244
420.07        18.71796
420.51        18.76638
420.96        18.79316
421.41        18.77124
421.85        18.69316
422.30        18.58145
422.74        18.46413
423.19        18.42768
423.64        18.47051
424.08        18.58415
424.53        18.70503
424.98        18.75716
425.42        18.72732
425.87        18.62507
426.31        18.49948
426.76        18.48041
427.21         18.5605
427.65        18.58129
428.10        18.57828
428.54        18.72466
428.99        19.01693
429.44        19.36538
429.88        19.62004
430.33        19.62597
430.77        19.35389
431.22        18.82688
431.66        18.26688
432.11        18.11707
432.56        18.40653
433.00        18.89748
433.45        19.36396
433.89        19.66735
434.34        19.67619
434.78        19.26598
435.23        18.73644
435.67        18.69656
436.12        19.08636
436.57        19.24193
437.01        19.09622
437.46        19.01505
437.90        19.03422
438.35        19.04783
438.79        19.03545
439.24        19.01888
439.68        19.00781
440.13        18.92068
440.57        18.81687
441.02        19.03831
441.46        19.44435
441.91        19.36233
442.35        18.87885
442.80        18.64754
443.24        18.66509
443.69         18.7606
444.13        18.85121
444.58        18.70302
445.02        18.38583
445.47        18.37075
445.91        18.59262
446.36        18.58273
446.80        18.31804
447.24        18.06222
447.69        17.88774
448.13        17.78759
448.58        17.78671
449.02        17.88278
449.47        18.00922
449.91        18.05487
450.36        17.99725
450.80        17.86221
451.25        17.72441
451.69        17.68913
452.13        17.78035
452.58        17.94864
453.02         18.1296
453.47         18.2256
453.91        18.21592
454.36         18.1393
454.80        18.02987
455.24        17.94147
455.69         17.9041
456.13        17.88783
456.58        17.91587
457.02        17.99723
457.46        18.13322
457.91        18.31378
458.35        18.48509
458.79        18.55557
459.24        18.51982
459.68        18.38996
460.13        18.24635
460.57        18.17227
461.01        18.20606
461.46        18.31553
461.90        18.45223
462.34        18.53199
462.79        18.52979
463.23          18.467
463.68        18.39951
464.12        18.42524
464.56        18.56368
465.01        18.78951
465.45        18.99068
465.89        19.07486
466.34        19.03857
466.78        18.80954
467.22          18.527
467.67        18.60417
468.11        18.98154
468.55        19.10178
468.99        18.93541
469.44        18.82218
469.88        18.83796
470.32         19.0301
470.77        19.31338
471.21        19.40545
471.65        19.26954
472.10        19.11172
472.54        18.99006
472.98        18.93101
473.42        18.96041
473.87        19.07583
474.31        19.22718
474.75        19.33197
475.20        19.37433
475.64        19.36814
476.08        19.35232
476.52         19.3857
476.97        19.48138
477.41        19.61913
477.85        19.75403
478.29        19.85484
478.74        19.91213
479.18        19.83894
479.62        19.68085
480.06        19.84108
480.50        19.92202
480.95        19.97862
481.39        19.86852
481.83        19.78571
482.27        19.73609
482.72        19.54107
483.16         19.2943
483.60        19.40812
484.04        19.88574
484.48        20.14919
484.93         20.3961
485.37        20.86526
485.81        21.41067
486.25        21.50373
486.69        27.79198
487.14        22.42028
487.58        14.61567
488.02        18.09947
488.46        20.55562
488.90         20.5698
489.34        20.83145
489.79        20.60438
490.23        21.50028
490.67        21.97222
491.11        21.80619
491.55         21.7239
491.99        21.65269
492.43        21.50321
492.88        21.34099
493.32        21.35373
493.76        21.40434
494.20        21.59876
494.64        21.87205
495.08        22.19703
495.52        22.53568
495.96          22.858
496.41        23.08871
496.85        23.20476
497.29        23.22571
497.73        22.95826
498.17        22.68237
498.61        22.94986
499.05        23.74026
499.49         23.9029
499.93        23.99783
500.37        24.07313
500.82        24.07404
501.26        24.25573
501.70        24.50304
502.14        24.61161
502.58          24.563
503.02        24.56108
503.46         24.6163
503.90         24.6049
504.34        24.54984
504.78         24.5477
505.22        24.61097
505.66        24.71732
506.10        24.84258
506.54         24.9444
506.98        25.01058
507.42        25.05394
507.86        25.10233
508.30        25.19946
508.74        25.34951
509.18        25.52951
509.62        25.70591
510.06        25.82506
510.50        25.87547
510.94        25.88505
511.38        25.86753
511.82        25.84253
512.26        25.82434
512.70        25.80346
513.14        25.81566
513.58        25.91998
514.02        26.10774
514.46        26.34837
514.90         26.5657
515.34        26.60689
515.78        26.42085
516.22        26.20352
516.66        26.03687
517.10        25.63437
517.54        25.02997
517.98        25.72199
518.42        25.51016
518.86        25.84537
519.30        26.04748
519.74         26.3192
520.18        26.58397
520.62        26.68959
521.06        26.63634
521.50         26.4464
521.93        26.19672
522.37        26.02818
522.81        25.98085
523.25        26.01579
523.69        26.09929
524.13        26.17604
524.57        26.22337
525.01        26.26057
525.45         26.2766
525.89        26.25109
526.32        26.18032
526.76        26.06492
527.20        25.93035
527.64        25.82982
528.08        25.78054
528.52        25.74908
528.96         25.7013
529.40        25.65187
529.83        25.60921
530.27        25.31594
530.71        25.30077
531.15        25.20263
531.59        25.18074
532.03        25.19881
532.46         25.2626
532.90        25.37731
533.34        25.51926
533.78        25.68198
534.22        25.80219
534.66          25.789
535.09        25.62812
535.53        25.35967
535.97        25.06048
536.41        24.86061
536.85        24.79859
537.28        24.84639
537.72        24.94951
538.16        25.01627
538.60        25.02259
539.04         24.9792
539.47        24.93329
539.91        25.01958
540.35        25.22313
540.79        25.40792
541.22         25.5398
541.66        25.67108
542.10        25.78778
542.54        25.83926
542.97        25.85739
543.41         25.9354
543.85         26.0833
544.29        26.28601
544.72        26.48407
545.16        26.59614
545.60        26.60725
546.04        26.54197
546.47         26.4933
546.91        26.61731
547.35        26.92877
547.79        27.38139
548.22        27.83799
548.66        28.06318
549.10        28.02719
549.53        27.84579
549.97        27.65971
550.41         27.6177
550.84         27.7709
551.28        28.08485
551.72        28.48772
552.15        28.84399
552.59        29.10104
553.03        29.29472
553.46        29.43517
553.90        29.56518
554.34        29.70152
554.77        29.79283
555.21        29.84096
555.65        29.94413
556.08         30.1223
556.52        29.99177
556.96        30.24221
557.39        30.28489
557.83        30.33766
558.27        30.38007
558.70        30.45351
559.14        30.60658
559.57        30.82721
560.01        31.10524
560.45        31.36205
560.88        31.47286
561.32        31.44029
561.75        31.29669
562.19        31.13576
562.63        31.04278
563.06         31.0488
563.50        31.16265
563.93        31.33957
564.37        31.49314
564.80        31.59261
565.24        31.69192
565.68         31.7788
566.11         31.8311
566.55        31.87679
566.98        31.89264
567.42        31.93214
567.85        32.12149
568.29        32.46482
568.72        32.73183
569.16        32.94024
569.60        33.32869
570.03        33.74932
570.47        33.76823
570.90        33.51722
571.34        33.16218
571.77        33.48648
572.21        33.52844
572.64        33.60352
573.08        33.14357
573.51        32.29344
573.95        33.71128
574.38        35.71026
574.82        34.93605
