SpectraSmart Spectrum 2.9.0.0
--------- Device Information -----------
Spectrum Name :  反射率_0
Saving Time :  2024/04/25 23:15:55
Spectro-Module Model Name : SE2030-DUVN
Spectro-Module Serial Number : OS361AC55029948
Wavelength Start : 200
Wavelength End : 1025
Wavelength Unit : Wavelength(nm)
Spectrum Unit : Reflectance(%)
-----------Spectrum Setting ------------
Integration Time : 20ms
Average : 10
Boxcar : 0
Background removal :  enabled
linearity correction :  enabled
SC :  disabled
Intensity correction :  disabled
DWT denoise :  enabled
savitzky-golay :  disabled
FFT :  disabled
Running average :  disabled
Kalman :  disabled
High pass :  disabled
---------------BEGIN--------------------
Wavelength(nm)             Reflectance(%)
200.29               0
200.75          99.812
201.21        89.49447
201.67        77.91823
202.13        71.34299
202.58        70.50444
203.04        74.03788
203.50        79.32359
203.96         81.7978
204.42        80.47773
204.88        77.21057
205.34        74.27657
205.80        74.05562
206.26        77.58024
206.72        86.89465
207.18        105.7137
207.64        122.4614
208.10        111.7947
208.55        89.36962
209.01        75.25785
209.47        70.75022
209.93        71.84784
210.39        76.59451
210.85         82.0267
211.31        82.01051
211.77        74.92436
212.23        63.31462
212.69          52.302
213.14        49.69085
213.60        56.65015
214.06        70.74416
214.52        86.75552
214.98        96.63397
215.44        98.23195
215.90        94.24474
216.36        87.69251
216.81          82.712
217.27        80.86537
217.73        80.73309
218.19        80.97279
218.65        79.92504
219.11        76.85107
219.57        71.38757
220.02        64.52048
220.48        61.43353
220.94        64.37754
221.40        71.80683
221.86         77.4682
222.32         75.0993
222.77        66.21688
223.23        55.22403
223.69        46.58937
224.15        44.94772
224.61        49.61482
225.06        58.03942
225.52        67.00663
225.98        72.39659
226.44        73.29656
226.90        71.38095
227.36        68.28119
227.81         66.1729
228.27        65.95467
228.73        66.57913
229.19        67.72375
229.65        68.99504
230.10        70.05286
230.56        71.15543
231.02        71.98454
231.48        72.10735
231.93        71.55258
232.39        70.54786
232.85        69.44295
233.31        68.90099
233.77        69.03729
234.22        69.62145
234.68        70.34316
235.14        70.58427
235.60        70.14601
236.05        69.32795
236.51        68.21873
236.97        66.81446
237.43        65.09683
237.88        62.92524
238.34        60.62794
238.80        59.69101
239.26        60.82662
239.71        64.00198
240.17        67.70955
240.63        69.61445
241.08        69.11872
241.54        66.83508
242.00        63.93996
242.46        61.89925
242.91        61.26334
243.37        61.72706
243.83        66.76945
244.28        94.48849
244.74        145.3191
245.20        142.5559
245.66        128.2081
246.11        124.8087
246.57        129.9745
247.03        147.4949
247.48        193.8096
247.94        155.2408
248.40        102.0155
248.85        87.37883
249.31        83.47695
249.77        82.85081
250.22        83.78779
250.68         86.3448
251.14        89.99889
251.59        90.92744
252.05         86.6204
252.51        79.34364
252.96        72.80139
253.42        70.61176
253.88        72.02604
254.33        75.47436
254.79        80.04726
255.25        83.86005
255.70        86.17027
256.16        87.83025
256.62         88.3011
257.07        86.94957
257.53        84.48701
257.99        80.92326
258.44        77.33441
258.90        75.94062
259.35        75.81005
259.81        76.25381
260.27        75.74195
260.72        72.78647
261.18        68.18466
261.63        62.60383
262.09        57.51871
262.55        53.92281
263.00        51.80322
263.46         50.7969
263.91        50.12648
264.37        49.28609
264.83        48.06708
265.28         46.5383
265.74        45.15612
266.19        44.30104
266.65        44.12371
267.11        44.31939
267.56        44.42146
268.02        43.92027
268.47        42.71424
268.93        41.00515
269.38        39.13832
269.84        37.93496
270.30        37.61013
270.75        37.93936
271.21         38.4584
271.66        38.46107
272.12        37.77753
272.57        36.63334
273.03         35.4275
273.48         34.6622
273.94        34.48446
274.39        34.66819
274.85        34.93109
275.31        34.84824
275.76        34.31807
276.22        33.52201
276.67        32.67275
277.13        32.18091
277.58        32.04892
278.04        32.15897
278.49        32.22721
278.95        31.94341
279.40        31.23068
279.86        30.29426
280.31        29.29587
280.77        28.59741
281.22        28.23091
281.68        28.10397
282.13        28.09333
282.59        28.07623
283.04        27.98925
283.50        27.91032
283.95         27.7831
284.41        27.54994
284.86        27.19886
285.32        26.74601
285.77        26.31115
286.22        26.14999
286.68        26.27138
287.13        26.57483
287.59         26.8311
288.04        26.67695
288.50        26.09249
288.95        25.19562
289.41        24.26122
289.86        23.58824
290.32        23.30169
290.77        23.27422
291.22        23.40957
291.68        23.52372
292.13        23.56129
292.59        23.58371
293.04        23.63042
293.50        23.76371
293.95        23.98778
294.40        24.24959
294.86        24.50834
295.31        24.71853
295.77        24.87325
296.22        24.99425
296.68        25.09721
297.13        25.17673
297.58        25.25575
298.04        25.34866
298.49         25.4902
298.95        25.76952
299.40        26.18363
299.85        26.70101
300.31        27.23877
300.76        27.67902
301.21        27.97499
301.67        28.17925
302.12        28.30011
302.58        28.40541
303.03          28.496
303.48         28.5609
303.94        28.65261
304.39        28.81813
304.84        29.06539
305.30        29.37525
305.75        29.64023
306.20        29.70573
306.66        29.57009
307.11        29.27587
307.57        28.96123
308.02        28.75992
308.47         28.7312
308.93        28.82647
309.38        28.98447
309.83        29.13802
310.29         29.2469
310.74        29.32209
311.19        29.35306
311.65        29.32215
312.10        29.22831
312.55        29.07542
313.00        28.86902
313.46        28.63276
313.91        28.37682
314.36        28.12107
314.82        27.91475
315.27        27.81447
315.72        27.83219
316.18        27.94456
316.63         28.0982
317.08         28.1825
317.53        28.16238
317.99         28.0547
318.44        27.91296
318.89        27.82785
319.35        27.81417
319.80        27.84963
320.25        27.86474
320.70        27.75048
321.16        27.48985
321.61        27.12374
322.06         26.7411
322.51        26.47309
322.97        26.34038
323.42        26.31383
323.87        26.31007
324.32        26.19158
324.78        25.92289
325.23        25.55168
325.68        25.15484
326.13        24.85968
326.59        24.69711
327.04        24.64847
327.49        24.64835
327.94        24.59065
328.39        24.44813
328.85        24.24569
329.30          24.071
329.75        24.03621
330.20        24.16631
330.66        24.39788
331.11        24.66587
331.56         24.8244
332.01        24.82945
332.46        24.71016
332.92         24.5109
333.37        24.34494
333.82        24.24831
334.27        24.20656
334.72        24.18481
335.17        24.12433
335.63        24.00902
336.08          23.863
336.53         23.7494
336.98        23.76706
337.43        23.92999
337.88         24.2113
338.34        24.47539
338.79        24.55042
339.24        24.37777
339.69        24.00536
340.14          23.612
340.59        23.50856
341.05        23.74959
341.50        24.22925
341.95        24.73655
342.40        24.96332
342.85        24.84655
343.30         24.4979
343.75        24.04103
344.20        23.69663
344.66        23.54255
345.11         23.4722
345.56        23.47962
346.01        23.55244
346.46        23.65779
346.91         23.8246
347.36        23.90909
347.81        23.67327
348.26        23.11148
348.72        22.33343
349.17        21.57509
349.62        21.30964
350.07        21.63548
350.52        22.38583
350.97         23.2942
351.42        23.95002
351.87        24.22875
352.32        24.24354
352.77        24.07419
353.22        23.85578
353.67        23.64757
354.13        23.40557
354.58        23.15128
355.03        22.96424
355.48        22.86077
355.93        22.85346
356.38        22.87647
356.83        22.80485
357.28         22.6122
357.73        22.32518
358.18        22.03634
358.63        21.89351
359.08        21.92451
359.53        22.08641
359.98        22.25405
360.43        22.23559
360.88        21.99463
361.33        21.58615
361.78        21.16413
362.23        20.97812
362.68        21.07356
363.13        21.35917
363.58        21.65693
364.03         21.6909
364.48        21.40267
364.93        20.89488
365.38        20.31274
365.83         19.8856
366.28        19.68907
366.73        19.65466
367.18        19.72643
367.63        19.81357
368.08        19.86995
368.53        19.91772
368.98        19.94884
369.43        19.94313
369.88        19.90129
370.33        19.82882
370.78        19.71993
371.23        19.57812
371.68        19.41476
372.13        19.22605
372.58        19.08408
373.03        19.10428
373.48        19.29501
373.93        19.61509
374.38        19.92136
374.83        19.99381
375.28        19.79154
375.72        19.37188
376.17        18.90175
376.62        18.61468
377.07        18.57917
377.52        18.72343
377.97          18.943
378.42        19.06917
378.87        19.04841
379.32        18.93264
379.77        18.77933
380.22        18.66658
380.67        18.61288
381.11        18.59125
381.56        18.55103
382.01        18.42504
382.46        18.20427
382.91        17.91796
383.36        17.64106
383.81        17.48653
384.26        17.47747
384.71        17.57904
385.15        17.69639
385.60        17.70194
386.05        17.55944
386.50        17.29755
386.95        17.00518
387.40        16.83885
387.85        16.83814
388.29         16.9495
388.74        17.06931
389.19        17.03802
389.64        16.83686
390.09        16.51143
390.54        16.19066
390.98        16.08826
391.43        16.25465
391.88        16.60062
392.33         16.9591
392.78        17.08738
393.23        16.95029
393.67        16.63148
394.12        16.29548
394.57        16.11215
395.02        16.11977
395.47        16.25511
395.91        16.44618
396.36        16.54484
396.81        16.50713
397.26        16.37113
397.71        16.19315
398.15        16.03603
398.60        15.94488
399.05        15.90463
399.50        15.86796
399.95        15.72486
400.39        15.53568
400.84        15.27469
401.29        15.05088
401.74        15.02799
402.18        15.24632
402.63        15.62654
403.08         16.0324
403.53         16.2475
403.97        16.21795
404.42        16.00902
404.87         15.7133
405.32        15.49557
405.76        15.41138
406.21        15.41327
406.66        15.46684
407.11        15.52946
407.55        15.58644
408.00        15.65176
408.45        15.70709
408.90        15.70164
409.34        15.62686
409.79         15.4979
410.24        15.36214
410.68        15.28933
411.13        15.29683
411.58        15.36661
412.03        15.46848
412.47         15.5493
412.92        15.57729
413.37        15.56696
413.81        15.53653
414.26        15.53025
414.71        15.54917
415.15        15.58265
415.60        15.59038
416.05        15.52872
416.49        15.39287
416.94        15.21617
417.39        15.03921
417.83        14.92861
418.28        14.91233
418.73        14.95997
419.17        15.05963
419.62        15.18666
420.07        15.32467
420.51         15.4737
420.96        15.58935
421.41        15.59523
421.85        15.47685
422.30        15.28239
422.74        15.06563
423.19        14.93796
423.64        14.90886
424.08        14.95764
424.53         15.0399
424.98        15.10712
425.42        15.14604
425.87        15.16462
426.31        15.16156
426.76        15.17977
427.21        15.20054
427.65         15.1065
428.10        14.98535
428.54         15.0738
428.99        15.38766
429.44        15.82613
429.88        16.20263
430.33        16.27823
430.77        16.01806
431.22        15.50577
431.66        14.96305
432.11        14.78405
432.56        15.00568
433.00        15.43125
433.45        15.85971
433.89        16.13933
434.34        16.14757
434.78        15.79715
435.23        15.34272
435.67        15.28877
436.12        15.58946
436.57        15.69825
437.01        15.56194
437.46        15.48442
437.90         15.4948
438.35         15.5045
438.79        15.49814
439.24        15.49591
439.68        15.50442
440.13        15.45542
440.57        15.38313
441.02        15.55067
441.46        15.83992
441.91        15.69083
442.35         15.2047
442.80        14.98745
443.24        15.01887
443.69        15.07082
444.13        15.06962
444.58        14.89686
445.02        14.61195
445.47        14.54975
445.91        14.67662
446.36        14.67452
446.80        14.52918
447.24        14.42867
447.69        14.40511
448.13        14.41085
448.58        14.45348
449.02        14.54116
449.47        14.63507
449.91        14.67033
450.36        14.63691
450.80         14.5474
451.25        14.45339
451.69        14.42635
452.13        14.48341
452.58        14.58892
453.02        14.70314
453.47        14.76038
453.91        14.74808
454.36        14.69517
454.80        14.61424
455.24        14.52568
455.69        14.45116
456.13        14.37469
456.58        14.34051
457.02         14.3926
457.46        14.53678
457.91         14.7511
458.35        14.96409
458.79        15.05415
459.24        15.00852
459.68        14.85228
460.13        14.67918
460.57        14.59702
461.01         14.6479
461.46        14.78915
461.90        14.96372
462.34        15.07246
462.79        15.08625
463.23        15.02936
463.68        14.95838
464.12        14.96857
464.56        15.08235
465.01        15.27351
465.45        15.44099
465.89        15.49408
466.34        15.43011
466.78        15.19929
467.22        14.93144
467.67        14.98615
468.11        15.32038
468.55        15.47429
468.99        15.40541
469.44        15.35971
469.88        15.39122
470.32        15.54941
470.77        15.76533
471.21         15.8126
471.65        15.66602
472.10         15.4918
472.54        15.35639
472.98        15.31603
473.42        15.39484
473.87         15.5801
474.31        15.79472
474.75        15.91154
475.20        15.90771
475.64        15.81385
476.08        15.70357
476.52        15.69003
476.97        15.79896
477.41        15.99588
477.85        16.20898
478.29         16.3541
478.74        16.40836
479.18         16.3189
479.62        16.15397
480.06        16.29081
480.50        16.41203
480.95        16.54384
481.39        16.54054
481.83        16.52011
482.27        16.47897
482.72        16.29186
483.16        16.05179
483.60        16.10419
484.04        16.45133
484.48         16.6703
484.93        16.94094
485.37        17.30409
485.81        17.71152
486.25        18.10354
486.69        23.84749
487.14        19.19671
487.58         12.5309
488.02        15.25558
488.46        17.35186
488.90        17.43448
489.34        17.58662
489.79        17.46111
490.23         18.2999
490.67        18.86545
491.11        18.89263
491.55         18.7644
491.99        18.47015
492.43        18.24438
492.88        18.17851
493.32        18.26138
493.76        18.34489
494.20        18.54218
494.64        18.78753
495.08        19.05416
495.52        19.33376
495.96        19.63685
496.41        19.90535
496.85          20.109
497.29        20.23334
497.73        20.05989
498.17        19.82345
498.61        20.02343
499.05        20.67162
499.49         20.8191
499.93        20.96772
500.37        21.13944
500.82        21.25501
501.26        21.49534
501.70        21.74659
502.14        21.84061
502.58        21.77675
503.02        21.76153
503.46        21.81181
503.90         21.8085
504.34        21.76445
504.78        21.75426
505.22        21.78739
505.66         21.8531
506.10        21.93486
506.54        22.00107
506.98        22.04523
507.42         22.0765
507.86        22.12562
508.30        22.24102
508.74        22.42469
509.18        22.65071
509.62        22.87272
510.06        23.01575
510.50        23.06294
510.94         23.0471
511.38        22.99313
511.82        22.94049
512.26        22.90832
512.70        22.87993
513.14        22.88638
513.58         22.9782
514.02        23.14474
514.46        23.36339
514.90        23.55524
515.34        23.55952
515.78        23.32663
516.22        23.06141
516.66        22.86561
517.10        22.46755
517.54        21.90326
517.98        22.71796
518.42        22.59296
518.86        22.99533
519.30        23.20745
519.74        23.45495
520.18        23.66925
520.62        23.71109
521.06        23.59239
521.50        23.33249
521.93        23.02913
522.37        22.85689
522.81        22.85933
523.25        22.98752
523.69        23.17428
524.13        23.31145
524.57        23.36283
525.01        23.35937
525.45         23.3157
525.89        23.25504
526.32        23.18667
526.76        23.10027
527.20        22.99893
527.64        22.90038
528.08        22.81488
528.52        22.72435
528.96        22.62485
529.40        22.56787
529.83        22.56637
530.27        22.37769
530.71        22.43656
531.15        22.37446
531.59        22.32326
532.03        22.26978
532.46        22.24642
532.90        22.30457
533.34        22.43648
533.78        22.61825
534.22         22.7823
534.66        22.83208
535.09        22.74442
535.53        22.55791
535.97        22.32826
536.41        22.14947
536.85        22.05585
537.28        22.03312
537.72        22.05164
538.16        22.06183
538.60        22.05308
539.04        22.02498
539.47        22.02086
539.91        22.16023
540.35        22.42397
540.79        22.69003
541.22        22.89979
541.66        23.05604
542.10        23.13972
542.54        23.11697
542.97        23.05343
543.41        23.09343
543.85        23.25933
544.29        23.52027
544.72        23.78956
545.16        23.94036
545.60        23.94707
546.04        23.85039
546.47        23.75991
546.91        23.85713
547.35        24.16415
547.79        24.62142
548.22        25.08835
548.66        25.32656
549.10          25.302
549.53        25.13133
549.97        24.94515
550.41        24.87995
550.84        24.98769
551.28        25.23832
551.72        25.58267
552.15        25.92583
552.59        26.22137
553.03        26.48826
553.46        26.71461
553.90        26.90664
554.34        27.07337
554.77        27.18097
555.21        27.23231
555.65        27.31978
556.08        27.46635
556.52        27.31738
556.96        27.52619
557.39         27.5969
557.83        27.72819
558.27        27.88695
558.70        28.06233
559.14        28.21838
559.57        28.33268
560.01        28.43008
560.45        28.49211
560.88        28.48998
561.32        28.45153
561.75         28.3728
562.19        28.31927
562.63        28.35636
563.06        28.48925
563.50        28.68868
563.93        28.90825
564.37        29.11069
564.80        29.25403
565.24          29.317
565.68        29.31323
566.11        29.31268
566.55        29.35142
566.98        29.38716
567.42        29.45899
567.85        29.63242
568.29        29.92785
568.72         30.2422
569.16        30.57683
569.60         30.9867
570.03        31.31559
570.47        31.33496
570.90        31.22319
571.34        30.62222
571.77        31.28028
572.21        31.38543
572.64         31.4477
573.08        31.21793
573.51        30.05511
573.95        31.37412
574.38        33.36947
574.82         32.6566
