SpectraSmart Spectrum 2.9.0.0
--------- Device Information -----------
Spectrum Name :  反射率_0
Saving Time :  2024/04/25 23:36:32
Spectro-Module Model Name : SE2030-DUVN
Spectro-Module Serial Number : OS361AC55029948
Wavelength Start : 200
Wavelength End : 1025
Wavelength Unit : Wavelength(nm)
Spectrum Unit : Reflectance(%)
-----------Spectrum Setting ------------
Integration Time : 20ms
Average : 10
Boxcar : 0
Background removal :  enabled
linearity correction :  enabled
SC :  disabled
Intensity correction :  disabled
DWT denoise :  enabled
savitzky-golay :  disabled
FFT :  disabled
Running average :  disabled
Kalman :  disabled
High pass :  disabled
---------------BEGIN--------------------
Wavelength(nm)             Reflectance(%)
200.29               0
200.75        77.71945
201.21         70.3283
201.67        62.05224
202.13          56.792
202.58        54.99606
203.04        55.78009
203.50        58.32248
203.96        61.05983
204.42        63.00751
204.88        64.39178
205.34        65.18671
205.80        65.34121
206.26        64.89324
206.72        63.55754
207.18         59.6853
207.64        52.14325
208.10        47.01928
208.55        46.80065
209.01        49.08498
209.47        53.08785
209.93         58.6286
210.39        66.29928
210.85        73.95744
211.31        75.95972
211.77        70.57479
212.23        59.96758
212.69        48.71087
213.14        43.96782
213.60        47.02185
214.06        56.00321
214.52        67.20215
214.98        74.71035
215.44        76.70009
215.90        74.92154
216.36        71.22239
216.81        68.03318
217.27        66.42793
217.73        65.62538
218.19        64.41435
218.65        61.11884
219.11        54.83324
219.57        44.56401
220.02        31.60184
220.48        24.06661
220.94        26.44445
221.40        36.99162
221.86        46.99604
222.32        47.27609
222.77        39.15789
223.23        27.67497
223.69        18.44948
224.15         17.2558
224.61        23.28354
225.06        33.43981
225.52        43.47038
225.98        47.87654
226.44        45.67037
226.90        39.26804
227.36        31.52398
227.81        26.26276
228.27        24.77169
228.73        25.65884
229.19        27.93456
229.65        30.15527
230.10        31.73584
230.56        33.03365
231.02         34.2418
231.48        35.51067
231.93        36.84551
232.39         38.1038
232.85        39.00885
233.31        39.22833
233.77        38.69791
234.22        37.47813
234.68        35.98647
235.14        34.99298
235.60        34.77074
236.05        35.17431
236.51        35.70165
236.97        35.48961
237.43        34.34394
237.88        32.50854
238.34         30.4214
238.80        29.44808
239.26        30.38118
239.71        32.87805
240.17         36.5453
240.63        40.94162
241.08        45.59031
241.54        50.29712
242.00        54.28627
242.46        56.81028
242.91        57.95535
243.37        56.91942
243.83        52.84515
244.28        53.18459
244.74         80.7176
245.20        99.29114
245.66        99.59663
246.11        97.94666
246.57        95.71939
247.03        89.75685
247.48        63.39324
247.94        39.83921
248.40        58.81694
248.85        68.82833
249.31        73.66988
249.77         76.2984
250.22        78.21208
250.68        80.24603
251.14        82.19534
251.59        81.72856
252.05        77.70433
252.51        71.98059
252.96        66.22628
253.42        61.94682
253.88        58.65192
254.33        55.87688
254.79        55.24662
255.25        58.23567
255.70         63.8135
256.16        70.53384
256.62        75.36189
257.07         75.3745
257.53        71.55679
257.99        65.25138
258.44        59.13284
258.90        57.01925
259.35        57.93248
259.81        60.13038
260.27        61.17288
260.72        58.77015
261.18        53.77933
261.63        47.40337
262.09        41.60535
262.55        38.01554
263.00        36.55976
263.46        36.43052
263.91         36.5009
264.37        35.79226
264.83        34.16124
265.28        31.91769
265.74        29.77914
266.19        28.59627
266.65         28.5499
267.11        29.13432
267.56        29.72263
268.02        29.57976
268.47        28.60187
268.93        27.05994
269.38        25.29552
269.84        24.10592
270.30        23.71413
270.75        23.89913
271.21        24.28132
271.66        24.30429
272.12        23.81263
272.57        22.99256
273.03        22.14124
273.48        21.62166
273.94        21.53138
274.39        21.69666
274.85        21.87764
275.31        21.73519
275.76         21.2005
276.22        20.42551
276.67        19.61261
277.13        19.12322
277.58        18.98047
278.04        19.07835
278.49        19.19083
278.95        19.04195
279.40        18.57075
279.86        17.93251
280.31        17.26091
280.77        16.84729
281.22         16.7085
281.68        16.74718
282.13         16.8517
282.59        16.88742
283.04        16.81553
283.50        16.71655
283.95        16.56804
284.41        16.34024
284.86        16.04807
285.32        15.70561
285.77        15.44271
286.22        15.51001
286.68        15.90292
287.13        16.51217
287.59        17.09373
288.04        17.28407
288.50        17.03928
288.95        16.47691
289.41        15.82438
289.86         15.3323
290.32        15.12305
290.77        15.10567
291.22         15.2481
291.68        15.46494
292.13        15.72954
292.59        16.07349
293.04        16.49454
293.50        16.97892
293.95        17.50332
294.40        18.02666
294.86         18.5232
295.31        18.97731
295.77         19.3895
296.22        19.77305
296.68        20.12045
297.13        20.39142
297.58        20.60751
298.04        20.79948
298.49        21.05107
298.95        21.52336
299.40        22.22655
299.85        23.10154
300.31         24.0116
300.76        24.75014
301.21        25.24623
301.67        25.58296
302.12        25.80369
302.58        26.02499
303.03        26.26979
303.48        26.51103
303.94        26.80732
304.39        27.21702
304.84        27.74211
305.30        28.35933
305.75         28.9313
306.20        29.25265
306.66        29.30721
307.11        29.14499
307.57        28.92979
308.02        28.83981
308.47        28.94463
308.93        29.18339
309.38        29.47155
309.83        29.70458
310.29        29.83656
310.74        29.89545
311.19        29.89934
311.65         29.8715
312.10        29.82176
312.55        29.74313
313.00        29.61865
313.46        29.43484
313.91        29.19026
314.36        28.91374
314.82        28.67546
315.27        28.56338
315.72        28.59587
316.18        28.73995
316.63        28.91685
317.08        28.97572
317.53        28.87487
317.99        28.64633
318.44        28.37866
318.89        28.21621
319.35        28.18505
319.80        28.24627
320.25        28.29799
320.70        28.17563
321.16        27.84839
321.61         27.3784
322.06        26.87769
322.51        26.51241
322.97        26.31149
323.42        26.22767
323.87        26.17608
324.32        26.01901
324.78        25.71645
325.23        25.32194
325.68        24.88527
326.13        24.48623
326.59        24.15278
327.04        23.88294
327.49        23.66666
327.94        23.49132
328.39        23.35212
328.85        23.24522
329.30        23.20678
329.75        23.25741
330.20        23.38967
330.66         23.5676
331.11        23.74024
331.56        23.78775
332.01        23.67738
332.46        23.41874
332.92        23.08377
333.37        22.83779
333.82        22.72896
334.27        22.74048
334.72        22.77201
335.17        22.64508
335.63        22.32244
336.08        21.86845
336.53        21.44207
336.98         21.2944
337.43        21.47392
337.88          21.903
338.34        22.36733
338.79        22.56286
339.24        22.38617
339.69        21.92087
340.14        21.37993
340.59        21.13689
341.05        21.27559
341.50        21.67285
341.95        22.11333
342.40        22.28397
342.85        22.11542
343.30        21.72186
343.75        21.23092
344.20        20.86418
344.66        20.69721
345.11        20.62417
345.56        20.61483
346.01        20.62169
346.46        20.61032
346.91        20.62057
347.36        20.55583
347.81        20.25233
348.26        19.71631
348.72        19.03378
349.17        18.38293
349.62        18.14185
350.07        18.38724
350.52        18.98564
350.97        19.72205
351.42        20.26446
351.87        20.50865
352.32        20.54088
352.77        20.41521
353.22        20.22656
353.67        20.02062
354.13        19.76919
354.58        19.49857
355.03         19.2921
355.48        19.17049
355.93        19.14202
356.38        19.14923
356.83        19.08372
357.28        18.91946
357.73        18.67519
358.18        18.42952
358.63        18.30841
359.08        18.33198
359.53        18.46273
359.98        18.58092
360.43        18.50192
360.88        18.19854
361.33        17.73451
361.78        17.26704
362.23        17.05042
362.68        17.13296
363.13        17.41621
363.58         17.7431
364.03        17.86988
364.48        17.73244
364.93        17.41692
365.38        17.00167
365.83        16.61105
366.28        16.30092
366.73         16.0345
367.18        15.83696
367.63        15.75409
368.08        15.77818
368.53        15.89423
368.98         16.0321
369.43        16.07142
369.88        15.98637
370.33        15.81616
370.78        15.59331
371.23        15.38222
371.68        15.21325
372.13        15.05898
372.58        14.96789
373.03        15.02011
373.48        15.21122
373.93        15.51321
374.38        15.79568
374.83        15.85493
375.28        15.65676
375.72        15.25467
376.17        14.80808
376.62        14.54007
377.07        14.51515
377.52        14.66043
377.97        14.88862
378.42        15.05589
378.87         15.1106
379.32        15.09945
379.77        15.03966
380.22        14.95194
380.67        14.84946
381.11        14.71995
381.56        14.57701
382.01        14.45956
382.46        14.37632
382.91        14.32054
383.36          14.279
383.81        14.22259
384.26        14.14618
384.71         14.0681
385.15        13.98019
385.60        13.87679
386.05        13.75522
386.50        13.60683
386.95        13.47754
387.40        13.44701
387.85        13.52292
388.29        13.67565
388.74        13.81542
389.19        13.81259
389.64        13.65468
390.09        13.37476
390.54        13.08534
390.98        12.97714
391.43        13.09766
391.88        13.37178
392.33        13.65656
392.78        13.74177
393.23        13.59847
393.67        13.30213
394.12        12.99539
394.57        12.82607
395.02        12.82808
395.47        12.94817
395.91        13.12278
396.36        13.22266
396.81          13.207
397.26        13.10335
397.71         12.9648
398.15        12.85432
398.60        12.80768
399.05        12.80776
399.50        12.79508
399.95        12.65045
400.39         12.4204
400.84        12.09645
401.29        11.79931
401.74        11.72246
402.18         11.9181
402.63        12.30317
403.08         12.7321
403.53        12.97257
403.97        12.96325
404.42        12.77173
404.87        12.49165
405.32        12.28991
405.76        12.22157
406.21        12.23505
406.66        12.28797
407.11        12.32566
407.55        12.33273
408.00        12.32947
408.45        12.31575
408.90        12.27744
409.34        12.21583
409.79        12.13191
410.24        12.05175
410.68        12.01423
411.13        12.02902
411.58        12.09165
412.03        12.17235
412.47        12.21943
412.92        12.20876
413.37        12.14953
413.81         12.0855
414.26        12.09914
414.71        12.19422
415.15        12.34934
415.60        12.47582
416.05        12.45112
416.49        12.25371
416.94        11.93909
417.39        11.60294
417.83        11.40904
418.28        11.40843
418.73        11.53593
419.17        11.72826
419.62        11.88024
420.07        11.95921
420.51        11.99834
420.96        11.98007
421.41        11.87246
421.85        11.68477
422.30        11.44757
422.74        11.22533
423.19        11.13924
423.64         11.1949
424.08        11.36629
424.53        11.57674
424.98        11.70865
425.42        11.72577
425.87        11.65577
426.31         11.5325
426.76        11.44928
427.21        11.41062
427.65        11.31118
428.10        11.21622
428.54        11.29706
428.99        11.55969
429.44        11.93492
429.88        12.26673
430.33        12.34509
430.77         12.1412
431.22        11.72313
431.66        11.28137
432.11        11.14959
432.56        11.36288
433.00        11.76652
433.45        12.17995
433.89        12.43528
434.34        12.42027
434.78         12.0832
435.23        11.65824
435.67          11.575
436.12        11.80706
436.57        11.92843
437.01        11.86716
437.46        11.80235
437.90        11.74508
438.35        11.64785
438.79        11.53676
439.24        11.48434
439.68         11.5052
440.13        11.52579
440.57        11.53809
441.02          11.686
441.46        11.86679
441.91        11.68291
442.35        11.23332
442.80        10.99702
443.24        10.96325
443.69        10.95794
444.13        10.93039
444.58        10.80529
445.02        10.62189
445.47        10.61886
445.91        10.75907
446.36        10.78791
446.80        10.68523
447.24        10.59249
447.69         10.5369
448.13        10.48775
448.58        10.45771
449.02        10.45621
449.47        10.46058
449.91        10.43246
450.36        10.36894
450.80        10.27569
451.25        10.19927
451.69          10.202
452.13        10.29302
452.58        10.43761
453.02        10.57912
453.47        10.62358
453.91         10.5556
454.36        10.40911
454.80        10.22834
455.24        10.09019
455.69        10.02949
456.13        10.01969
456.58        10.06294
457.02        10.14524
457.46        10.26059
457.91        10.40526
458.35        10.55229
458.79        10.64732
459.24        10.68408
459.68        10.65808
460.13        10.61213
460.57        10.58374
461.01        10.59842
461.46        10.64158
461.90        10.68741
462.34        10.67941
462.79        10.60756
463.23        10.48336
463.68         10.3718
464.12        10.37648
464.56        10.51764
465.01        10.76151
465.45         10.9904
465.89        11.07183
466.34        10.99452
466.78        10.74336
467.22        10.45425
467.67        10.44998
468.11        10.71791
468.55        10.91694
468.99         10.9751
469.44        10.99908
469.88        11.01208
470.32        11.07219
470.77        11.15917
471.21        11.16165
471.65        11.07531
472.10        11.00261
472.54        10.97059
472.98        10.99415
473.42        11.08119
473.87        11.22935
474.31        11.39322
474.75        11.49177
475.20         11.5115
475.64        11.46966
476.08        11.41121
476.52         11.4074
476.97        11.47593
477.41        11.59868
477.85        11.73526
478.29        11.84271
478.74        11.90832
479.18        11.88467
479.62        11.81033
480.06        11.94766
480.50        12.05716
480.95        12.15752
481.39        12.14472
481.83        12.11092
482.27        12.06227
482.72        11.91369
483.16        11.72604
483.60        11.77223
484.04        12.06597
484.48        12.20313
484.93        12.36642
485.37        12.82834
485.81        13.43882
486.25        13.66358
486.69        17.85222
487.14        13.99634
487.58        9.433543
488.02        11.51172
488.46        13.12932
488.90        13.20641
489.34        13.29918
489.79        13.25582
490.23        13.96951
490.67        14.41127
491.11        14.38149
491.55         14.2907
491.99        14.12407
492.43         13.9671
492.88        13.88834
493.32        13.92058
493.76        13.98333
494.20        14.19893
494.64        14.52208
495.08        14.91224
495.52        15.31578
495.96         15.6717
496.41        15.91553
496.85        16.04183
497.29        16.07174
497.73        15.88804
498.17        15.69555
498.61        15.87615
499.05        16.42619
499.49        16.56648
499.93        16.68759
500.37        16.81824
500.82        16.90979
501.26        17.12744
501.70        17.38318
502.14        17.53273
502.58        17.55503
503.02        17.58629
503.46        17.63351
503.90        17.61007
504.34        17.54395
504.78        17.52361
505.22        17.56457
505.66        17.64941
506.10        17.75478
506.54        17.83765
506.98        17.88682
507.42        17.91694
507.86        17.95598
508.30        18.04697
508.74        18.19432
509.18        18.37523
509.62        18.55698
510.06        18.68755
510.50        18.75432
510.94        18.78174
511.38        18.78137
511.82        18.77089
512.26        18.76216
512.70        18.74474
513.14        18.75032
513.58        18.83135
514.02         18.9802
514.46        19.17288
514.90        19.34077
515.34        19.33841
515.78        19.11641
516.22        18.88273
516.66         18.7259
517.10        18.32769
517.54        17.71718
517.98        18.53328
518.42        18.34348
518.86        18.71136
519.30        18.88844
519.74        19.10968
520.18        19.30585
520.62        19.33566
521.06        19.20962
521.50         18.9427
521.93         18.6334
522.37        18.45729
522.81        18.45589
523.25        18.58228
523.69        18.75305
524.13        18.83549
524.57        18.79349
525.01         18.6669
525.45        18.50865
525.89        18.40313
526.32        18.37223
526.76        18.38758
527.20        18.40441
527.64        18.36362
528.08        18.25504
528.52        18.08375
528.96        17.89035
529.40        17.78414
529.83        17.79022
530.27        17.69441
530.71        17.79466
531.15         17.7299
531.59        17.59199
532.03        17.39633
532.46        17.21823
532.90        17.18161
533.34         17.2995
533.78        17.52363
534.22        17.75579
534.66        17.85238
535.09        17.77807
535.53        17.58705
535.97        17.34578
536.41        17.16327
536.85        17.07788
537.28        17.06291
537.72        17.09304
538.16        17.12729
538.60        17.15252
539.04        17.17119
539.47        17.20357
539.91        17.31961
540.35        17.50363
540.79        17.66913
541.22        17.79178
541.66        17.90728
542.10        18.00856
542.54         18.0568
542.97        18.08944
543.41        18.19748
543.85        18.39055
544.29        18.65359
544.72        18.91473
545.16        19.06882
545.60        19.09739
546.04        19.02983
546.47        18.97274
546.91        19.10353
547.35        19.44257
547.79        19.93354
548.22        20.42924
548.66        20.68089
549.10        20.65262
549.53        20.45657
549.97         20.2414
550.41         20.1822
550.84        20.33481
551.28        20.65553
551.72        21.06727
552.15         21.4302
552.59        21.68871
553.03        21.88136
553.46        22.02682
553.90        22.16955
554.34        22.32923
554.77        22.46276
555.21         22.5647
555.65        22.69793
556.08        22.87436
556.52        22.80497
556.96        23.02846
557.39        23.12075
557.83        23.24825
558.27        23.38491
558.70        23.53425
559.14        23.68702
559.57        23.82679
560.01        23.96433
560.45        24.07074
560.88        24.10023
561.32        24.07132
561.75        23.99041
562.19         23.9153
562.63         23.9003
563.06        23.95651
563.50        24.07187
563.93        24.22459
564.37        24.39009
564.80        24.54621
565.24        24.70694
565.68        24.85323
566.11        24.95823
566.55        25.03948
566.98         25.0983
567.42         25.1753
567.85        25.32809
568.29        25.58227
568.72        25.84282
569.16        26.11139
569.60        26.49616
570.03        26.87476
570.47        26.94067
570.90        26.80384
571.34        26.59659
571.77        26.95166
572.21        27.09784
572.64        27.24346
573.08        26.99376
573.51        26.13789
573.95        27.32255
574.38        29.09217
574.82        28.46699
