SpectraSmart Spectrum 2.9.0.0
--------- Device Information -----------
Spectrum Name :  反射率_0
Saving Time :  2024/04/25 22:54:59
Spectro-Module Model Name : SE2030-DUVN
Spectro-Module Serial Number : OS361AC55029948
Wavelength Start : 200
Wavelength End : 1025
Wavelength Unit : Wavelength(nm)
Spectrum Unit : Reflectance(%)
-----------Spectrum Setting ------------
Integration Time : 20ms
Average : 10
Boxcar : 0
Background removal :  enabled
linearity correction :  enabled
SC :  disabled
Intensity correction :  disabled
DWT denoise :  enabled
savitzky-golay :  disabled
FFT :  disabled
Running average :  disabled
Kalman :  disabled
High pass :  disabled
---------------BEGIN--------------------
Wavelength(nm)             Reflectance(%)
200.29               0
200.75        81.21014
201.21        75.24368
201.67        68.20064
202.13        63.23615
202.58        60.76814
203.04        60.27537
203.50        61.11654
203.96        62.18774
204.42        62.92091
204.88        63.49281
205.34          64.021
205.80        64.70194
206.26        65.83134
206.72        68.05129
207.18        71.70284
207.64        73.17032
208.10        68.07394
208.55        61.57932
209.01        58.59865
209.47        59.47428
209.93          62.952
210.39        68.78276
210.85        74.83237
211.31        75.97358
211.77        70.72936
212.23        61.14802
212.69        51.49752
213.14        48.39407
213.60        52.92172
214.06        63.27382
214.52        75.51888
214.98        83.51931
215.44        85.47206
215.90        83.18922
216.36        78.94684
216.81        75.81312
217.27         74.9116
217.73        75.20803
218.19        75.14204
218.65        72.59784
219.11        66.66044
219.57        56.57755
220.02        43.81654
220.48        36.74767
220.94        39.92479
221.40        51.10329
221.86        61.70818
222.32        62.87096
222.77        55.70151
223.23        45.19501
223.69        36.35402
224.15        34.28346
224.61        38.40888
225.06        46.09732
225.52        53.88899
225.98        57.42634
226.44        55.90712
226.90         51.2632
227.36         45.7364
227.81        42.28313
228.27        41.92161
228.73        43.43634
229.19        45.90469
229.65        48.01283
230.10        49.24858
230.56        50.02331
231.02        50.58966
231.48        51.18757
231.93        51.85245
232.39        52.51526
232.85        52.93489
233.31        52.82962
233.77        52.17355
234.22        51.05872
234.68         49.9227
235.14        49.55738
235.60        50.18201
236.05         51.5486
236.51        53.08243
236.97         53.9411
237.43        53.92677
237.88        53.24656
238.34        52.10836
238.80        51.47603
239.26        51.85075
239.71          53.076
240.17        54.60711
240.63        55.92765
241.08        56.90264
241.54        57.74276
242.00        58.46835
242.46        59.05334
242.91        59.78539
243.37        60.60636
243.83        64.69118
244.28        91.84238
244.74        149.0166
245.20        149.9931
245.66        135.3826
246.11        131.4555
246.57        136.0594
247.03        153.1542
247.48        197.6045
247.94        153.8529
248.40        101.2258
248.85         87.3647
249.31        84.32488
249.77        85.19276
250.22         88.4645
250.68          94.646
251.14        102.9892
251.59        106.1489
252.05        98.35936
252.51        83.90575
252.96        69.90559
253.42        62.27618
253.88        60.23749
254.33        61.76936
254.79        66.06842
255.25        71.33228
255.70        76.19843
256.16        80.73759
256.62        83.79597
257.07        84.20301
257.53        82.70142
257.99        79.63555
258.44        76.05256
258.90        74.16007
259.35        73.28475
259.81        72.89657
260.27        71.90576
260.72        69.23708
261.18        65.49403
261.63        61.05747
262.09        56.96201
262.55        53.71327
263.00        51.33938
263.46        49.74514
263.91        48.46218
264.37        47.27938
264.83         45.9898
265.28        44.54079
265.74        43.21636
266.19        42.16774
266.65        41.54976
267.11         41.2082
267.56        40.83883
268.02         40.0739
268.47        38.82307
268.93        37.22733
269.38        35.54747
269.84        34.46189
270.30         34.1358
270.75        34.37888
271.21        34.80965
271.66        34.85033
272.12        34.34628
272.57        33.47255
273.03        32.51166
273.48        31.80425
273.94        31.47157
274.39        31.35231
274.85        31.29508
275.31        31.06899
275.76        30.61061
276.22        30.03741
276.67        29.44476
277.13         29.0602
277.58        28.86693
278.04        28.81781
278.49        28.74404
278.95        28.48404
279.40        27.98128
279.86        27.36104
280.31        26.70283
280.77        26.24277
281.22         25.9803
281.68        25.86673
282.13        25.80756
282.59        25.71197
283.04        25.54225
283.50        25.36976
283.95        25.17084
284.41        24.93434
284.86        24.65811
285.32        24.34726
285.77        24.08983
286.22        24.08446
286.68        24.32462
287.13        24.72354
287.59        25.06828
288.04        25.02774
288.50        24.58283
288.95        23.83337
289.41        23.03981
289.86         22.4845
290.32        22.29047
290.77        22.34873
291.22        22.56296
291.68        22.74598
292.13        22.85243
292.59        22.94839
293.04        23.10707
293.50        23.44315
293.95        23.95987
294.40         24.5743
294.86        25.19546
295.31        25.70242
295.77        26.07006
296.22        26.34776
296.68        26.56795
297.13        26.75218
297.58        26.94544
298.04        27.16234
298.49        27.47108
298.95        28.01599
299.40        28.79661
299.85        29.75674
300.31        30.76847
300.76        31.63225
301.21        32.27254
301.67        32.76911
302.12        33.12552
302.58        33.41886
303.03        33.66427
303.48        33.85139
303.94        34.09647
304.39        34.53989
304.84        35.19686
305.30        36.01602
305.75        36.78838
306.20         37.2012
306.66          37.225
307.11        36.95277
307.57        36.61774
308.02        36.48626
308.47        36.65584
308.93          37.033
309.38        37.50899
309.83        37.94703
310.29        38.28116
310.74        38.54145
311.19         38.7258
311.65        38.82598
312.10        38.84521
312.55        38.78147
313.00        38.64277
313.46         38.4635
313.91        38.25554
314.36         38.0381
314.82        37.86477
315.27        37.78792
315.72        37.82419
316.18        37.95538
316.63        38.12192
317.08        38.20026
317.53        38.15352
317.99        37.99803
318.44        37.81108
318.89          37.723
319.35        37.74959
319.80        37.85929
320.25        37.93328
320.70        37.78112
321.16        37.37281
321.61        36.78034
322.06        36.15385
322.51        35.71851
322.97        35.51514
323.42        35.48952
323.87        35.52073
324.32        35.40547
324.78        35.08619
325.23         34.6397
325.68        34.15287
326.13        33.77078
326.59        33.53161
327.04        33.40803
327.49        33.35048
327.94        33.28644
328.39        33.18988
328.85         33.0734
329.30        32.98726
329.75        32.96133
330.20        33.00341
330.66        33.07602
331.11        33.16316
331.56        33.19485
332.01        33.14944
332.46        33.02915
332.92         32.8592
333.37        32.73613
333.82        32.67352
334.27        32.67015
334.72        32.65832
335.17        32.52274
335.63        32.24311
336.08        31.86174
336.53        31.51245
336.98        31.41412
337.43        31.60238
337.88        32.01076
338.34        32.42764
338.79        32.55733
339.24        32.30288
339.69        31.75506
340.14        31.13104
340.59        30.81384
341.05        30.89893
341.50        31.26128
341.95        31.70816
342.40        31.95844
342.85        31.94186
343.30        31.76069
343.75        31.48664
344.20        31.24434
344.66        31.08689
345.11        30.93476
345.56        30.82101
346.01        30.79936
346.46        30.85774
346.91        31.00046
347.36        31.08764
347.81        30.88839
348.26        30.38779
348.72        29.69387
349.17        29.00049
349.62        28.70634
350.07        28.90055
350.52        29.44518
350.97        30.13094
351.42        30.63643
351.87        30.85916
352.32        30.88446
352.77        30.76729
353.22        30.59934
353.67        30.42449
354.13        30.21827
354.58        29.98834
355.03        29.79452
355.48        29.65124
355.93        29.56325
356.38        29.50857
356.83        29.43694
357.28        29.32899
357.73        29.18982
358.18        29.02895
358.63        28.86188
359.08        28.69793
359.53        28.54402
359.98        28.37965
360.43        28.17494
360.88        27.93093
361.33        27.65124
361.78        27.40899
362.23        27.32145
362.68        27.39489
363.13        27.58109
363.58        27.74747
364.03        27.68657
364.48        27.36296
364.93        26.85526
365.38        26.28969
365.83        25.87146
366.28         25.6644
366.73        25.60332
367.18        25.64658
367.63        25.72294
368.08        25.78757
368.53        25.85795
368.98        25.88588
369.43        25.79047
369.88        25.56765
370.33          25.244
370.78        24.88674
371.23        24.61977
371.68        24.48374
372.13        24.44282
372.58        24.48956
373.03        24.60046
373.48        24.74648
373.93        24.93139
374.38        25.07871
374.83        25.07109
375.28        24.89428
375.72         24.5678
376.17        24.22088
376.62        24.03155
377.07        24.04378
377.52        24.19912
377.97        24.40258
378.42        24.49709
378.87        24.43924
379.32        24.28659
379.77        24.08718
380.22        23.90611
380.67        23.76627
381.11        23.64564
381.56        23.54245
382.01        23.46651
382.46        23.41544
382.91        23.38895
383.36         23.3715
383.81         23.3328
384.26         23.2644
384.71        23.17408
385.15        23.05744
385.60        22.92776
386.05        22.77929
386.50         22.6036
386.95         22.4255
387.40        22.29121
387.85        22.21848
388.29        22.19904
388.74        22.20036
389.19        22.13264
389.64        21.98635
390.09        21.77416
390.54        21.58708
390.98        21.57611
391.43        21.77018
391.88        22.10225
392.33        22.42026
392.78        22.50303
393.23        22.32726
393.67        21.96719
394.12        21.60429
394.57        21.41876
395.02        21.44944
395.47        21.63047
395.91        21.87884
396.36        22.01519
396.81         21.9888
397.26        21.84548
397.71        21.64917
398.15        21.47205
398.60        21.36868
399.05        21.31646
399.50        21.27397
399.95        21.12541
400.39        20.95474
400.84        20.72063
401.29         20.5197
401.74        20.47998
402.18        20.63932
402.63        20.92972
403.08        21.25589
403.53        21.46423
403.97        21.51108
404.42        21.43575
404.87        21.28997
405.32        21.16687
405.76        21.09713
406.21        21.06047
406.66        21.04007
407.11        21.01945
407.55        20.99749
408.00        20.97785
408.45        20.95999
408.90        20.92702
409.34        20.87802
409.79        20.82038
410.24        20.77377
410.68        20.76576
411.13        20.80506
411.58        20.88081
412.03        20.97432
412.47        21.05631
412.92        21.09925
413.37        21.11211
413.81        21.10314
414.26        21.10609
414.71        21.11834
415.15        21.13196
415.60        21.11983
416.05        21.05755
416.49        20.94418
416.94        20.80734
417.39        20.66381
417.83         20.5398
418.28        20.45766
418.73        20.40307
419.17        20.40195
419.62        20.48879
420.07        20.65643
420.51        20.88802
420.96        21.10368
421.41        21.16713
421.85        21.04559
422.30         20.8114
422.74        20.54345
423.19        20.39895
423.64        20.39399
424.08        20.49589
424.53        20.64041
424.98        20.75353
425.42        20.81333
425.87        20.82843
426.31        20.81075
426.76        20.83573
427.21        20.88255
427.65        20.79032
428.10         20.6487
428.54        20.73769
428.99        21.07512
429.44        21.53883
429.88        21.92587
430.33        21.99222
430.77        21.69884
431.22         21.1302
431.66        20.52676
432.11        20.34764
432.56        20.62816
433.00        21.09533
433.45        21.52618
433.89        21.87461
434.34        21.98224
434.78        21.56324
435.23        20.94717
435.67        20.91523
436.12        21.39708
436.57         21.5833
437.01        21.40739
437.46        21.33101
437.90        21.40062
438.35        21.48482
438.79        21.53816
439.24        21.55177
439.68        21.53171
440.13        21.39556
440.57         21.2475
441.02        21.52755
441.46        22.08341
441.91        22.14058
442.35        21.73446
442.80        21.50325
443.24         21.4554
443.69         21.4979
444.13        21.55686
444.58        21.33125
445.02        20.91759
445.47        20.88075
445.91         21.1613
446.36        21.22974
446.80        21.05359
447.24        20.93203
447.69        20.90027
448.13         20.8729
448.58        20.86295
449.02        20.88602
449.47        20.92394
449.91        20.94748
450.36        20.95313
450.80        20.94135
451.25        20.93646
451.69        20.96362
452.13        21.02942
452.58        21.11101
453.02         21.1902
453.47        21.24195
453.91        21.26053
454.36        21.26076
454.80        21.23527
455.24        21.16799
455.69        21.07564
456.13        20.95812
456.58        20.87954
457.02        20.90196
457.46        21.04088
457.91        21.26405
458.35        21.50164
458.79        21.64039
459.24        21.66331
459.68        21.58731
460.13         21.4825
460.57        21.41064
461.01        21.41267
461.46        21.46469
461.90        21.53953
462.34        21.59204
462.79        21.60271
463.23        21.57746
463.68        21.56009
464.12        21.62841
464.56        21.78999
465.01        22.03305
465.45        22.22199
465.89        22.24181
466.34         22.0952
466.78        21.70226
467.22        21.26073
467.67        21.30217
468.11        21.77032
468.55        22.01333
468.99        21.95005
469.44        21.89438
469.88        21.91591
470.32         22.0932
470.77        22.36193
471.21        22.45238
471.65        22.33882
472.10        22.23543
472.54        22.19201
472.98        22.20978
473.42        22.30578
473.87        22.48709
474.31        22.69185
474.75        22.81998
475.20        22.85481
475.64        22.81275
476.08        22.75143
476.52        22.75887
476.97        22.85715
477.41        23.02281
477.85        23.19556
478.29        23.32282
478.74        23.39235
479.18        23.31021
479.62        23.14398
480.06        23.38832
480.50        23.57703
480.95        23.76259
481.39        23.75756
481.83        23.76701
482.27         23.7906
482.72        23.62031
483.16        23.36313
483.60        23.50255
484.04        24.04157
484.48        24.30241
484.93        24.56518
485.37        25.06095
485.81         25.5942
486.25        25.79182
486.69        34.11446
487.14         27.1041
487.58        17.78345
488.02        21.72581
488.46        24.83212
488.90        25.03531
489.34        25.24073
489.79        25.11936
490.23        26.41618
490.67        26.99774
491.11        26.64106
491.55        26.58568
491.99        26.75707
492.43        26.76952
492.88        26.68612
493.32        26.90928
493.76        27.21798
494.20        27.58213
494.64        27.89931
495.08        28.18532
495.52        28.45629
495.96        28.76568
496.41        29.05526
496.85        29.29826
497.29        29.46998
497.73         29.2168
498.17        28.88463
498.61        29.21816
499.05        30.22259
499.49        30.53097
499.93        30.81722
500.37        30.93341
500.82        30.82482
501.26        31.01853
501.70        31.37778
502.14        31.52575
502.58        31.44081
503.02        31.44349
503.46        31.54934
503.90        31.58246
504.34        31.56567
504.78        31.61304
505.22        31.73578
505.66        31.90783
506.10        32.09573
506.54        32.24097
506.98        32.32711
507.42        32.37065
507.86        32.41296
508.30        32.51884
508.74        32.69783
509.18        32.92302
509.62        33.14627
510.06        33.28902
510.50        33.33513
510.94        33.32112
511.38        33.28013
511.82        33.26224
512.26        33.28717
512.70         33.3335
513.14        33.41682
513.58        33.56329
514.02        33.75561
514.46         33.9754
514.90        34.15822
515.34         34.1728
515.78        33.97861
516.22        33.75064
516.66        33.57264
517.10          33.204
517.54        32.67891
517.98        33.33919
518.42        33.19737
518.86        33.53531
519.30        33.73645
519.74        33.98549
520.18        34.22109
520.62        34.31955
521.06        34.28407
521.50        34.13069
521.93        33.91873
522.37        33.75882
522.81        33.68574
523.25        33.67118
523.69        33.70052
524.13        33.74737
524.57        33.79485
525.01        33.85117
525.45        33.89059
525.89         33.8691
526.32        33.77642
526.76        33.62397
527.20        33.44327
527.64        33.29798
528.08        33.21243
528.52        33.14286
528.96        33.06094
529.40        33.01175
529.83        33.00636
530.27         32.7016
530.71        32.75385
531.15        32.65707
531.59        32.60857
532.03        32.57517
532.46        32.58228
532.90        32.66491
533.34        32.80583
533.78        32.98843
534.22        33.13236
534.66        33.12047
535.09        32.93253
535.53        32.62382
535.97        32.27842
536.41        32.03952
536.85        31.95155
537.28         31.9798
537.72        32.07726
538.16        32.16704
538.60        32.22255
539.04        32.24258
539.47        32.24953
539.91        32.36021
540.35        32.54784
540.79        32.66196
541.22        32.70057
541.66        32.79615
542.10        32.94853
542.54        33.07364
542.97        33.19116
543.41        33.38508
543.85        33.65395
544.29        33.98546
544.72        34.30218
545.16        34.49889
545.60         34.5556
546.04        34.49949
546.47        34.45095
546.91        34.61408
547.35        35.01141
547.79        35.58649
548.22        36.16576
548.66        36.45199
549.10        36.40817
549.53        36.18464
549.97        35.96171
550.41        35.93131
550.84        36.15934
551.28        36.60036
551.72        37.15676
552.15        37.64285
552.59        37.98839
553.03        38.24201
553.46         38.4291
553.90        38.60917
554.34        38.80175
554.77        38.97493
555.21        39.12665
555.65        39.18643
556.08        39.48425
556.52        39.27657
556.96        39.57353
557.39        39.62008
557.83        39.70612
558.27        39.79068
558.70        39.91105
559.14        40.11507
559.57        40.38193
560.01        40.70934
560.45        40.99695
560.88        41.08838
561.32        40.99202
561.75        40.74143
562.19        40.48119
562.63        40.37579
563.06         40.4594
563.50        40.69216
563.93        40.98811
564.37        41.23033
564.80        41.36719
565.24         41.4513
565.68        41.50889
566.11        41.58381
566.55        41.71939
566.98        41.88212
567.42        42.07519
567.85        42.31144
568.29        42.60742
568.72        42.81444
569.16        43.01029
569.60        43.45388
570.03        43.95104
570.47        44.02262
570.90        43.83417
571.34        43.21045
571.77        43.82246
572.21        43.84951
572.64        43.82843
573.08        43.27805
573.51        41.62626
573.95        43.42408
574.38        46.28521
574.82        45.41579
