SpectraSmart Spectrum 2.9.0.0
--------- Device Information -----------
Spectrum Name :  反射率_0
Saving Time :  2024/04/26 00:52:06
Spectro-Module Model Name : SE2030-DUVN
Spectro-Module Serial Number : OS361AC55029948
Wavelength Start : 200
Wavelength End : 1025
Wavelength Unit : Wavelength(nm)
Spectrum Unit : Reflectance(%)
-----------Spectrum Setting ------------
Integration Time : 20ms
Average : 10
Boxcar : 0
Background removal :  enabled
linearity correction :  enabled
SC :  disabled
Intensity correction :  disabled
DWT denoise :  enabled
savitzky-golay :  disabled
FFT :  disabled
Running average :  disabled
Kalman :  disabled
High pass :  disabled
---------------BEGIN--------------------
Wavelength(nm)             Reflectance(%)
200.29               0
200.75        72.37936
201.21        66.90816
201.67        61.14211
202.13        57.07242
202.58        54.86476
203.04        54.39031
203.50        55.21133
203.96        56.47671
204.42        57.63984
204.88        58.62663
205.34        59.51349
205.80         60.6048
206.26        62.25689
206.72        65.21117
207.18        69.80386
207.64        70.93797
208.10        63.23012
208.55        54.54187
209.01        50.10601
209.47        49.38898
209.93        50.85339
210.39         54.2471
210.85        58.00767
211.31        58.59309
211.77        55.05193
212.23        48.67171
212.69        42.74435
213.14        42.49686
213.60        48.55642
214.06        59.40742
214.52        71.21214
214.98         78.1216
215.44        78.64036
215.90        74.60882
216.36        68.76191
216.81        64.88584
217.27        64.10146
217.73        65.08853
218.19        65.86195
218.65        63.71869
219.11        57.59457
219.57        46.87495
220.02        32.85565
220.48        24.04096
220.94        25.46684
221.40        35.15255
221.86        45.20054
222.32        47.23049
222.77        41.88248
223.23        33.46695
223.69         26.3061
224.15        24.79452
224.61        28.43038
225.06        34.98282
225.52         41.3184
225.98        43.57635
226.44         41.1762
226.90        36.00462
227.36        30.24132
227.81        26.76837
228.27        26.52515
228.73         28.2334
229.19        31.15497
229.65        34.17537
230.10        36.65491
230.56         38.8163
231.02        40.34282
231.48        40.80601
231.93        40.33424
232.39        39.10662
232.85        37.69868
233.31        37.08929
233.77         37.4866
234.22        38.63062
234.68        40.06901
235.14         40.7739
235.60        40.41764
236.05        39.39917
236.51        38.13445
236.97        37.12583
237.43        36.57088
237.88        36.38615
238.34        36.70126
238.80         37.8554
239.26        39.84897
239.71        42.58528
240.17        45.54574
240.63        48.27165
241.08        50.53693
241.54        52.18799
242.00        53.08082
242.46        53.06263
242.91        51.97513
243.37        48.44504
243.83        39.57362
244.28        26.24973
244.74        39.80688
245.20        68.44483
245.66        77.47337
246.11        79.89886
246.57        80.85083
247.03        81.03458
247.48        75.38625
247.94        62.18583
248.40        64.38019
248.85        66.56271
249.31        68.25678
249.77        70.19619
250.22        72.85144
250.68        76.97898
251.14        82.11268
251.59        83.37875
252.05        77.51131
252.51        67.62363
252.96        58.48488
253.42        54.19923
253.88        54.02039
254.33        56.28746
254.79        60.54694
255.25         65.4789
255.70          69.973
256.16        74.18466
256.62        76.64512
257.07        75.87044
257.53         72.7373
257.99        67.82092
258.44        63.04221
258.90        61.43737
259.35        62.07313
259.81        63.72014
260.27        64.31216
260.72        61.87784
261.18        57.24796
261.63        51.40455
262.09        46.15851
262.55        42.94942
263.00        41.67514
263.46        41.63004
263.91        41.75249
264.37        41.18061
264.83        39.75883
265.28          37.744
265.74        35.78671
266.19        34.60928
266.65        34.40891
267.11        34.75314
267.56        35.07782
268.02        34.72819
268.47        33.59745
268.93        31.93383
269.38        30.08262
269.84        28.85352
270.30        28.46829
270.75         28.7018
271.21        29.13604
271.66        29.15064
272.12         28.5794
272.57        27.62092
273.03        26.61526
273.48        25.98504
273.94        25.85041
274.39        26.02528
274.85        26.24128
275.31        26.10791
275.76        25.54821
276.22        24.73277
276.67        23.90625
277.13        23.50291
277.58         23.5339
278.04        23.85303
278.49          24.155
278.95        24.07444
279.40        23.52943
279.86        22.71954
280.31        21.82328
280.77        21.20979
281.22         20.9236
281.68        20.86576
282.13         20.9084
282.59         20.9028
283.04        20.80024
283.50        20.68628
283.95        20.55718
284.41        20.41628
284.86        20.26652
285.32        20.10101
285.77        19.98263
286.22        20.07179
286.68        20.35603
287.13        20.76044
287.59         21.1137
288.04        21.15483
288.50        20.86686
288.95         20.3274
289.41        19.73084
289.86        19.26863
290.32        19.04879
290.77         19.0005
291.22        19.09033
291.68        19.22737
292.13         19.3876
292.59        19.59982
293.04        19.89129
293.50        20.30193
293.95        20.81373
294.40        21.36961
294.86         21.8968
295.31         22.3022
295.77        22.57212
296.22        22.74537
296.68        22.85941
297.13        22.94925
297.58        23.05784
298.04        23.19182
298.49        23.40793
298.95        23.82519
299.40        24.43957
299.85         25.2098
300.31        26.00268
300.76        26.61613
301.21        26.98582
301.67        27.19098
302.12        27.29023
302.58        27.42708
303.03        27.62281
303.48        27.84218
303.94        28.11362
304.39        28.44798
304.84        28.84003
305.30        29.28233
305.75        29.67284
306.20        29.86176
306.66        29.84915
307.11        29.67382
307.57        29.46931
308.02        29.36573
308.47        29.42433
308.93        29.59807
309.38        29.83802
309.83        30.09623
310.29        30.33025
310.74         30.5381
311.19        30.68795
311.65        30.72973
312.10        30.65724
312.55        30.49126
313.00        30.24719
313.46        29.96527
313.91        29.66844
314.36        29.37388
314.82        29.15325
315.27        29.09619
315.72        29.21319
316.18        29.46492
316.63         29.7548
317.08        29.89989
317.53        29.84475
317.99        29.62622
318.44        29.32775
318.89        29.08969
319.35        28.94613
319.80        28.86579
320.25        28.77927
320.70        28.57743
321.16        28.24395
321.61        27.82549
322.06        27.40872
322.51        27.11554
322.97        26.96121
323.42        26.91525
323.87        26.88776
324.32         26.7334
324.78        26.41646
325.23         25.9876
325.68        25.53288
326.13        25.19577
326.59        25.01057
327.04         24.9518
327.49        24.94859
327.94         24.8863
328.39        24.72968
328.85        24.50109
329.30        24.27931
329.75        24.16179
330.20        24.17546
330.66        24.27055
331.11        24.38991
331.56        24.39835
332.01        24.25786
332.46        23.99145
332.92        23.67303
333.37        23.46505
333.82        23.41164
334.27        23.48732
334.72        23.58521
335.17        23.52221
335.63         23.2546
336.08        22.84203
336.53        22.43589
336.98         22.2798
337.43        22.42129
337.88         22.7849
338.34        23.16837
338.79         23.2866
339.24         23.0455
339.69        22.53404
340.14        21.95563
340.59        21.66553
341.05        21.74677
341.50        22.08046
341.95        22.48248
342.40        22.68423
342.85        22.61953
343.30        22.38972
343.75        22.06349
344.20        21.76212
344.66        21.53862
345.11         21.3162
345.56        21.14479
346.01        21.10022
346.46        21.17184
346.91        21.36059
347.36        21.49312
347.81        21.28527
348.26         20.7163
348.72        19.91272
349.17        19.11928
349.62        18.82159
350.07        19.12387
350.52        19.85267
350.97        20.74006
351.42        21.37643
351.87        21.63595
352.32         21.6312
352.77        21.44344
353.22        21.20835
353.67        20.98532
354.13        20.73207
354.58        20.46209
355.03        20.24206
355.48        20.08753
355.93        20.01382
356.38        19.97675
356.83         19.8847
357.28        19.71736
357.73        19.49395
358.18        19.27385
358.63        19.15238
359.08        19.14732
359.53        19.22955
359.98        19.31722
360.43        19.28649
360.88        19.11319
361.33        18.83058
361.78        18.54004
362.23        18.40683
362.68        18.45796
363.13        18.63012
363.58        18.80081
364.03        18.77942
364.48        18.52936
364.93        18.12875
365.38        17.67536
365.83        17.32347
366.28        17.12671
366.73        17.03461
367.18        17.03526
367.63        17.10882
368.08        17.22373
368.53         17.3787
368.98        17.50796
369.43        17.50424
369.88        17.35456
370.33        17.09584
370.78        16.79228
371.23         16.5619
371.68        16.44522
372.13        16.40234
372.58        16.44101
373.03        16.56611
373.48        16.75232
373.93        16.99511
374.38        17.19031
374.83        17.17752
375.28        16.93542
375.72        16.49862
376.17        16.03055
376.62        15.76176
377.07        15.75465
377.52        15.94284
377.97        16.20612
378.42        16.34508
378.87        16.30527
379.32          16.153
379.77        15.96673
380.22        15.85758
380.67        15.85076
381.11        15.90278
381.56        15.96076
382.01        15.95343
382.46        15.85881
382.91        15.70175
383.36        15.52199
383.81        15.37784
384.26        15.28826
384.71        15.24223
385.15        15.19572
385.60        15.09234
386.05        14.91637
386.50        14.67976
386.95        14.45222
387.40        14.35192
387.85        14.40045
388.29        14.55421
388.74        14.70709
389.19         14.7061
389.64        14.53341
390.09        14.22845
390.54        13.91543
390.98        13.80395
391.43        13.94453
391.88        14.25302
392.33        14.56986
392.78        14.66179
393.23         14.4976
393.67        14.16269
394.12        13.81605
394.57        13.62512
395.02        13.62747
395.47        13.76223
395.91        13.95903
396.36        14.07482
396.81         14.0642
397.26        13.96093
397.71        13.81741
398.15        13.69469
398.60        13.63161
399.05        13.61048
399.50        13.58248
399.95        13.44201
400.39        13.24026
400.84        12.96255
401.29        12.71391
401.74        12.65662
402.18        12.83472
402.63        13.17341
403.08        13.54926
403.53        13.76503
403.97        13.76707
404.42        13.61132
404.87        13.37289
405.32        13.18703
405.76        13.10062
406.21        13.07622
406.66        13.08462
407.11        13.08812
407.55        13.07761
408.00        13.06848
408.45        13.06119
408.90        13.04281
409.34        13.01096
409.79        12.96223
410.24        12.91811
410.68         12.9124
411.13        12.95212
411.58         13.0323
412.03         13.1147
412.47        13.13452
412.92        13.06899
413.37        12.93804
413.81        12.80402
414.26        12.77627
414.71        12.86578
415.15         13.0435
415.60        13.21417
416.05        13.24401
416.49         13.1022
416.94        12.84128
417.39        12.54621
417.83        12.36347
418.28        12.34124
418.73        12.42279
419.17        12.55155
419.62        12.63301
420.07        12.64223
420.51        12.61282
420.96        12.54715
421.41         12.4449
421.85        12.31568
422.30        12.17452
422.74        12.05166
423.19        12.02348
423.64        12.08589
424.08        12.22439
424.53        12.37813
424.98        12.46245
425.42        12.45558
425.87        12.37742
426.31        12.25513
426.76        12.17234
427.21        12.12903
427.65        12.01975
428.10        11.91911
428.54        12.01587
428.99        12.31566
429.44         12.7384
429.88        13.10724
430.33        13.18566
430.77        12.94173
431.22         12.4553
431.66        11.93873
432.11        11.75806
432.56        11.95296
433.00        12.35575
433.45        12.77683
433.89        13.03854
434.34        13.02237
434.78         12.6764
435.23        12.23952
435.67        12.15379
436.12        12.38948
436.57        12.49923
437.01        12.41795
437.46         12.3506
437.90        12.31303
438.35        12.25245
438.79        12.17947
439.24        12.14454
439.68        12.15885
440.13        12.15109
440.57        12.13744
441.02        12.30834
441.46        12.56217
441.91        12.46231
442.35        12.07214
442.80        11.85361
443.24        11.78998
443.69        11.70795
444.13        11.58497
444.58        11.39494
445.02        11.19381
445.47        11.21602
445.91        11.39656
446.36        11.42309
446.80        11.26656
447.24        11.09696
447.69        10.96289
448.13        10.86389
448.58        10.82039
449.02        10.82485
449.47        10.85002
449.91         10.8513
450.36        10.81849
450.80        10.76215
451.25        10.70474
451.69        10.66945
452.13        10.66672
452.58        10.67902
453.02        10.69869
453.47        10.70772
453.91        10.70489
454.36        10.69875
454.80         10.6893
455.24        10.67635
455.69        10.66777
456.13        10.65726
456.58        10.66722
457.02        10.71488
457.46        10.80668
457.91        10.92913
458.35        11.05671
458.79        11.13939
459.24        11.17277
459.68        11.15635
460.13        11.12994
460.57         11.1231
461.01        11.15768
461.46        11.21607
461.90        11.27616
462.34        11.28902
462.79        11.24463
463.23        11.15399
463.68        11.06471
464.12        11.05285
464.56        11.13817
465.01        11.30107
465.45        11.45765
465.89        11.52328
466.34        11.49229
466.78           11.33
467.22         11.1396
467.67         11.2024
468.11        11.48839
468.55        11.64705
468.99        11.63431
469.44        11.61861
469.88        11.63763
470.32        11.73467
470.77        11.86457
471.21         11.8701
471.65        11.73867
472.10        11.59772
472.54        11.49554
472.98         11.4757
473.42        11.55612
473.87        11.72421
474.31        11.92669
474.75         12.0716
475.20        12.13778
475.64        12.14188
476.08        12.12326
476.52        12.14452
476.97        12.22178
477.41        12.33911
477.85        12.45694
478.29        12.53714
478.74        12.57167
479.18        12.51137
479.62        12.40645
480.06        12.54474
480.50        12.67623
480.95        12.81825
481.39        12.84727
481.83        12.83792
482.27        12.79121
482.72        12.62257
483.16        12.40764
483.60        12.44822
484.04        12.77143
484.48        12.94318
484.93        13.12522
485.37        13.62951
485.81        14.34286
486.25        14.42206
486.69        19.03052
487.14        15.08491
487.58        9.986878
488.02        12.29009
488.46         13.9427
488.90        13.91615
489.34        13.91278
489.79        13.81469
490.23        14.61434
490.67         15.1067
491.11        15.08235
491.55        15.03153
491.99        14.92814
492.43        14.81294
492.88         14.7474
493.32        14.77819
493.76        14.82383
494.20        15.02256
494.64        15.33086
495.08        15.70449
495.52        16.08776
495.96        16.41671
496.41        16.62748
496.85        16.72148
497.29        16.72711
497.73        16.52992
498.17        16.34399
498.61        16.56109
499.05        17.18172
499.49        17.39489
499.93        17.60158
500.37        17.82682
500.82        17.99512
501.26        18.24804
501.70        18.48825
502.14          18.572
502.58        18.51061
503.02        18.50284
503.46        18.56829
503.90        18.59984
504.34        18.59769
504.78        18.60714
505.22        18.63259
505.66        18.67323
506.10        18.72228
506.54        18.76425
506.98        18.79895
507.42         18.8308
507.86        18.88752
508.30         19.0132
508.74        19.20755
509.18        19.44616
509.62         19.6817
510.06        19.83674
510.50        19.89352
510.94        19.88481
511.38        19.83549
511.82        19.78581
512.26        19.75597
512.70        19.72975
513.14        19.74007
513.58        19.84041
514.02         20.0195
514.46        20.25157
514.90        20.45528
515.34        20.46563
515.78        20.22872
516.22        19.95436
516.66        19.74168
517.10        19.29699
517.54        18.65772
517.98        19.44326
518.42        19.24357
518.86        19.59587
519.30        19.75712
519.74        19.96042
520.18        20.14914
520.62        20.20036
521.06        20.12651
521.50        19.93979
521.93        19.70788
522.37        19.55723
522.81        19.52128
523.25         19.5652
523.69        19.65682
524.13        19.74339
524.57        19.80095
525.01        19.84327
525.45        19.85715
525.89        19.81989
526.32        19.72926
526.76        19.59194
527.20        19.43052
527.64        19.29165
528.08         19.1929
528.52        19.10699
528.96         19.0234
529.40        18.97479
529.83        18.96691
530.27        18.80004
530.71        18.83358
531.15        18.74716
531.59        18.65157
532.03        18.53889
532.46        18.44997
532.90        18.45419
533.34        18.55051
533.78        18.71121
534.22        18.86719
534.66        18.91704
535.09        18.83625
535.53        18.66538
535.97        18.45432
536.41        18.28698
536.85        18.19459
537.28        18.15998
537.72        18.16673
538.16        18.18753
538.60        18.21231
539.04        18.23522
539.47          18.272
539.91        18.38951
540.35        18.56989
540.79        18.72808
541.22        18.83835
541.66        18.93749
542.10        19.02035
542.54        19.04561
542.97        19.06516
543.41        19.19462
543.85        19.44364
544.29        19.78609
544.72        20.12375
545.16        20.31067
545.60        20.32061
546.04        20.19864
546.47        20.07249
546.91        20.15408
547.35         20.4751
547.79        20.96836
548.22        21.48486
548.66        21.77174
549.10        21.78813
549.53        21.65002
549.97        21.49026
550.41        21.45583
550.84        21.59897
551.28        21.88241
551.72        22.25201
552.15         22.6081
552.59        22.90259
553.03        23.15823
553.46        23.36841
553.90        23.54202
554.34        23.69126
554.77        23.78633
555.21        23.83406
555.65        23.92127
556.08        24.06983
556.52        23.96907
556.96        24.18998
557.39        24.29384
557.83        24.45376
558.27        24.64103
558.70        24.84484
559.14        25.03064
559.57        25.17679
560.01        25.30295
560.45        25.39256
560.88        25.42117
561.32        25.41232
561.75        25.36024
562.19        25.32047
562.63        25.34373
563.06        25.43581
563.50        25.58628
563.93        25.75887
564.37        25.90619
564.80        26.00762
565.24        26.09114
565.68        26.16312
566.11        26.23831
566.55        26.34469
566.98         26.4567
567.42        26.60738
567.85          26.852
568.29        27.24416
568.72        27.52967
569.16        27.75258
569.60        28.14651
570.03        28.52678
570.47        28.61293
570.90        28.52525
571.34        28.11404
571.77        28.60943
572.21        28.72889
572.64        28.85236
573.08        28.50252
573.51        27.55826
573.95        28.85399
574.38        30.80352
574.82         30.4457
