SpectraSmart Spectrum 2.9.0.0
--------- Device Information -----------
Spectrum Name :  反射率_0
Saving Time :  2024/04/26 00:35:25
Spectro-Module Model Name : SE2030-DUVN
Spectro-Module Serial Number : OS361AC55029948
Wavelength Start : 200
Wavelength End : 1025
Wavelength Unit : Wavelength(nm)
Spectrum Unit : Reflectance(%)
-----------Spectrum Setting ------------
Integration Time : 20ms
Average : 10
Boxcar : 0
Background removal :  enabled
linearity correction :  enabled
SC :  disabled
Intensity correction :  disabled
DWT denoise :  enabled
savitzky-golay :  disabled
FFT :  disabled
Running average :  disabled
Kalman :  disabled
High pass :  disabled
---------------BEGIN--------------------
Wavelength(nm)             Reflectance(%)
200.29               0
200.75        75.21479
201.21        69.65337
201.67        63.06312
202.13        58.06335
202.58        55.01485
203.04        53.54839
203.50        53.35106
203.96        53.91049
204.42        54.83679
204.88        56.10873
205.34          57.504
205.80        59.00665
206.26        61.03788
206.72         64.4966
207.18        70.90012
207.64        78.08037
208.10        77.32955
208.55        71.01295
209.01        66.17474
209.47        64.18627
209.93        63.84985
210.39        64.70667
210.85        65.28008
211.31        62.78056
211.77        56.93992
212.23        49.02259
212.69        42.38649
213.14        42.21523
213.60         49.0086
214.06        61.28916
214.52        74.77534
214.98        82.86272
215.44         83.8326
215.90        79.65122
216.36        73.28813
216.81        68.93211
217.27        67.86053
217.73        68.66833
218.19        69.31763
218.65        67.03897
219.11        60.71695
219.57        49.69818
220.02        35.40345
220.48        26.62612
220.94        28.52288
221.40        39.00944
221.86        49.55315
222.32        51.16992
222.77        44.72927
223.23        34.96348
223.69        26.82139
224.15        25.33073
224.61        29.91025
225.06        38.02438
225.52        45.98486
225.98        49.13059
226.44        46.70448
226.90        40.77658
227.36        34.14617
227.81        30.57079
228.27        31.12496
228.73        34.30885
229.19        38.51411
229.65        41.37198
230.10        42.31608
230.56         42.2756
231.02        42.04745
231.48        42.50031
231.93        43.70271
232.39        45.19628
232.85        46.62526
233.31        47.56257
233.77        47.83407
234.22         47.5934
234.68        46.82477
235.14        45.47689
235.60        43.72204
236.05        41.74171
236.51        39.82255
236.97        38.18926
237.43        36.88504
237.88         35.9679
238.34        35.59525
238.80        36.13934
239.26        37.71607
239.71        40.21506
240.17        43.17437
240.63        46.23964
241.08        49.15186
241.54        51.65096
242.00        53.51056
242.46        54.65114
242.91        55.22884
243.37        54.81891
243.83        53.56779
244.28         58.0197
244.74        79.78781
245.20        89.32922
245.66        87.46661
246.11        86.01024
246.57        85.30138
247.03         83.7383
247.48        75.42799
247.94        64.97234
248.40        70.03623
248.85        73.29335
249.31         75.0186
249.77        75.82211
250.22        76.15551
250.68        76.07094
251.14        75.25977
251.59        72.89587
252.05        69.56075
252.51        66.68252
252.96        64.08131
253.42         61.5785
253.88        58.77899
254.33        55.73326
254.79        54.69985
255.25        58.03361
255.70        64.62937
256.16        72.46702
256.62        78.17706
257.07        78.53455
257.53         74.6143
257.99        68.04621
258.44        61.50961
258.90        58.84492
259.35        59.17575
259.81        60.79152
260.27        61.49951
260.72        59.24715
261.18         54.7653
261.63        49.07905
262.09        43.82698
262.55        40.25325
263.00        38.36525
263.46        37.61491
263.91        37.14581
264.37        36.26904
264.83        34.81854
265.28        32.94431
265.74        31.22322
266.19        30.27904
266.65        30.24718
267.11        30.74002
267.56        31.15928
268.02        30.79056
268.47        29.54997
268.93         27.6897
269.38        25.66179
269.84        24.47415
270.30         24.3802
270.75        25.08162
271.21        25.99918
271.66        26.26881
272.12        25.67728
272.57        24.51575
273.03        23.23501
273.48        22.43423
273.94        22.28032
274.39        22.52049
274.85        22.86243
275.31        22.89159
275.76         22.5002
276.22        21.86047
276.67        21.15551
277.13        20.71417
277.58         20.5579
278.04        20.59589
278.49        20.61452
278.95        20.36643
279.40        19.80195
279.86        19.07251
280.31        18.34091
280.77        17.94132
281.22        17.88801
281.68        18.07017
282.13        18.31241
282.59        18.39267
283.04        18.25788
283.50        18.01308
283.95        17.70312
284.41        17.40645
284.86        17.15361
285.32        16.92111
285.77        16.76113
286.22        16.80924
286.68        17.04534
287.13        17.40953
287.59         17.7334
288.04        17.76155
288.50         17.4752
288.95        16.95164
289.41        16.37377
289.86        15.92667
290.32        15.71168
290.77         15.6558
291.22        15.73745
291.68        15.88644
292.13        16.07877
292.59        16.33351
293.04        16.64509
293.50        16.99977
293.95        17.37671
294.40        17.74368
294.86        18.07452
295.31        18.34864
295.77        18.56935
296.22        18.75419
296.68        18.91622
297.13        19.04673
297.58        19.17527
298.04        19.32663
298.49        19.55428
298.95        19.97051
299.40        20.57255
299.85        21.30665
300.31        22.07095
300.76        22.71898
301.21        23.18578
301.67        23.52793
302.12        23.73479
302.58        23.83976
303.03        23.85821
303.48        23.79835
303.94        23.77352
304.39        23.92785
304.84        24.28366
305.30        24.78799
305.75        25.28214
306.20        25.52282
306.66         25.4816
307.11        25.23253
307.57        24.92645
308.02        24.72552
308.47        24.69919
308.93        24.78392
309.38         24.9411
309.83        25.13867
310.29        25.33705
310.74        25.54181
311.19        25.69468
311.65         25.7023
312.10        25.55316
312.55        25.27366
313.00        24.92854
313.46        24.64001
313.91        24.44096
314.36        24.31764
314.82        24.26163
315.27        24.24475
315.72        24.25588
316.18        24.29922
316.63        24.35526
317.08        24.36942
317.53        24.32508
317.99         24.2206
318.44        24.09016
318.89        23.99541
319.35        23.94291
319.80        23.91934
320.25        23.86992
320.70        23.70774
321.16        23.42118
321.61        23.04289
322.06        22.64407
322.51        22.32867
322.97        22.11249
323.42        21.97383
323.87        21.85108
324.32        21.64347
324.78        21.32941
325.23         20.9491
325.68        20.56181
326.13        20.26199
326.59        20.07439
327.04         19.9889
327.49        19.96254
327.94        19.92538
328.39        19.85525
328.85        19.75922
329.30        19.69505
329.75        19.73299
330.20        19.88164
330.66        20.09163
331.11        20.30066
331.56        20.37097
332.01        20.26632
332.46        20.01255
332.92        19.68607
333.37        19.44644
333.82        19.34837
334.27         19.3727
334.72        19.43933
335.17        19.40609
335.63        19.23402
336.08        18.96359
336.53        18.70997
336.98        18.65672
337.43        18.83503
337.88         19.1891
338.34        19.52922
338.79        19.59114
339.24        19.29566
339.69        18.72435
340.14        18.11066
340.59        17.85911
341.05        18.05643
341.50        18.57008
341.95        19.15761
342.40         19.4643
342.85        19.40838
343.30        19.11234
343.75        18.69929
344.20        18.38599
344.66        18.24794
345.11          18.176
345.56         18.1629
346.01        18.19937
346.46        18.25655
346.91        18.36523
347.36        18.39805
347.81        18.14006
348.26        17.58967
348.72        16.85375
349.17        16.14355
349.62        15.89094
350.07        16.18755
350.52        16.88048
350.97        17.73342
351.42        18.38397
351.87        18.71358
352.32        18.81196
352.77        18.73357
353.22        18.57303
353.67        18.37889
354.13        18.12762
354.58        17.83959
355.03        17.59094
355.48        17.40631
355.93        17.29603
356.38         17.2407
356.83        17.18923
357.28        17.12151
357.73        17.04027
358.18        16.95629
358.63        16.88752
359.08         16.8358
359.53        16.79818
359.98        16.73594
360.43          16.593
360.88        16.36832
361.33        16.08058
361.78        15.81487
362.23        15.70869
362.68        15.77842
363.13        15.96713
363.58        16.16192
364.03        16.18609
364.48        16.00009
364.93         15.6693
365.38        15.26537
365.83        14.90421
366.28        14.63439
366.73        14.42369
367.18        14.28923
367.63        14.25875
368.08        14.31846
368.53         14.4548
368.98        14.59755
369.43         14.6306
369.88        14.53109
370.33        14.33565
370.78        14.08824
371.23        13.87245
371.68        13.72158
372.13        13.60496
372.58        13.55043
373.03        13.60123
373.48        13.74744
373.93        13.97639
374.38         14.1836
374.83        14.20532
375.28        14.01557
375.72        13.65142
376.17        13.26054
376.62        13.04527
377.07        13.06149
377.52        13.24669
377.97        13.49932
378.42        13.65404
378.87        13.65965
379.32        13.56521
379.77        13.43042
380.22        13.33916
380.67        13.31239
381.11        13.32309
381.56        13.32153
382.01         13.2409
382.46        13.06878
382.91        12.82999
383.36        12.59576
383.81        12.47305
384.26        12.48398
384.71        12.59988
385.15        12.72369
385.60        12.71848
386.05        12.55534
386.50        12.26954
386.95        11.97542
387.40        11.86881
387.85        11.98779
388.29         12.2568
388.74        12.53104
389.19        12.62021
389.64        12.49922
390.09        12.22328
390.54        11.92224
390.98        11.81263
391.43        11.94867
391.88        12.24209
392.33        12.53963
392.78        12.61886
393.23        12.45088
393.67        12.12283
394.12        11.78302
394.57        11.58748
395.02         11.5729
395.47         11.6833
395.91        11.85954
396.36        11.98118
396.81        12.00604
397.26        11.95819
397.71        11.87603
398.15        11.80146
398.60        11.76668
399.05        11.76204
399.50        11.74226
399.95        11.61292
400.39        11.41948
400.84        11.14772
401.29        10.91002
401.74        10.88461
402.18        11.11624
402.63        11.52957
403.08        11.97111
403.53        12.19721
403.97        12.14853
404.42        11.89404
404.87        11.55759
405.32        11.35741
405.76        11.35523
406.21         11.4805
406.66        11.64498
407.11        11.72746
407.55        11.70059
408.00        11.60437
408.45         11.4755
408.90        11.37282
409.34        11.32143
409.79        11.29571
410.24        11.29231
410.68        11.30889
411.13        11.34423
411.58        11.41189
412.03        11.48213
412.47        11.50177
412.92         11.4525
413.37         11.3398
413.81        11.23323
414.26        11.25643
414.71        11.41715
415.15        11.68262
415.60        11.92181
416.05        11.94246
416.49        11.70794
416.94         11.2944
417.39        10.84226
417.83        10.59227
418.28        10.61659
418.73         10.8252
419.17        11.11755
419.62        11.33297
420.07        11.42546
420.51        11.44708
420.96        11.39973
421.41        11.28273
421.85        11.11337
422.30        10.90602
422.74        10.71568
423.19        10.65174
423.64        10.71761
424.08        10.89537
424.53        11.10483
424.98        11.22052
425.42        11.20587
425.87        11.08759
426.31        10.91971
426.76        10.82586
427.21        10.81571
427.65        10.78145
428.10        10.74819
428.54        10.81812
428.99        10.98661
429.44         11.2094
429.88        11.38791
430.33        11.39543
430.77        11.21813
431.22        10.89527
431.66        10.56246
432.11        10.47345
432.56        10.64711
433.00        10.95218
433.45        11.25077
433.89        11.44811
434.34        11.45971
434.78        11.21626
435.23        10.89448
435.67        10.84529
436.12        11.03532
436.57        11.07917
437.01         10.9436
437.46        10.84973
437.90        10.82026
438.35        10.79324
438.79        10.75711
439.24        10.72546
439.68        10.70196
440.13        10.64001
440.57         10.5639
441.02        10.65216
441.46        10.82302
441.91        10.69554
442.35        10.33928
442.80        10.17052
443.24         10.1713
443.69        10.18808
444.13        10.16768
444.58        10.03113
445.02        9.816803
445.47        9.749341
445.91        9.804847
446.36        9.771509
446.80        9.639163
447.24        9.532175
447.69        9.470506
448.13        9.416844
448.58        9.379183
449.02        9.368777
449.47        9.364353
449.91        9.328856
450.36        9.261154
450.80        9.168526
451.25        9.095359
451.69        9.102163
452.13        9.198099
452.58        9.346826
453.02        9.502869
453.47        9.588334
453.91         9.58884
454.36        9.533456
454.80        9.439456
455.24        9.340225
455.69        9.259792
456.13        9.181554
456.58        9.144638
457.02        9.191719
457.46        9.326571
457.91        9.531693
458.35         9.73868
458.79        9.825937
459.24        9.779854
459.68        9.625623
460.13        9.459273
460.57        9.399865
461.01        9.485701
461.46        9.667589
461.90        9.875546
462.34        9.985679
462.79        9.967427
463.23        9.853556
463.68        9.714865
464.12        9.667436
464.56         9.74432
465.01        9.906352
465.45         10.0651
465.89        10.12613
466.34        10.08108
466.78        9.914604
467.22         9.71928
467.67         9.74052
468.11        9.955273
468.55          10.058
468.99        10.03136
469.44        10.05203
469.88         10.1543
470.32        10.36463
470.77        10.60845
471.21        10.68865
471.65         10.5762
472.10        10.39918
472.54        10.23069
472.98        10.16158
473.42        10.22183
473.87        10.38576
474.31        10.58117
474.75        10.68565
475.20        10.67532
475.64        10.58471
476.08        10.47758
476.52        10.45116
476.97        10.52825
477.41        10.67887
477.85         10.8472
478.29        10.96529
478.74        11.01417
479.18        10.96099
479.62        10.85518
480.06        10.95814
480.50        11.05549
480.95        11.15586
481.39         11.1584
481.83        11.14174
482.27        11.10642
482.72        10.97329
483.16         10.7974
483.60        10.82446
484.04         11.0553
484.48        11.16083
484.93        11.31829
485.37        11.67566
485.81        12.04627
486.25        12.48098
486.69         15.9488
487.14        12.56064
487.58        8.459857
488.02        10.53036
488.46        11.90333
488.90        11.89795
489.34        11.83018
489.79        11.75487
490.23        12.47055
490.67        12.90841
491.11        12.86602
491.55        12.73975
491.99        12.52877
492.43        12.34907
492.88        12.26852
493.32        12.27617
493.76        12.29912
494.20        12.46834
494.64        12.74437
495.08        13.08026
495.52        13.43369
495.96        13.76048
496.41        14.00226
496.85        14.15179
497.29        14.20797
497.73        14.03539
498.17        13.81314
498.61        13.89001
499.05        14.28378
499.49         14.3597
499.93          14.472
500.37        14.63174
500.82        14.77391
501.26        15.00754
501.70        15.24523
502.14        15.37243
502.58          15.375
503.02           15.38
503.46        15.39756
503.90        15.34558
504.34        15.25947
504.78         15.2352
505.22        15.28845
505.66        15.40263
506.10        15.53402
506.54        15.60341
506.98        15.59505
507.42        15.53713
507.86        15.48918
508.30         15.5441
508.74        15.71575
509.18        15.96231
509.62        16.22651
510.06         16.4147
510.50        16.50032
510.94        16.52293
511.38        16.49607
511.82        16.44137
512.26        16.37643
512.70         16.2855
513.14        16.22515
513.58        16.29023
514.02        16.47882
514.46        16.75709
514.90        17.01147
515.34        17.02263
515.78        16.72673
516.22        16.35871
516.66        16.06087
517.10        15.58857
517.54        14.99332
517.98        15.94229
518.42        15.87617
518.86        16.33412
519.30        16.52554
519.74         16.7147
520.18        16.86551
520.62         16.8882
521.06          16.807
521.50        16.61653
521.93        16.38745
522.37        16.25273
522.81        16.24345
523.25        16.33082
523.69        16.45481
524.13         16.5163
524.57        16.48919
525.01        16.40248
525.45        16.29761
525.89        16.24133
526.32        16.24735
526.76        16.28976
527.20        16.32714
527.64        16.30492
528.08        16.21327
528.52         16.0579
528.96        15.87165
529.40        15.74681
529.83        15.70988
530.27         15.5786
530.71        15.62988
531.15        15.56636
531.59        15.47244
532.03        15.35314
532.46        15.26486
532.90        15.30043
533.34         15.4603
533.78        15.70274
534.22        15.93385
534.66        16.01755
535.09        15.92488
535.53         15.7098
535.97        15.44479
536.41        15.24877
536.85        15.16266
537.28         15.1569
537.72        15.20766
538.16        15.27354
538.60        15.33723
539.04        15.40062
539.47        15.46802
539.91        15.58194
540.35        15.72564
540.79        15.82608
541.22        15.88078
541.66        15.95224
542.10        16.04235
542.54         16.1101
542.97        16.17085
543.41        16.27722
543.85         16.4312
544.29        16.62762
544.72        16.82256
545.16        16.95298
545.60        17.00752
546.04        17.00102
546.47        17.00194
546.91        17.12878
547.35        17.39064
547.79        17.74898
548.22        18.10146
548.66        18.27034
549.10        18.23495
549.53        18.08357
549.97        17.92053
550.41        17.85644
550.84        17.93255
551.28        18.12527
551.72        18.40054
552.15        18.69228
552.59         18.9609
553.03        19.21587
553.46        19.43471
553.90        19.59867
554.34        19.71379
554.77        19.76362
555.21        19.76463
555.65        19.80627
556.08        19.91237
556.52        19.81974
556.96         20.0011
557.39        20.09542
557.83        20.24253
558.27        20.41777
558.70        20.59966
559.14        20.73716
559.57        20.81043
560.01        20.84507
560.45        20.84441
560.88        20.81477
561.32        20.78465
561.75        20.74217
562.19        20.72574
562.63        20.76465
563.06         20.8585
563.50        21.00093
563.93        21.16112
564.37        21.29765
564.80        21.39136
565.24        21.46243
565.68        21.51447
566.11        21.55629
566.55        21.61155
566.98        21.67154
567.42        21.76447
567.85        21.92671
568.29        22.16932
568.72        22.41655
569.16        22.67849
569.60        22.99375
570.03        23.24885
570.47        23.31682
570.90        23.31634
571.34        22.79463
571.77        23.34943
572.21        23.36243
572.64        23.34185
573.08        23.26979
573.51        22.64522
573.95        23.74096
574.38         25.1689
574.82        24.70718
