SpectraSmart Spectrum 2.9.0.0
--------- Device Information -----------
Spectrum Name :  反射率_0
Saving Time :  2024/04/26 00:46:02
Spectro-Module Model Name : SE2030-DUVN
Spectro-Module Serial Number : OS361AC55029948
Wavelength Start : 200
Wavelength End : 1025
Wavelength Unit : Wavelength(nm)
Spectrum Unit : Reflectance(%)
-----------Spectrum Setting ------------
Integration Time : 20ms
Average : 10
Boxcar : 0
Background removal :  enabled
linearity correction :  enabled
SC :  disabled
Intensity correction :  disabled
DWT denoise :  enabled
savitzky-golay :  disabled
FFT :  disabled
Running average :  disabled
Kalman :  disabled
High pass :  disabled
---------------BEGIN--------------------
Wavelength(nm)             Reflectance(%)
200.29               0
200.75        90.30856
201.21        83.38501
201.67        75.59991
202.13        70.52905
202.58        68.64174
203.04        69.42408
203.50        71.79056
203.96         73.7719
204.42          74.626
204.88        74.78987
205.34        75.09995
205.80        76.74365
206.26        80.65384
206.72        88.95255
207.18        104.5825
207.64        117.4221
208.10        107.2743
208.55        88.01984
209.01        76.51627
209.47        73.83096
209.93        76.46642
210.39        82.64502
210.85        89.80289
211.31        92.06624
211.77         87.4614
212.23        78.47671
212.69        68.79076
213.14        64.00682
213.60        65.20631
214.06        70.87345
214.52         78.7832
214.98        85.44837
215.44        89.39965
215.90        91.39099
216.36        91.89627
216.81         91.3333
217.27        90.43311
217.73        89.16275
218.19        87.15821
218.65        83.81149
219.11        78.62239
219.57        70.60197
220.02        60.97009
220.48        56.41856
220.94        60.22121
221.40        70.56844
221.86        79.80607
222.32        80.08749
222.77        72.66531
223.23        62.30324
223.69        53.74496
224.15        51.93254
224.61        56.27745
225.06        64.19009
225.52        72.40469
225.98        76.73641
226.44        76.33851
226.90        72.99875
227.36        68.61526
227.81        65.68242
228.27        65.17238
228.73        66.00479
229.19        67.61582
229.65         69.2163
230.10         70.4041
230.56        71.54163
231.02        72.54036
231.48        73.28723
231.93        73.76844
232.39        73.99917
232.85        74.09088
233.31        74.34116
233.77        74.77715
234.22        75.35426
234.68         75.7317
235.14        75.28966
235.60        73.94893
236.05        72.01218
236.51        70.02158
236.97         68.6218
237.43        67.93497
237.88        67.90083
238.34        68.25272
238.80        68.64673
239.26        68.84032
239.71        69.14996
240.17        69.28123
240.63        69.32709
241.08        69.46321
241.54        69.52939
242.00        69.91723
242.46        71.34718
242.91        74.82925
243.37        82.69866
243.83        105.0435
244.28        169.3101
244.74        226.6776
245.20        175.7892
245.66        138.2235
246.11        127.6118
246.57        131.2808
247.03        153.1963
247.48        222.4328
247.94        192.9731
248.40        119.7262
248.85        96.43146
249.31        89.43601
249.77         88.5979
250.22        91.13752
250.68         97.0086
251.14         105.281
251.59        108.4381
252.05        100.7465
252.51        86.57146
252.96        73.74792
253.42        69.09764
253.88        71.51669
254.33        78.08311
254.79        86.22669
255.25        91.78481
255.70         93.6861
256.16        93.89127
256.62        92.62887
257.07        89.95996
257.53        86.64622
257.99        82.36523
258.44        78.15067
258.90        76.20565
259.35        75.65861
259.81        75.97124
260.27        75.45992
260.72        72.46591
261.18        67.81302
261.63         62.1688
262.09        57.24604
262.55        54.32549
263.00        53.20626
263.46        53.24348
263.91        53.33278
264.37        52.65409
264.83        51.03588
265.28        48.75434
265.74        46.45012
266.19        44.80661
266.65         44.1227
267.11        44.01817
267.56         44.0269
268.02        43.63584
268.47        42.71016
268.93        41.45525
269.38         40.1156
269.84        39.30236
270.30        39.15477
270.75        39.47846
271.21        39.90956
271.66        39.91769
272.12        39.37506
272.57        38.44827
273.03        37.45555
273.48        36.77935
273.94        36.54598
274.39        36.57664
274.85         36.6694
275.31        36.50691
275.76        36.00437
276.22        35.30404
276.67        34.54386
277.13        34.03043
277.58        33.75644
278.04        33.66296
278.49        33.53117
278.95        33.14212
279.40        32.43365
279.86        31.57229
280.31        30.69354
280.77        30.12461
281.22        29.87418
281.68        29.85803
282.13        29.92519
282.59        29.91978
283.04        29.77458
283.50        29.57546
283.95        29.30742
284.41        28.98168
284.86        28.60125
285.32        28.17179
285.77        27.76411
286.22         27.5598
286.68        27.55826
287.13        27.68242
287.59        27.77099
288.04        27.55882
288.50        27.03713
288.95        26.28361
289.41        25.49069
289.86        24.83394
290.32        24.42122
290.77        24.17254
291.22        24.07055
291.68        24.04856
292.13        24.07914
292.59        24.18465
293.04        24.35339
293.50        24.56924
293.95         24.8091
294.40        25.04062
294.86        25.25037
295.31        25.43178
295.77        25.59126
296.22        25.74459
296.68        25.87977
297.13        25.94868
297.58        25.97481
298.04        25.99438
298.49         26.1053
298.95         26.4915
299.40        27.16076
299.85        28.04156
300.31        28.96827
300.76        29.69055
301.21         30.1232
301.67        30.35665
302.12        30.45154
302.58        30.56097
303.03        30.71029
303.48        30.86647
303.94        31.06288
304.39        31.31675
304.84        31.62904
305.30          31.994
305.75        32.32023
306.20        32.47381
306.66        32.45591
307.11        32.29876
307.57        32.11444
308.02        31.99574
308.47        31.99994
308.93        32.09219
309.38          32.249
309.83        32.46496
310.29         32.7085
310.74        32.96425
311.19        33.17823
311.65        33.26628
312.10        33.21183
312.55        33.04316
313.00        32.79187
313.46        32.52618
313.91        32.27134
314.36        32.03009
314.82        31.85246
315.27        31.79358
315.72        31.86329
316.18        32.04526
316.63         32.2628
317.08         32.3629
317.53        32.30519
317.99        32.11687
318.44        31.89862
318.89        31.81819
319.35          31.904
319.80        32.11242
320.25        32.31397
320.70        32.29705
321.16        32.01698
321.61         31.5444
322.06        31.02552
322.51        30.68223
322.97        30.55678
323.42        30.59378
323.87        30.66926
324.32        30.57599
324.78        30.26107
325.23        29.80667
325.68        29.32142
326.13        28.98108
326.59        28.83385
327.04        28.84485
327.49        28.94614
327.94         29.0311
328.39        29.06038
328.85        29.05049
329.30        29.05957
329.75         29.1398
330.20         29.3004
330.66         29.4934
331.11        29.68002
331.56        29.75941
332.01        29.70692
332.46        29.53943
332.92        29.31486
333.37         29.1787
333.82         29.1644
334.27        29.25521
334.72        29.36474
335.17        29.34167
335.63        29.15026
336.08        28.84496
336.53        28.55117
336.98        28.47293
337.43        28.65311
337.88        29.03303
338.34        29.44132
338.79         29.6486
339.24        29.57171
339.69        29.27789
340.14        28.94228
340.59        28.86789
341.05         29.1142
341.50        29.57247
341.95        30.05629
342.40        30.30084
342.85        30.25015
343.30        30.00285
343.75        29.66012
344.20        29.39863
344.66        29.28321
345.11        29.22505
345.56        29.22285
346.01        29.27118
346.46        29.34781
346.91        29.47994
347.36         29.5507
347.81        29.36721
348.26        28.92319
348.72        28.30384
349.17        27.70235
349.62        27.51844
350.07        27.82958
350.52        28.49685
350.97        29.26923
351.42        29.76011
351.87        29.86761
352.32        29.70812
352.77         29.4046
353.22        29.15812
353.67        29.03649
354.13        28.97412
354.58        28.93626
355.03         28.9124
355.48        28.88739
355.93        28.88751
356.38        28.87232
356.83        28.76257
357.28        28.54816
357.73        28.24726
358.18        27.93198
358.63        27.72075
359.08        27.64093
359.53        27.66315
359.98        27.71129
360.43         27.6646
360.88        27.49483
361.33        27.23329
361.78        26.95925
362.23        26.80197
362.68        26.78321
363.13        26.85164
363.58        26.91049
364.03        26.81162
364.48         26.5275
364.93        26.11972
365.38        25.67244
365.83        25.31749
366.28        25.09907
366.73        24.97674
367.18        24.93066
367.63        24.92669
368.08        24.93986
368.53        24.97932
368.98        25.00802
369.43        24.96421
369.88        24.83978
370.33        24.64903
370.78        24.43568
371.23        24.28208
371.68        24.21174
372.13        24.19753
372.58        24.22197
373.03        24.25139
373.48        24.26666
373.93         24.2805
374.38        24.26471
374.83        24.17358
375.28        24.00517
375.72          23.761
376.17        23.52067
376.62        23.37617
377.07        23.34891
377.52        23.40638
377.97        23.49224
378.42        23.51326
378.87        23.44376
379.32        23.31778
379.77        23.16203
380.22        23.01237
380.67        22.88305
381.11        22.76413
381.56        22.65882
382.01        22.58264
382.46         22.5361
382.91        22.51426
383.36        22.50385
383.81        22.48023
384.26        22.43453
384.71        22.37258
385.15        22.28352
385.60        22.16986
386.05        22.02446
386.50        21.84182
386.95        21.65119
387.40        21.50749
387.85        21.43014
388.29        21.40674
388.74        21.40182
389.19        21.32379
389.64        21.16179
390.09        20.93105
390.54          20.717
390.98         20.6628
391.43        20.79922
391.88        21.06293
392.33        21.32006
392.78        21.37482
393.23        21.20658
393.67        20.88353
394.12        20.56164
394.57         20.3877
395.02        20.39638
395.47        20.53189
395.91        20.73809
396.36        20.88513
396.81        20.93091
397.26        20.89879
397.71        20.81778
398.15        20.71065
398.60        20.61987
399.05        20.54121
399.50        20.45085
399.95        20.25878
400.39        20.05296
400.84        19.78715
401.29        19.55921
401.74        19.50306
402.18        19.65715
402.63        19.95548
403.08        20.29367
403.53        20.50103
403.97        20.53065
404.42        20.42706
404.87        20.25124
405.32        20.11337
405.76          20.049
406.21        20.03027
406.66        20.03462
407.11        20.03829
407.55        20.03643
408.00        20.03429
408.45        20.02835
408.90        19.99606
409.34        19.93593
409.79        19.85838
410.24        19.78638
410.68         19.7519
411.13        19.76576
411.58        19.81736
412.03        19.89446
412.47        19.97807
412.92        20.04266
413.37        20.09295
413.81         20.1263
414.26        20.15894
414.71        20.18473
415.15        20.20105
415.60        20.18684
416.05         20.1289
416.49        20.02883
416.94         19.9077
417.39        19.78217
417.83        19.67951
418.28        19.61803
418.73        19.58162
419.17         19.5848
419.62        19.64294
420.07        19.74998
420.51        19.90118
420.96        20.03381
421.41        20.04115
421.85        19.90218
422.30        19.67823
422.74        19.44783
423.19        19.36692
423.64         19.4459
424.08        19.64907
424.53         19.8891
424.98        20.04696
425.42        20.08722
425.87        20.03129
426.31        19.91731
426.76        19.86133
427.21        19.85879
427.65        19.74855
428.10        19.61407
428.54        19.71417
428.99         20.0603
429.44        20.53819
429.88        20.94681
430.33        21.03997
430.77         20.7744
431.22        20.22991
431.66        19.64006
432.11        19.44287
432.56        19.67334
433.00        20.09709
433.45        20.49827
433.89        20.77091
434.34        20.79308
434.78        20.42023
435.23        19.94962
435.67        20.00565
436.12        20.51927
436.57        20.78452
437.01        20.70459
437.46        20.63947
437.90        20.62405
438.35        20.55248
438.79        20.43983
439.24        20.36848
439.68        20.36229
440.13        20.31791
440.57        20.27098
441.02         20.5451
441.46        20.97495
441.91        20.84675
442.35        20.27434
442.80        19.98682
443.24        19.98566
443.69        20.07602
444.13        20.16334
444.58        19.99473
445.02        19.64603
445.47        19.62031
445.91        19.86881
446.36        19.92394
446.80        19.76067
447.24        19.64601
447.69        19.61833
448.13        19.60909
448.58        19.62863
449.02        19.68664
449.47        19.74986
449.91        19.76311
450.36        19.71799
450.80        19.62635
451.25        19.52456
451.69          19.457
452.13        19.44045
452.58        19.45102
453.02        19.47694
453.47        19.49937
453.91        19.51281
454.36        19.53107
454.80        19.53877
455.24        19.50496
455.69        19.43995
456.13        19.34565
456.58        19.28695
457.02        19.33203
457.46        19.49664
457.91        19.74419
458.35        20.00537
458.79         20.1677
459.24        20.21212
459.68        20.15518
460.13        20.06148
460.57        19.98645
461.01         19.9696
461.46        19.98968
461.90        20.02624
462.34        20.04193
462.79         20.0225
463.23        19.97646
463.68        19.94605
464.12        20.00352
464.56        20.15718
465.01        20.39394
465.45         20.5926
465.89        20.65289
466.34        20.57472
466.78        20.27775
467.22        19.92905
467.67        20.00167
468.11        20.43592
468.55         20.6238
468.99        20.50677
469.44        20.40841
469.88        20.40228
470.32        20.55629
470.77        20.79694
471.21        20.85019
471.65        20.69028
472.10        20.52931
472.54        20.43206
472.98        20.42981
473.42        20.54283
473.87        20.76154
474.31        21.01352
474.75         21.1826
475.20        21.24409
475.64        21.22044
476.08        21.16025
476.52        21.13784
476.97        21.17743
477.41        21.26123
477.85        21.35509
478.29        21.44672
478.74        21.53135
479.18        21.50927
479.62        21.41981
480.06        21.68448
480.50        21.86043
480.95        22.00803
481.39        21.95801
481.83        21.90278
482.27        21.84599
482.72        21.60625
483.16        21.29741
483.60        21.35403
484.04        21.79662
484.48        22.05678
484.93        22.34652
485.37        22.79569
485.81         23.4892
486.25        23.55743
486.69        32.00998
487.14        25.79253
487.58        16.59689
488.02         20.2213
488.46        22.52798
488.90        22.55387
489.34        22.56901
489.79         22.3938
490.23         23.5196
490.67        24.16633
491.11        24.05641
491.55        23.99306
491.99        23.92315
492.43        23.78268
492.88        23.65279
493.32        23.72441
493.76        23.82191
494.20        24.02129
494.64        24.23927
495.08        24.49694
495.52        24.79373
495.96        25.03996
496.41        25.20115
496.85        25.52122
497.29        25.90156
497.73        25.56883
498.17        24.89046
498.61        25.04327
499.05        26.02939
499.49        26.20857
499.93        26.19413
500.37        26.27324
500.82        26.37125
501.26        26.63146
501.70        26.91595
502.14        27.03723
502.58        26.97894
503.02        26.97141
503.46        27.02876
503.90        27.00345
504.34        26.92342
504.78        26.90491
505.22        26.96011
505.66        27.06714
506.10        27.19169
506.54        27.25668
506.98        27.24423
507.42         27.2464
507.86        27.19016
508.30        27.23981
508.74        27.37164
509.18        27.55903
509.62        27.75806
510.06        27.90007
510.50        27.96729
510.94        27.98741
511.38          27.977
511.82        27.96064
512.26         27.9526
512.70        27.94071
513.14        27.95188
513.58        28.03209
514.02        28.17386
514.46        28.35524
514.90        28.51776
515.34        28.53591
515.78        28.36457
516.22         28.1857
516.66        28.06835
517.10        27.71567
517.54        27.15282
517.98        27.84013
518.42        27.63567
518.86        27.94339
519.30        28.10493
519.74        28.31959
520.18        28.52771
520.62        28.60614
521.06        28.55983
521.50        28.40248
521.93        28.19653
522.37        28.05603
522.81        28.01435
523.25        28.04459
523.69        28.11515
524.13        28.17431
524.57        28.20363
525.01        28.21773
525.45        28.22511
525.89        28.23723
526.32        28.25217
526.76        28.26084
527.20        28.24611
527.64        28.19515
528.08        28.11256
528.52        27.98003
528.96        27.81276
529.40        27.71066
529.83        27.69953
530.27        27.47456
530.71        27.55675
531.15        27.47244
531.59        27.38061
532.03        27.27658
532.46        27.21523
532.90        27.27948
533.34         27.4665
533.78        27.73905
534.22        28.00394
534.66        28.12764
535.09        28.07757
535.53        27.90513
535.97        27.67913
536.41        27.51755
536.85        27.45989
537.28        27.47903
537.72        27.53912
538.16        27.58344
538.60        27.59624
539.04        27.57745
539.47        27.56047
539.91        27.66323
540.35        27.86305
540.79        28.02466
541.22        28.11956
541.66        28.21905
542.10        28.31303
542.54        28.33852
542.97        28.33929
543.41        28.43142
543.85          28.625
544.29         28.9004
544.72        29.16592
545.16        29.29048
545.60        29.25154
546.04        29.08817
546.47        28.93836
546.91         29.0327
547.35        29.39872
547.79        29.96016
548.22        30.53038
548.66        30.80557
549.10        30.73415
549.53        30.44103
549.97        30.11057
550.41        29.97324
550.84        30.09966
551.28        30.42307
551.72        30.85563
552.15        31.24166
552.59        31.51584
553.03        31.71885
553.46        31.85753
553.90        31.97086
554.34        32.07608
554.77        32.12161
555.21        32.11061
555.65        32.15372
556.08        32.27822
556.52        32.07444
556.96        32.29531
557.39        32.33106
557.83         32.4155
558.27        32.52064
558.70        32.66553
559.14        32.86133
559.57        33.08412
560.01        33.33418
560.45        33.55268
560.88        33.63779
561.32        33.59932
561.75         33.4882
562.19        33.38085
562.63        33.26845
563.06        33.20942
563.50        33.36963
563.93        33.68003
564.37        33.88753
564.80        33.95271
565.24        34.02135
565.68        34.09752
566.11        34.15511
566.55        34.23067
566.98        34.27995
567.42        34.35338
567.85        34.61922
568.29        35.05297
568.72        35.32244
569.16        35.50143
569.60        35.90194
570.03        36.33202
570.47        36.50975
570.90        36.50898
571.34        35.70517
571.77        36.38309
572.21        36.68758
572.64        36.59407
573.08        36.15949
573.51        34.60809
573.95        36.12019
574.38         38.6592
574.82        37.95209
