SpectraSmart Spectrum 2.9.0.0
--------- Device Information -----------
Spectrum Name :  反射率_0
Saving Time :  2024/04/25 23:52:29
Spectro-Module Model Name : SE2030-DUVN
Spectro-Module Serial Number : OS361AC55029948
Wavelength Start : 200
Wavelength End : 1025
Wavelength Unit : Wavelength(nm)
Spectrum Unit : Reflectance(%)
-----------Spectrum Setting ------------
Integration Time : 20ms
Average : 10
Boxcar : 0
Background removal :  enabled
linearity correction :  enabled
SC :  disabled
Intensity correction :  disabled
DWT denoise :  enabled
savitzky-golay :  disabled
FFT :  disabled
Running average :  disabled
Kalman :  disabled
High pass :  disabled
---------------BEGIN--------------------
Wavelength(nm)             Reflectance(%)
200.29               0
200.75        87.50296
201.21        83.64281
201.67        77.89033
202.13        73.02945
202.58        69.66859
203.04        67.25633
203.50        65.87057
203.96         65.9031
204.42        67.06515
204.88        68.98719
205.34        70.99514
205.80        72.50443
206.26        73.68369
206.72        75.08769
207.18        76.64411
207.64        76.26067
208.10        72.38614
208.55        67.98467
209.01        66.00794
209.47        66.50435
209.93        68.54865
210.39        72.16917
210.85        75.43472
211.31         74.0252
211.77        67.10605
212.23        56.54128
212.69        46.49231
213.14        43.41182
213.60        48.25738
214.06        59.28262
214.52        72.52728
214.98        81.70644
215.44        84.86678
215.90         83.7683
216.36        80.30782
216.81        77.07275
217.27        75.27517
217.73         74.1256
218.19         72.7076
218.65        69.72848
219.11        64.44926
219.57        56.13816
220.02        45.84459
220.48        40.10061
220.94        42.38339
221.40        51.22457
221.86        59.51489
222.32        59.83014
222.77        53.23619
223.23        43.99329
223.69         36.6312
224.15        35.86356
224.61        41.06604
225.06        49.75266
225.52        58.50793
225.98        62.97593
226.44        62.27799
226.90        58.20669
227.36        52.96108
227.81        49.47046
228.27        48.78276
228.73        49.81523
229.19         51.5813
229.65        52.66863
230.10        52.77185
230.56        52.51476
231.02        52.49247
231.48        53.36345
231.93         55.0542
232.39        57.16155
232.85        59.10215
233.31        60.08997
233.77        59.88628
234.22        58.71985
234.68        56.82541
235.14        54.72773
235.60        52.85132
236.05        51.29364
236.51        50.10254
236.97        49.15549
237.43        48.40931
237.88        47.98733
238.34        48.24151
238.80        50.01639
239.26        53.45527
239.71        58.24518
240.17        62.94556
240.63        65.72487
241.08        66.14735
241.54        64.59209
242.00        62.14901
242.46        60.23867
242.91        59.36489
243.37        59.12183
243.83        62.33253
244.28        85.97012
244.74        135.6546
245.20        137.7227
245.66        125.6951
246.11        122.6203
246.57        126.9394
247.03        141.7459
247.48        177.9027
247.94        135.8481
248.40        91.32497
248.85        80.16582
249.31        77.79396
249.77        78.31947
250.22        80.54102
250.68        85.01036
251.14         90.9865
251.59        92.48746
252.05        85.46967
252.51        73.51382
252.96        62.88425
253.42        59.05319
253.88        61.02563
254.33        66.45384
254.79        73.48842
255.25        78.92793
255.70        81.72228
256.16        83.22522
256.62        83.17042
257.07        81.16463
257.53        78.01016
257.99        73.70199
258.44        69.50679
258.90        67.82539
259.35        67.74867
259.81         68.4521
260.27        68.26723
260.72        65.55744
261.18        61.10634
261.63         55.6922
262.09        50.82713
262.55        47.60211
263.00        45.95655
263.46        45.37849
263.91        45.09326
264.37        44.57356
264.83        43.61848
265.28        42.32853
265.74        41.04093
266.19        39.97672
266.65        39.32803
267.11        38.92105
267.56        38.51324
268.02        37.81303
268.47        36.73277
268.93        35.39083
269.38        33.97893
269.84        33.03355
270.30         32.6806
270.75        32.78561
271.21        33.02451
271.66        32.91013
272.12        32.32128
272.57        31.40424
273.03        30.46273
273.48        29.87199
273.94        29.73873
274.39        29.88807
274.85        30.08571
275.31        29.97707
275.76        29.48372
276.22        28.76477
276.67        28.00098
277.13         27.5469
277.58        27.40931
278.04        27.48813
278.49        27.56087
278.95        27.38756
279.40        26.89572
279.86        26.24188
280.31        25.52304
280.77        24.99459
281.22        24.67192
281.68        24.50141
282.13        24.40232
282.59        24.30266
283.04        24.16447
283.50        24.04628
283.95        23.91343
284.41         23.7327
284.86         23.4944
285.32        23.21045
285.77         22.9553
286.22        22.90803
286.68        23.06421
287.13        23.34309
287.59         23.5736
288.04        23.48965
288.50        23.07885
288.95         22.4237
289.41        21.72339
289.86        21.17168
290.32        20.87518
290.77        20.75127
291.22        20.76991
291.68        20.84546
292.13        20.95004
292.59        21.11498
293.04        21.33908
293.50        21.61875
293.95        21.93786
294.40        22.26058
294.86        22.57368
295.31        22.87444
295.77        23.16372
296.22         23.4476
296.68        23.70624
297.13        23.87872
297.58        23.98062
298.04        24.05087
298.49        24.17089
298.95          24.501
299.40        25.05228
299.85        25.76272
300.31        26.51559
300.76        27.13785
301.21        27.56129
301.67        27.85784
302.12        28.03329
302.58        28.15059
303.03        28.22431
303.48        28.25208
303.94        28.32564
304.39        28.55379
304.84        28.95167
305.30        29.47534
305.75        29.98058
306.20        30.25138
306.66        30.26571
307.11        30.08411
307.57        29.84508
308.02        29.68501
308.47        29.67269
308.93        29.75609
309.38        29.90776
309.83        30.11639
310.29         30.3472
310.74         30.5937
311.19        30.79437
311.65        30.84998
312.10         30.7452
312.55        30.51378
313.00         30.2082
313.46        29.93032
313.91        29.71356
314.36        29.55095
314.82        29.46847
315.27        29.48757
315.72        29.60576
316.18        29.80934
316.63        30.03826
317.08        30.16834
317.53        30.16323
317.99        30.04089
318.44        29.86777
318.89        29.75971
319.35        29.73775
319.80        29.77367
320.25        29.79442
320.70        29.68209
321.16        29.41733
321.61        29.04939
322.06        28.65882
322.51        28.36257
322.97        28.18084
323.42        28.08667
323.87        28.02588
324.32        27.91042
324.78         27.7159
325.23        27.48101
325.68         27.2346
326.13        27.02557
326.59        26.86573
327.04        26.75339
327.49        26.68299
327.94        26.65215
328.39        26.65595
328.85        26.68604
329.30        26.75256
329.75        26.82963
330.20        26.90692
330.66        26.96732
331.11        27.02531
331.56        27.06139
332.01         27.0697
332.46        27.04091
332.92        26.98101
333.37        26.93646
333.82        26.91019
334.27        26.91389
334.72        26.90548
335.17        26.81189
335.63        26.62439
336.08        26.36864
336.53        26.15308
336.98         26.1556
337.43        26.40385
337.88        26.84732
338.34        27.29871
338.79        27.49833
339.24        27.35868
339.69        26.95184
340.14        26.47963
340.59        26.29701
341.05        26.48224
341.50        26.91894
341.95        27.40214
342.40        27.63413
342.85        27.54939
343.30        27.25615
343.75        26.86819
344.20        26.58265
344.66        26.46893
345.11        26.42893
345.56        26.44481
346.01        26.48959
346.46         26.5342
346.91        26.60886
347.36        26.61431
347.81        26.38372
348.26        25.91865
348.72         25.3053
349.17        24.70975
349.62         24.4875
350.07        24.71375
350.52        25.26583
350.97        25.95031
351.42        26.46777
351.87        26.72433
352.32        26.79965
352.77        26.73947
353.22        26.62394
353.67        26.49097
354.13         26.3128
354.58        26.11291
355.03        25.97362
355.48        25.91095
355.93        25.92696
356.38        25.95704
356.83        25.88381
357.28         25.6836
357.73        25.38646
358.18        25.07883
358.63        24.89773
359.08        24.87102
359.53        24.95909
359.98        25.05894
360.43        25.01037
360.88        24.78395
361.33        24.43209
361.78        24.07198
362.23        23.89373
362.68        23.93197
363.13        24.10797
363.58        24.30417
364.03        24.34025
364.48        24.17052
364.93         23.8645
365.38        23.47907
365.83        23.10287
366.28        22.78026
366.73        22.48609
367.18        22.25802
367.63        22.16014
368.08        22.18948
368.53        22.32343
368.98        22.47778
369.43        22.51291
369.88        22.39915
370.33        22.18118
370.78        21.90967
371.23        21.67845
371.68        21.52438
372.13        21.41163
372.58        21.36478
373.03        21.42357
373.48        21.57449
373.93        21.80319
374.38        22.00499
374.83         22.0153
375.28        21.80802
375.72        21.42241
376.17        20.99865
376.62        20.72989
377.07        20.67233
377.52        20.76574
377.97           20.93
378.42        21.03274
378.87        21.02877
379.32        20.95964
379.77        20.85124
380.22         20.7375
380.67        20.62967
381.11        20.51179
381.56        20.37723
382.01        20.22962
382.46        20.07498
382.91        19.92446
383.36        19.78879
383.81        19.67836
384.26        19.59756
384.71        19.54444
385.15        19.50581
385.60        19.47611
386.05        19.44004
386.50        19.38814
386.95        19.32377
387.40        19.25654
387.85        19.19304
388.29        19.13491
388.74        19.06908
389.19        18.94307
389.64        18.75343
390.09        18.50503
390.54         18.2758
390.98        18.19578
391.43        18.29459
391.88        18.52098
392.33        18.74366
392.78        18.76803
393.23        18.57497
393.67        18.23033
394.12        17.89502
394.57        17.73166
395.02         17.7733
395.47        17.95938
395.91        18.20921
396.36        18.35273
396.81        18.33931
397.26         18.2095
397.71        18.02616
398.15        17.86465
398.60        17.77496
399.05         17.7349
399.50        17.69934
399.95        17.55649
400.39        17.37419
400.84        17.12368
401.29        16.90326
401.74        16.85268
402.18        17.01148
402.63        17.30976
403.08        17.64188
403.53        17.83761
403.97        17.85134
404.42        17.73228
404.87        17.54277
405.32        17.39474
405.76        17.32576
406.21        17.30476
406.66        17.31486
407.11        17.33937
407.55        17.37323
408.00        17.42287
408.45        17.46814
408.90        17.45659
409.34        17.37832
409.79        17.24966
410.24        17.12325
410.68        17.07363
411.13        17.11943
411.58        17.24435
412.03        17.39962
412.47        17.50018
412.92        17.50708
413.37        17.44231
413.81        17.36351
414.26        17.37785
414.71        17.49351
415.15        17.67726
415.60        17.83438
416.05        17.83369
416.49         17.6511
416.94        17.34836
417.39        17.01475
417.83        16.80028
418.28         16.7596
418.73        16.83624
419.17         16.9927
419.62          17.167
420.07        17.32989
420.51        17.49815
420.96         17.6253
421.41        17.62887
421.85        17.49674
422.30        17.27761
422.74        17.04262
423.19        16.93491
423.64        16.96703
424.08        17.11173
424.53        17.30003
424.98        17.43947
425.42        17.50096
425.87        17.49782
426.31        17.45281
426.76        17.45333
427.21        17.48907
427.65        17.42005
428.10        17.31664
428.54        17.40252
428.99        17.69137
429.44        18.08791
429.88        18.42783
430.33        18.51177
430.77        18.30511
431.22        17.86915
431.66        17.40468
432.11        17.29426
432.56        17.56567
433.00        18.01161
433.45        18.42311
433.89        18.67685
434.34         18.6572
434.78        18.24771
435.23        17.74098
435.67        17.72138
436.12        18.13376
436.57        18.34958
437.01         18.2836
437.46        18.24962
437.90        18.27406
438.35        18.26237
438.79        18.22346
439.24        18.22515
439.68         18.2854
440.13        18.30869
440.57        18.31689
441.02         18.5957
441.46        18.99659
441.91        18.85733
442.35        18.30197
442.80        18.06265
443.24        18.12313
443.69        18.20527
444.13        18.22972
444.58        18.06662
445.02         17.7861
445.47         17.7859
445.91        18.01557
446.36        18.06522
446.80        17.91067
447.24         17.7924
447.69        17.74779
448.13        17.71768
448.58        17.71578
449.02        17.75317
449.47        17.80735
449.91        17.83923
450.36        17.84163
450.80        17.81884
451.25        17.79473
451.69        17.79457
452.13        17.82754
452.58        17.87376
453.02        17.92007
453.47        17.94569
453.91        17.94759
454.36        17.93877
454.80        17.91532
455.24        17.86801
455.69        17.80913
456.13         17.7329
456.58        17.68761
457.02        17.71731
457.46        17.83371
457.91        18.01366
458.35         18.1971
458.79        18.28456
459.24        18.26534
459.68        18.15397
460.13        18.02789
460.57        17.96413
461.01        18.00052
461.46        18.10702
461.90        18.23454
462.34        18.30021
462.79        18.27854
463.23        18.18554
463.68        18.08907
464.12        18.10634
464.56        18.26011
465.01        18.52446
465.45        18.75481
465.89        18.81093
466.34        18.68692
466.78        18.32693
467.22        17.92618
467.67        17.97668
468.11        18.44075
468.55        18.75449
468.99        18.80367
469.44        18.78848
469.88        18.75677
470.32        18.79603
470.77        18.89921
471.21        18.91906
471.65        18.85324
472.10         18.8578
472.54        18.92739
472.98        18.98959
473.42        19.04136
473.87        19.11453
474.31        19.19352
474.75        19.24758
475.20        19.27609
475.64        19.27192
476.08        19.26229
476.52        19.29081
476.97        19.36683
477.41        19.48376
477.85        19.59751
478.29        19.67302
478.74         19.7058
479.18         19.6123
479.62        19.45422
480.06        19.65735
480.50        19.82807
480.95        20.00302
481.39         20.0147
481.83        20.02282
482.27        20.02361
482.72         19.8447
483.16        19.57711
483.60        19.64226
484.04        20.05449
484.48        20.20804
484.93        20.34062
485.37        20.79057
485.81        21.44648
486.25          21.467
486.69         28.0168
487.14        22.49864
487.58        14.86205
488.02        18.11986
488.46        20.62168
488.90        20.76271
489.34        20.95913
489.79        20.82512
490.23        21.80408
490.67        22.48495
491.11        22.54559
491.55        22.40854
491.99        22.05856
492.43        21.79529
492.88        21.72499
493.32        21.81577
493.76        21.90346
494.20        22.15634
494.64        22.49757
495.08         22.8835
495.52        23.27234
495.96        23.62853
496.41        23.87424
496.85        23.98873
497.29        23.99857
497.73        23.71346
498.17        23.42763
498.61        23.71187
499.05        24.54641
499.49        24.74101
499.93         24.8717
500.37        24.98558
500.82        25.02341
501.26        25.24697
501.70        25.53475
502.14        25.67394
502.58        25.63747
503.02        25.62738
503.46        25.65479
503.90        25.59515
504.34        25.48958
504.78          25.465
505.22        25.54066
505.66        25.68781
506.10        25.86442
506.54        25.99636
506.98        26.06255
507.42        26.08466
507.86        26.10791
508.30         26.2034
508.74        26.38136
509.18        26.60909
509.62        26.83675
510.06         26.9847
510.50        27.03475
510.94        27.02354
511.38        26.97853
511.82        26.94128
512.26        26.93068
512.70        26.92791
513.14        26.96046
513.58        27.07307
514.02        27.25501
514.46        27.48773
514.90        27.69327
515.34        27.71549
515.78         27.5062
516.22        27.25522
516.66        27.07142
517.10        26.71866
517.54        26.23335
517.98        27.07104
518.42        27.00952
518.86        27.38223
519.30        27.50635
519.74        27.61059
520.18         27.6833
520.62        27.67743
521.06        27.62136
521.50        27.50781
521.93        27.36863
522.37        27.26847
522.81        27.22455
523.25        27.22334
523.69        27.25684
524.13        27.30799
524.57        27.36368
525.01        27.42523
525.45          27.469
525.89        27.45715
526.32         27.3819
526.76        27.25672
527.20        27.10827
527.64        26.99005
528.08        26.92181
528.52        26.86359
528.96        26.79929
529.40        26.77622
529.83        26.80273
530.27        26.59715
530.71        26.67013
531.15        26.57369
531.59         26.4663
532.03          26.336
532.46        26.24059
532.90        26.27233
533.34        26.42999
533.78        26.67607
534.22        26.91183
534.66        26.99179
535.09        26.88336
535.53        26.64595
535.97         26.3537
536.41        26.13259
536.85         26.0258
537.28        26.00163
537.72         26.0344
538.16        26.08265
538.60        26.12989
539.04        26.17285
539.47        26.21649
539.91        26.33219
540.35         26.4932
540.79        26.58294
541.22        26.61022
541.66        26.69952
542.10        26.85284
542.54        26.99157
542.97        27.12085
543.41        27.29465
543.85        27.50733
544.29        27.75607
544.72        27.98008
545.16        28.09608
545.60        28.09299
546.04        27.99475
546.47        27.91077
546.91          28.026
547.35        28.36032
547.79        28.86028
548.22        29.37152
548.66        29.62865
549.10        29.59505
549.53        29.39901
549.97        29.19135
550.41        29.13294
550.84        29.28123
551.28         29.5991
551.72        30.01566
552.15        30.39661
552.59        30.68703
553.03        30.92005
553.46         31.1023
553.90        31.27277
554.34        31.44801
554.77        31.57946
555.21        31.66121
555.65        31.78569
556.08        31.97331
556.52         31.8156
556.96         32.0694
557.39        32.14949
557.83        32.28876
558.27        32.45149
558.70         32.6352
559.14        32.81693
559.57         32.9712
560.01        33.11778
560.45        33.22731
560.88         33.2435
561.32        33.18961
561.75        33.09878
562.19        33.03821
562.63        32.99531
563.06        33.01436
563.50        33.23967
563.93        33.59528
564.37        33.83851
564.80        33.92543
565.24        33.98618
565.68        34.04023
566.11        34.08112
566.55         34.1469
566.98        34.22734
567.42        34.34692
567.85        34.53726
568.29        34.81678
568.72        35.07628
569.16        35.35376
569.60         35.7521
570.03        36.09875
570.47        36.14534
570.90        36.07328
571.34        35.30059
571.77        36.01539
572.21        36.02769
572.64        36.03569
573.08        35.63081
573.51        34.53805
573.95        36.04724
574.38        38.20174
574.82        37.49496
