SpectraSmart Spectrum 2.9.0.0
--------- Device Information -----------
Spectrum Name :  反射率_0
Saving Time :  2024/04/26 00:07:13
Spectro-Module Model Name : SE2030-DUVN
Spectro-Module Serial Number : OS361AC55029948
Wavelength Start : 200
Wavelength End : 1025
Wavelength Unit : Wavelength(nm)
Spectrum Unit : Reflectance(%)
-----------Spectrum Setting ------------
Integration Time : 20ms
Average : 10
Boxcar : 0
Background removal :  enabled
linearity correction :  enabled
SC :  disabled
Intensity correction :  disabled
DWT denoise :  enabled
savitzky-golay :  disabled
FFT :  disabled
Running average :  disabled
Kalman :  disabled
High pass :  disabled
---------------BEGIN--------------------
Wavelength(nm)             Reflectance(%)
200.29               0
200.75        79.26474
201.21        75.98513
201.67        71.74715
202.13        69.15842
202.58        68.54813
203.04         69.6763
203.50        71.05001
203.96        70.27794
204.42        67.27905
204.88        63.23847
205.34        59.79577
205.80        58.43591
206.26        59.52298
206.72        64.15353
207.18        74.03719
207.64        81.55563
208.10        73.36797
208.55        60.02955
209.01        52.37937
209.47        51.02873
209.93        53.57494
210.39        58.99012
210.85        64.99525
211.31        66.46783
211.77        61.81986
212.23        53.01683
212.69        44.27106
213.14         42.0812
213.60        47.45407
214.06        58.59208
214.52        71.14063
214.98        78.39752
215.44        78.68468
215.90        74.17054
216.36        68.06103
216.81        64.75364
217.27        65.36443
217.73        68.20956
218.19        70.85706
218.65        70.22238
219.11        65.20383
219.57        55.19198
220.02        41.77217
220.48         33.8974
220.94         36.6134
221.40        47.74588
221.86        58.22364
222.32        58.59452
222.77         50.2246
223.23        38.46085
223.69        29.10369
224.15        28.08255
224.61         34.5858
225.06        45.46319
225.52        56.29934
225.98        61.30935
226.44        59.46341
226.90        53.23055
227.36        45.73303
227.81         41.1971
228.27        40.90849
228.73        43.22738
229.19        46.68306
229.65        49.15359
230.10         50.0256
230.56         50.1251
231.02        50.03973
231.48        50.36264
231.93        51.13756
232.39        52.07471
232.85        52.80991
233.31        52.90223
233.77        52.25642
234.22        51.04639
234.68        49.60448
235.14        48.55014
235.60        48.14659
236.05        48.24365
236.51        48.59657
236.97        48.77745
237.43        48.67502
237.88        48.50051
238.34        48.23942
238.80        48.10849
239.26        48.19358
239.71        48.36448
240.17         48.6628
240.63         49.6818
241.08        51.55156
241.54        54.14999
242.00        56.61526
242.46        57.69635
242.91        56.98018
243.37        52.77179
243.83        42.46074
244.28        36.19477
244.74        80.51443
245.20        118.9889
245.66        123.4814
246.11        122.9335
246.57        121.8471
247.03        117.4963
247.48        87.20763
247.94        36.95657
248.40        53.46983
248.85        65.95747
249.31        72.87064
249.77        77.39558
250.22        81.62767
250.68          87.443
251.14        94.75844
251.59        98.23361
252.05        93.36936
252.51        82.94646
252.96        72.22221
253.42        66.11362
253.88        64.03378
254.33        64.29457
254.79        66.87199
255.25        71.01709
255.70        75.50551
256.16        80.06565
256.62        82.83398
257.07        81.92585
257.53        78.26096
257.99        72.66235
258.44        67.03152
258.90        64.43244
259.35         64.0827
259.81        64.84409
260.27        64.89491
260.72        62.50029
261.18          58.339
261.63        53.15592
262.09        48.47844
262.55        45.41309
263.00        43.88381
263.46        43.39385
263.91         43.0415
264.37        42.12621
264.83        40.50123
265.28        38.36053
265.74        36.33062
266.19          35.109
266.65        34.88256
267.11        35.22507
267.56        35.56581
268.02        35.23979
268.47        34.13497
268.93        32.49976
269.38        30.66301
269.84        29.41074
270.30        28.96302
270.75        29.10259
271.21        29.45115
271.66        29.44545
272.12        28.93157
272.57        28.09699
273.03        27.23185
273.48        26.68237
273.94        26.55165
274.39        26.66526
274.85        26.81624
275.31        26.70643
275.76        26.26298
276.22        25.61864
276.67        24.92387
277.13        24.47936
277.58        24.28976
278.04        24.27909
278.49        24.24817
278.95        23.97603
279.40         23.4061
279.86         22.6851
280.31        21.93097
280.77        21.42123
281.22        21.17288
281.68        21.11724
282.13        21.14049
282.59         21.1148
283.04        20.99508
283.50        20.84729
283.95        20.67346
284.41        20.49145
284.86        20.30451
285.32        20.10939
285.77        19.94038
286.22        19.91254
286.68        20.01345
287.13        20.18721
287.59        20.32095
288.04        20.24018
288.50        19.94004
288.95        19.47098
289.41        18.95878
289.86        18.49454
290.32        18.16635
290.77        17.93431
291.22        17.82908
291.68        17.85734
292.13        18.01361
292.59        18.29251
293.04         18.6567
293.50        19.04514
293.95        19.42047
294.40        19.76308
294.86        20.06408
295.31         20.3276
295.77        20.56066
296.22        20.76761
296.68        20.93853
297.13        21.03174
297.58        21.07153
298.04        21.09767
298.49        21.19195
298.95        21.50857
299.40        22.05681
299.85        22.77561
300.31        23.54497
300.76        24.18735
301.21        24.63165
301.67        24.94663
302.12          25.141
302.58        25.27787
303.03        25.37537
303.48        25.43068
303.94         25.5335
304.39        25.79204
304.84        26.22128
305.30        26.77745
305.75         27.3233
306.20        27.65116
306.66        27.73635
307.11        27.63428
307.57         27.4718
308.02        27.37249
308.47        27.40322
308.93         27.5213
309.38        27.70372
309.83        27.94362
310.29        28.21062
310.74        28.49653
311.19        28.75386
311.65        28.90693
312.10         28.9395
312.55        28.87265
313.00        28.72658
313.46        28.54896
313.91        28.35914
314.36        28.16782
314.82        28.02586
315.27        27.99539
315.72        28.08922
316.18         28.2858
316.63        28.52699
317.08        28.69002
317.53        28.73678
317.99        28.68848
318.44        28.60187
318.89         28.5742
319.35        28.62349
319.80        28.72506
320.25        28.81296
320.70        28.78318
321.16        28.61587
321.61        28.34729
322.06        28.05453
322.51        27.85287
322.97        27.75926
323.42        27.74842
323.87        27.74703
324.32        27.63429
324.78         27.3826
325.23        27.04246
325.68        26.68223
326.13        26.41438
326.59        26.26797
327.04        26.22749
327.49        26.25165
327.94        26.27455
328.39        26.27227
328.85        26.25308
329.30        26.25652
329.75        26.30902
330.20        26.41454
330.66        26.53664
331.11        26.66096
331.56        26.72477
332.01        26.70921
332.46        26.61747
332.92        26.47661
333.37        26.36935
333.82        26.31343
334.27        26.31215
334.72        26.30676
335.17        26.19561
335.63        25.96206
336.08        25.64101
336.53        25.36004
336.98        25.32548
337.43        25.56964
337.88        26.03124
338.34        26.49968
338.79        26.67677
339.24        26.46726
339.69        25.95783
340.14        25.37465
340.59        25.11634
341.05         25.2742
341.50        25.71447
341.95         26.2208
342.40        26.47822
342.85        26.41178
343.30        26.13667
343.75        25.74824
344.20         25.4127
344.66         25.1998
345.11        25.02435
345.56         24.9119
346.01        24.90077
346.46        24.97448
346.91        25.14534
347.36        25.27378
347.81        25.12794
348.26        24.69188
348.72        24.06856
349.17        23.45335
349.62        23.25043
350.07        23.54548
350.52        24.19546
350.97        24.97454
351.42        25.53864
351.87        25.78189
352.32        25.79445
352.77         25.6513
353.22         25.4779
353.67         25.3229
354.13        25.14911
354.58        24.94419
355.03        24.73207
355.48        24.52493
355.93        24.35306
356.38        24.20901
356.83        24.06339
357.28        23.90905
357.73        23.74054
358.18        23.59594
358.63        23.53547
359.08        23.56198
359.53        23.66012
359.98        23.73291
360.43          23.632
360.88        23.33755
361.33        22.89174
361.78        22.44417
362.23        22.23999
362.68        22.32167
363.13         22.6009
363.58        22.90191
364.03        22.94838
364.48        22.67951
364.93        22.19612
365.38        21.62861
365.83        21.18534
366.28        20.93806
366.73        20.82172
367.18        20.80617
367.63        20.84353
368.08        20.89739
368.53        20.98021
368.98        21.04899
369.43        21.02796
369.88        20.90731
370.33         20.7088
370.78        20.46966
371.23        20.26439
371.68        20.12251
372.13        20.02091
372.58        19.98511
373.03        20.05076
373.48        20.20721
373.93        20.44141
374.38        20.65666
374.83        20.70374
375.28        20.55706
375.72        20.24539
376.17        19.90263
376.62        19.71159
377.07        19.71993
377.52        19.86889
377.97        20.06164
378.42        20.14038
378.87        20.06415
379.32        19.89164
379.77        19.68439
380.22         19.5266
380.67        19.44075
381.11         19.3966
381.56        19.36786
382.01        19.32347
382.46        19.25245
382.91        19.16951
383.36         19.0842
383.81        19.00661
384.26        18.94202
384.71        18.88771
385.15        18.82938
385.60        18.76204
386.05         18.6739
386.50        18.55704
386.95        18.43526
387.40         18.3503
387.85        18.31389
388.29        18.31904
388.74        18.31704
389.19        18.21107
389.64         17.9934
390.09        17.68151
390.54         17.3888
390.98         17.3061
391.43        17.47335
391.88        17.81383
392.33        18.15218
392.78        18.23066
393.23        18.01968
393.67          17.611
394.12        17.19745
394.57        16.98528
395.02         17.0191
395.47        17.22732
395.91        17.51614
396.36        17.69301
396.81        17.69827
397.26        17.57895
397.71        17.41049
398.15         17.2856
398.60        17.25424
399.05        17.28562
399.50        17.31428
399.95        17.20424
400.39         17.0186
400.84        16.73511
401.29        16.47641
401.74         16.4263
402.18        16.63321
402.63        17.01301
403.08        17.42029
403.53        17.62331
403.97        17.56521
404.42         17.3167
404.87         16.9825
405.32        16.74665
405.76        16.66796
406.21        16.69182
406.66        16.76921
407.11        16.83715
407.55        16.87749
408.00        16.91057
408.45        16.92761
408.90        16.89715
409.34         16.8167
409.79        16.69179
410.24         16.5675
410.68        16.51023
411.13        16.53537
411.58        16.63032
412.03        16.74991
412.47        16.81401
412.92        16.78925
413.37        16.70054
413.81        16.60364
414.26         16.6013
414.71         16.7019
415.15        16.87226
415.60        17.02891
416.05        17.05884
416.49        16.93695
416.94        16.71539
417.39        16.45705
417.83        16.26883
418.28        16.19564
418.73         16.1962
419.17         16.2581
419.62        16.35578
420.07        16.47084
420.51        16.60968
420.96        16.72206
421.41        16.71841
421.85        16.58276
422.30        16.36731
422.74        16.13555
423.19        16.01621
423.64        16.01988
424.08        16.11966
424.53        16.25885
424.98        16.36811
425.42        16.42555
425.87        16.44118
426.31        16.42041
426.76        16.42119
427.21        16.42643
427.65        16.30664
428.10        16.15174
428.54        16.20933
428.99        16.49944
429.44        16.92405
429.88         17.2902
430.33        17.35168
430.77        17.07182
431.22        16.53209
431.66        15.97511
432.11        15.82925
432.56         16.1311
433.00        16.68607
433.45        17.25114
433.89        17.56186
434.34        17.46163
434.78        17.06173
435.23        16.38394
435.67        16.30766
436.12        16.70251
436.57        16.96928
437.01         16.9777
437.46        16.94129
437.90        16.86876
438.35         16.7023
438.79        16.49545
439.24          16.374
439.68        16.37288
440.13        16.38804
440.57        16.42035
441.02        16.69565
441.46         17.0705
441.91        16.95942
442.35        16.47723
442.80        16.29049
443.24        16.38335
443.69        16.49533
444.13        16.54726
444.58        16.41376
445.02        16.15507
445.47        16.13863
445.91        16.31289
446.36        16.29779
446.80        16.07651
447.24        15.87141
447.69         15.7406
448.13        15.66888
448.58        15.67494
449.02        15.75732
449.47        15.86427
449.91        15.90777
450.36        15.86988
450.80        15.77175
451.25        15.66377
451.69        15.61455
452.13        15.64338
452.58        15.71339
453.02         15.7972
453.47        15.85097
453.91        15.86425
454.36        15.85953
454.80        15.83109
455.24        15.76635
455.69        15.68084
456.13         15.5712
456.58        15.49836
457.02         15.5304
457.46        15.67813
457.91        15.90578
458.35        16.14012
458.79        16.25793
459.24        16.24184
459.68        16.12028
460.13        15.96428
460.57        15.84418
461.01        15.80256
461.46        15.81065
461.90        15.85698
462.34        15.91451
462.79        15.96685
463.23        16.01554
463.68        16.06927
464.12        16.13926
464.56        16.22389
465.01        16.32831
465.45        16.38363
465.89        16.34679
466.34        16.22846
466.78        15.95867
467.22        15.66541
467.67        15.71404
468.11        16.05469
468.55        16.21332
468.99        16.14347
469.44         16.0967
469.88        16.12722
470.32          16.283
470.77        16.49902
471.21        16.55121
471.65        16.41612
472.10        16.26738
472.54        16.15598
472.98        16.11071
473.42         16.1529
473.87        16.27582
474.31        16.43572
474.75        16.55728
475.20        16.62284
475.64        16.64483
476.08        16.64405
476.52        16.65251
476.97        16.68198
477.41        16.72435
477.85        16.76628
478.29        16.82195
478.74         16.8933
479.18        16.89319
479.62        16.83852
480.06        17.04138
480.50        17.14992
480.95        17.21843
481.39        17.12901
481.83        17.05631
482.27         17.0094
482.72        16.83456
483.16        16.61298
483.60        16.69593
484.04        17.08484
484.48        17.30978
484.93        17.55165
485.37        17.95418
485.81        18.41087
486.25        18.62758
486.69        24.18033
487.14        19.45816
487.58        12.81871
488.02        15.65817
488.46        17.89616
488.90        17.97042
489.34        17.98619
489.79        17.81875
490.23        18.71791
490.67        19.30577
491.11        19.30466
491.55        19.18703
491.99        18.92913
492.43        18.70912
492.88        18.61375
493.32         18.6454
493.76        18.67811
494.20        18.87414
494.64         19.1739
495.08        19.52802
495.52        19.89886
495.96        20.25532
496.41        20.52447
496.85         20.6879
497.29        20.74461
497.73        20.49326
498.17        20.18656
498.61        20.32914
499.05        20.93352
499.49        21.04639
499.93        21.17977
500.37          21.355
500.82        21.49093
501.26        21.76583
501.70        22.06061
502.14        22.20408
502.58        22.18042
503.02         22.1779
503.46        22.21078
503.90        22.16273
504.34         22.0697
504.78        22.04518
505.22        22.10616
505.66        22.23019
506.10         22.3763
506.54        22.47052
506.98         22.4947
507.42         22.4726
507.86        22.45427
508.30        22.51748
508.74        22.67419
509.18        22.89058
509.62        23.11496
510.06        23.26373
510.50        23.31673
510.94        23.31118
511.38        23.27295
511.82        23.24137
512.26        23.23522
512.70        23.23559
513.14         23.2713
513.58        23.39069
514.02        23.58142
514.46        23.81955
514.90        24.02682
515.34        24.04495
515.78        23.82368
516.22        23.56432
516.66        23.36559
517.10        22.95362
517.54        22.36493
517.98        23.14152
518.42          22.979
518.86        23.33701
519.30        23.50434
519.74        23.70541
520.18        23.88485
520.62        23.92382
521.06         23.8352
521.50        23.63114
521.93        23.38378
522.37        23.22581
522.81        23.19205
523.25        23.24695
523.69        23.35021
524.13        23.43581
524.57        23.47803
525.01        23.49508
525.45        23.48465
525.89         23.4419
526.32        23.36811
526.76        23.26361
527.20        23.13986
527.64        23.02707
528.08        22.93865
528.52        22.84826
528.96        22.75028
529.40          22.696
529.83        22.69546
530.27        22.50466
530.71        22.55272
531.15        22.45554
531.59        22.34554
532.03        22.21646
532.46         22.1142
532.90        22.11337
533.34        22.21411
533.78        22.38648
534.22        22.55851
534.66        22.62485
535.09        22.55827
535.53        22.40079
535.97        22.19874
536.41        22.03248
536.85        21.93191
537.28        21.87871
537.72        21.86097
538.16        21.85992
538.60        21.86848
539.04        21.87916
539.47        21.89808
539.91        21.98723
540.35        22.12223
540.79        22.20472
541.22        22.23356
541.66        22.29753
542.10        22.39644
542.54        22.47076
542.97        22.53353
543.41        22.64399
543.85        22.80371
544.29        23.00971
544.72        23.21136
545.16         23.3383
545.60        23.37909
546.04        23.35026
546.47        23.34171
546.91        23.50659
547.35        23.85608
547.79        24.34159
548.22        24.82129
548.66        25.05351
549.10        25.00688
549.53        24.79679
549.97        24.56885
550.41        24.48494
550.84         24.6015
551.28        24.88342
551.72        25.26245
552.15        25.60987
552.59        25.87336
553.03        26.08537
553.46        26.25588
553.90        26.42281
554.34        26.60065
554.77          26.742
555.21        26.83733
555.65        26.95764
556.08        27.11827
556.52        26.97835
556.96        27.17948
557.39        27.22547
557.83        27.31659
558.27        27.42284
558.70        27.55497
559.14        27.71318
559.57        27.87848
560.01        28.05847
560.45        28.20733
560.88        28.25408
561.32        28.21402
561.75        28.09645
562.19        27.97598
562.63        27.93488
563.06          27.991
563.50        28.10766
563.93        28.25098
564.37        28.42998
564.80         28.5943
565.24         28.6553
565.68        28.64374
566.11        28.70387
566.55         28.8672
566.98        29.04689
567.42        29.23338
567.85        29.43646
568.29        29.66506
568.72        29.82661
569.16        29.97004
569.60        30.28078
570.03        30.63554
570.47        30.67789
570.90        30.51501
571.34        30.19834
571.77        30.54839
572.21        30.57656
572.64        30.63352
573.08        30.19018
573.51        29.37312
573.95        30.71802
574.38        32.74405
574.82         31.7009
