SpectraSmart Spectrum 2.9.0.0
--------- Device Information -----------
Spectrum Name :  反射率_0
Saving Time :  2024/04/26 00:39:02
Spectro-Module Model Name : SE2030-DUVN
Spectro-Module Serial Number : OS361AC55029948
Wavelength Start : 200
Wavelength End : 1025
Wavelength Unit : Wavelength(nm)
Spectrum Unit : Reflectance(%)
-----------Spectrum Setting ------------
Integration Time : 20ms
Average : 10
Boxcar : 0
Background removal :  enabled
linearity correction :  enabled
SC :  disabled
Intensity correction :  disabled
DWT denoise :  enabled
savitzky-golay :  disabled
FFT :  disabled
Running average :  disabled
Kalman :  disabled
High pass :  disabled
---------------BEGIN--------------------
Wavelength(nm)             Reflectance(%)
200.29               0
200.75         84.2521
201.21        79.04623
201.67        72.55939
202.13         68.9333
202.58        68.73353
203.04        71.07113
203.50        74.33358
203.96        75.78664
204.42        74.82587
204.88        72.64079
205.34        70.54786
205.80        69.72318
206.26        70.59396
206.72        74.03569
207.18        81.30225
207.64        87.11845
208.10        81.60442
208.55        71.58257
209.01        66.26478
209.47        66.77904
209.93        71.17908
210.39        78.78821
210.85        86.42762
211.31        86.78667
211.77        77.95073
212.23        62.98113
212.69        48.13575
213.14        42.98469
213.60        49.14584
214.06        63.73726
214.52        81.11315
214.98        92.36655
215.44         94.9285
215.90         91.7549
216.36        85.43693
216.81        79.48213
217.27        75.64728
217.73        72.88941
218.19        70.63528
218.65        68.16138
219.11        64.90083
219.57        60.44769
220.02        55.66322
220.48        54.75018
220.94        58.99237
221.40        66.90262
221.86        72.56555
222.32        70.32565
222.77        61.75573
223.23        50.90179
223.69         42.2223
224.15         40.3582
224.61        44.63037
225.06        52.59238
225.52        60.90459
225.98        65.27149
226.44        64.84705
226.90        61.44158
227.36        57.03992
227.81         54.2946
228.27         54.1759
228.73        55.51973
229.19        57.67213
229.65        59.71037
230.10        61.18008
230.56        62.44256
231.02        63.43144
231.48        64.03979
231.93         64.2871
232.39        64.19692
232.85        63.92472
233.31        63.81901
233.77         63.9346
234.22        64.21937
234.68        64.38532
235.14        63.87925
235.60         62.6361
236.05        60.93755
236.51        59.25422
236.97        58.13525
237.43        57.69874
237.88        57.91009
238.34        58.55013
238.80        59.26387
239.26        59.76612
239.71        60.25721
240.17        60.54253
240.63        60.88384
241.08        61.47219
241.54        62.12574
242.00        62.91908
242.46        64.07143
242.91        66.13031
243.37         70.1529
243.83        82.01651
244.28         122.047
244.74        170.1683
245.20        146.8365
245.66        123.1266
246.11        114.5338
246.57        113.0038
247.03        116.4151
247.48        122.2523
247.94        89.50583
248.40            75.4
248.85        74.43284
249.31        75.86201
249.77        78.30254
250.22        81.96284
250.68        87.81483
251.14        95.35336
251.59        98.22881
252.05        91.58176
252.51        79.22689
252.96        67.41653
253.42        61.57305
253.88         60.9236
254.33        63.32555
254.79        68.26064
255.25        74.25183
255.70        79.83588
256.16        85.08405
256.62        88.14251
257.07        87.12794
257.53        83.14056
257.99        77.03911
258.44        71.06446
258.90        68.70449
259.35        68.98473
259.81        70.48059
260.27        71.02116
260.72        68.53894
261.18        63.85583
261.63        57.95567
262.09        52.56544
262.55        48.98159
263.00        47.15878
263.46        46.51704
263.91        46.13604
264.37        45.33526
264.83        43.92636
265.28        42.08507
265.74        40.33995
266.19         39.2066
266.65        38.87704
267.11        39.00846
267.56         39.1359
268.02         38.7352
268.47        37.69696
268.93        36.21221
269.38        34.57482
269.84        33.50468
270.30        33.17882
270.75        33.39595
271.21        33.73531
271.66        33.56509
272.12        32.74685
272.57        31.50781
273.03         30.2391
273.48        29.43659
273.94        29.23919
274.39        29.41882
274.85        29.72063
275.31        29.76457
275.76        29.44081
276.22        28.90575
276.67        28.27731
277.13        27.81734
277.58        27.53372
278.04         27.3708
278.49         27.1884
278.95         26.8641
279.40        26.34723
279.86        25.75088
280.31        25.13558
280.77        24.69842
281.22        24.43196
281.68        24.30147
282.13        24.21514
282.59        24.08182
283.04        23.87017
283.50        23.64634
283.95        23.41038
284.41        23.18582
284.86        22.97222
285.32        22.75887
285.77        22.59328
286.22        22.61165
286.68         22.7948
287.13        23.07551
287.59        23.28109
288.04        23.14337
288.50        22.65777
288.95        21.91243
289.41        21.12829
289.86        20.53315
290.32         20.2387
290.77        20.15108
291.22        20.22227
291.68        20.33923
292.13        20.46142
292.59         20.6205
293.04        20.81604
293.50        21.04638
293.95        21.29875
294.40         21.5421
294.86        21.75634
295.31        21.92924
295.77        22.06537
296.22        22.17527
296.68        22.27661
297.13         22.3679
297.58        22.47213
298.04        22.60846
298.49        22.79955
298.95        23.11085
299.40        23.53839
299.85        24.05688
300.31        24.60737
300.76        25.11133
301.21        25.52599
301.67        25.88583
302.12        26.17208
302.58         26.4094
303.03        26.59391
303.48        26.73111
303.94         26.8925
304.39        27.15503
304.84        27.53503
305.30         28.0029
305.75        28.44839
306.20         28.7101
306.66        28.77909
307.11        28.69769
307.57        28.59132
308.02        28.57834
308.47        28.71468
308.93        28.95157
309.38        29.24057
309.83        29.53514
310.29        29.79738
310.74         30.0324
311.19        30.20872
311.65        30.27782
312.10        30.23454
312.55        30.09215
313.00        29.88593
313.46         29.6872
313.91        29.51521
314.36        29.37485
314.82          29.279
315.27        29.22799
315.72        29.22454
316.18        29.26459
316.63         29.3322
317.08        29.37761
317.53         29.3814
317.99        29.34042
318.44        29.27748
318.89        29.23497
319.35        29.21401
319.80        29.20931
320.25        29.16862
320.70        29.01164
321.16        28.73251
321.61        28.36197
322.06        27.98373
322.51        27.72254
322.97        27.59455
323.42        27.57367
323.87        27.57446
324.32        27.45328
324.78        27.17503
325.23        26.79249
325.68        26.38164
326.13        26.07065
326.59        25.89053
327.04        25.81666
327.49        25.79975
327.94        25.76145
328.39        25.67504
328.85        25.55779
329.30        25.45101
329.75        25.38467
330.20        25.37155
330.66        25.38018
331.11        25.41514
331.56        25.44068
332.01        25.44328
332.46        25.42184
332.92        25.38001
333.37        25.35331
333.82        25.34071
334.27        25.34624
334.72        25.33205
335.17        25.23812
335.63        25.05563
336.08        24.80414
336.53        24.57311
336.98        24.51068
337.43        24.63996
337.88        24.92136
338.34        25.19782
338.79        25.25524
339.24        25.02448
339.69        24.57615
340.14         24.0896
340.59        23.87813
341.05        24.01002
341.50        24.37806
341.95        24.81608
342.40        25.08385
342.85        25.11761
343.30        25.00094
343.75        24.77822
344.20        24.53049
344.66        24.30173
345.11        24.03675
345.56        23.79766
346.01        23.67786
346.46        23.67905
346.91        23.79598
347.36        23.88476
347.81         23.7074
348.26        23.24254
348.72        22.59964
349.17        21.96291
349.62        21.71444
350.07        21.94066
350.52        22.51041
350.97         23.2172
351.42        23.74702
351.87        24.00143
352.32        24.05911
352.77        23.99092
353.22        23.91461
353.67        23.86991
354.13        23.81786
354.58        23.72388
355.03        23.57928
355.48        23.38729
355.93        23.17901
356.38        22.97614
356.83        22.79804
357.28        22.65005
357.73        22.52153
358.18        22.41014
358.63        22.31038
359.08        22.21894
359.53        22.14529
359.98        22.06311
360.43        21.93138
360.88        21.74827
361.33        21.52012
361.78        21.31216
362.23        21.23312
362.68        21.29196
363.13        21.44158
363.58        21.58131
364.03        21.55429
364.48        21.32903
364.93        20.96582
365.38        20.54023
365.83        20.17389
366.28        19.91448
366.73        19.72976
367.18        19.62505
367.63        19.60622
368.08        19.65682
368.53        19.77267
368.98        19.89589
369.43        19.93082
369.88        19.85924
370.33         19.7068
370.78        19.51793
371.23        19.37694
371.68        19.31121
372.13        19.28913
372.58        19.31021
373.03         19.3717
373.48        19.45617
373.93        19.56413
374.38        19.63754
374.83        19.58335
375.28        19.39289
375.72         19.0891
376.17        18.77441
376.62        18.57728
377.07        18.53442
377.52        18.60097
377.97        18.72981
378.42        18.84111
378.87        18.89902
379.32         18.9252
379.77        18.90542
380.22        18.81723
380.67        18.66569
381.11        18.45742
381.56        18.23119
382.01        18.06431
382.46        17.97795
382.91         17.9534
383.36        17.95996
383.81        17.94188
384.26        17.88296
384.71        17.80469
385.15        17.70858
385.60        17.60727
386.05        17.49925
386.50        17.37228
386.95        17.24996
387.40        17.17791
387.85        17.16521
388.29         17.1977
388.74        17.23322
389.19        17.18904
389.64        17.05502
390.09        16.84576
390.54        16.63535
390.98        16.54844
391.43        16.61816
391.88        16.79561
392.33        16.97167
392.78        16.98568
393.23         16.8208
393.67        16.53083
394.12        16.25106
394.57        16.11184
395.02        16.14055
395.47        16.28975
395.91        16.48851
396.36        16.58839
396.81        16.54751
397.26        16.39754
397.71        16.20897
398.15        16.06957
398.60        16.02367
399.05        16.04597
399.50        16.06394
399.95         15.9309
400.39        15.70358
400.84        15.36831
401.29         15.0567
401.74         14.9742
402.18        15.17718
402.63        15.57604
403.08         16.0199
403.53        16.26847
403.97         16.2588
404.42        16.06128
404.87        15.77225
405.32        15.56236
405.76        15.48708
406.21        15.49415
406.66         15.5425
407.11        15.58061
407.55        15.59429
408.00        15.60386
408.45        15.60183
408.90        15.55898
409.34        15.47474
409.79        15.35555
410.24        15.24576
410.68        15.21031
411.13        15.26254
411.58        15.38817
412.03        15.53721
412.47         15.6214
412.92        15.60375
413.37        15.50845
413.81        15.39378
414.26        15.36684
414.71        15.43868
415.15        15.57773
415.60        15.69989
416.05        15.69014
416.49        15.52534
416.94        15.26123
417.39         14.9701
417.83         14.7738
418.28        14.71912
418.73        14.75801
419.17        14.86545
419.62        14.99622
420.07        15.12773
420.51        15.27216
420.96        15.38265
421.41        15.37619
421.85        15.23992
422.30        15.02017
422.74        14.78721
423.19          14.678
423.64        14.70307
424.08        14.83341
424.53        14.99744
424.98        15.09548
425.42        15.10051
425.87        15.03775
426.31        14.93586
426.76        14.88422
427.21        14.87775
427.65        14.78642
428.10        14.68769
428.54        14.79782
428.99        15.12308
429.44        15.57051
429.88        15.94466
430.33        15.99135
430.77        15.67784
431.22        15.09427
431.66        14.48099
432.11        14.25571
432.56        14.46112
433.00        14.89715
433.45        15.35208
433.89         15.6518
434.34        15.65935
434.78        15.27899
435.23        14.78437
435.67        14.71135
436.12        15.02123
436.57        15.17047
437.01        15.07865
437.46        14.99816
437.90        14.95044
438.35        14.86595
438.79        14.77342
439.24        14.75774
439.68        14.83505
440.13        14.91434
440.57        14.98274
441.02        15.22548
441.46        15.50919
441.91        15.31007
442.35        14.75845
442.80        14.48514
443.24        14.47972
443.69        14.50727
444.13        14.49761
444.58        14.33991
445.02         14.0868
445.47        14.06176
445.91        14.21728
446.36        14.21759
446.80        14.04412
447.24        13.88777
447.69        13.79737
448.13        13.75676
448.58        13.78173
449.02        13.87116
449.47        13.97825
449.91        14.02482
450.36        13.99522
450.80        13.90652
451.25         13.8105
451.69        13.77791
452.13        13.82758
452.58        13.92521
453.02        14.03262
453.47        14.08724
453.91        14.07766
454.36        14.03032
454.80        13.96392
455.24        13.90807
455.69        13.88272
456.13         13.8683
456.58         13.8893
457.02        13.96188
457.46        14.08946
457.91        14.25992
458.35        14.42736
458.79        14.51072
459.24        14.50401
459.68         14.4167
460.13        14.31845
460.57        14.28107
461.01        14.33667
461.46        14.45407
461.90        14.58801
462.34        14.65665
462.79          14.638
463.23        14.55221
463.68         14.4556
464.12        14.44347
464.56        14.53979
465.01        14.72059
465.45        14.88766
465.89        14.95066
466.34        14.90447
466.78         14.6988
467.22        14.45615
467.67         14.5208
468.11        14.85017
468.55        15.00043
468.99        14.92882
469.44        14.87229
469.88        14.88508
470.32        15.01595
470.77        15.20857
471.21        15.26112
471.65        15.15146
472.10        15.03543
472.54        14.96074
472.98        14.95532
473.42         15.0361
473.87        15.19736
474.31        15.38078
474.75        15.48916
475.20        15.50518
475.64         15.4491
476.08        15.37606
476.52        15.37121
476.97         15.4548
477.41        15.60343
477.85        15.76166
478.29        15.87066
478.74        15.91542
479.18        15.83703
479.62        15.69403
480.06        15.84213
480.50        15.96788
480.95        16.09818
481.39        16.09208
481.83        16.06676
482.27        16.02021
482.72        15.82909
483.16        15.58287
483.60        15.62488
484.04        15.96093
484.48        16.16096
484.93         16.4215
485.37        16.82133
485.81        17.25007
486.25        17.63248
486.69        23.21219
487.14        18.45483
487.58        12.18895
488.02        15.07745
488.46        16.93785
488.90        17.00446
489.34        17.02256
489.79        16.87414
490.23        17.71652
490.67        18.22061
491.11        18.16512
491.55        18.12191
491.99        18.04045
492.43        17.90364
492.88        17.77525
493.32        17.76091
493.76        17.76607
494.20        17.94278
494.64        18.24526
495.08        18.62671
495.52        19.03985
495.96        19.43748
496.41        19.74262
496.85        19.93865
497.29        20.02666
497.73        19.81671
498.17        19.55121
498.61        19.71499
499.05        20.31158
499.49        20.40042
499.93        20.47886
500.37        20.57892
500.82        20.63923
501.26        20.85486
501.70        21.11742
502.14         21.2551
502.58        21.25075
503.02        21.27991
503.46        21.34995
503.90        21.34904
504.34        21.29387
504.78        21.26602
505.22        21.27827
505.66        21.31674
506.10        21.36806
506.54         21.4068
506.98        21.42965
507.42        21.44879
507.86        21.49114
508.30        21.59689
508.74        21.76676
509.18        21.97616
509.62        22.18805
510.06        22.34281
510.50        22.42463
510.94        22.45961
511.38        22.45537
511.82        22.42479
512.26        22.38155
512.70        22.31745
513.14        22.28051
513.58        22.34963
514.02        22.52276
514.46         22.7689
514.90        22.99755
515.34        23.02998
515.78        22.80928
516.22        22.54394
516.66        22.34129
517.10         21.9353
517.54         21.3644
517.98        22.18419
518.42          22.049
518.86        22.41946
519.30        22.57383
519.74        22.74743
520.18        22.89819
520.62        22.92751
521.06        22.85462
521.50        22.68489
521.93        22.48433
522.37        22.37508
522.81         22.3859
523.25        22.48281
523.69        22.62178
524.13        22.73156
524.57        22.78644
525.01        22.80532
525.45        22.79085
525.89        22.74799
526.32        22.67977
526.76        22.58223
527.20        22.46523
527.64        22.35546
528.08        22.26528
528.52        22.17389
528.96        22.07035
529.40        21.99436
529.83         21.9584
530.27        21.73283
530.71        21.75116
531.15        21.67149
531.59        21.62502
532.03         21.5926
532.46        21.59827
532.90        21.68004
533.34        21.82414
533.78         22.0097
534.22        22.17021
534.66        22.21007
535.09        22.11012
535.53        21.91248
535.97        21.67461
536.41         21.4947
536.85        21.40658
537.28        21.38798
537.72        21.42022
538.16        21.46983
538.60        21.52399
539.04        21.57983
539.47        21.63799
539.91        21.75327
540.35        21.90205
540.79        21.98532
541.22        22.01786
541.66        22.11382
542.10        22.27564
542.54        22.43582
542.97        22.57829
543.41          22.717
543.85        22.84479
544.29        22.97162
544.72        23.08022
545.16        23.15281
545.60         23.1898
546.04        23.19277
546.47        23.21976
546.91        23.37292
547.35        23.65413
547.79        24.03538
548.22         24.4083
548.66        24.58193
549.10        24.53789
549.53         24.3745
549.97        24.21184
550.41        24.17449
550.84        24.30645
551.28        24.57976
551.72        24.94124
552.15         25.2882
552.59        25.57129
553.03        25.80997
553.46        25.99212
553.90        26.12378
554.34        26.21716
554.77        26.24288
555.21        26.21623
555.65        26.24529
556.08        26.35892
556.52        26.21535
556.96        26.43244
557.39        26.51832
557.83        26.65871
558.27        26.82359
558.70        27.00853
559.14        27.18946
559.57        27.34254
560.01        27.48125
560.45        27.57344
560.88         27.5714
561.32        27.49832
561.75        27.36098
562.19         27.2321
562.63        27.18361
563.06        27.22953
563.50        27.35509
563.93        27.52461
564.37        27.69248
564.80        27.83017
565.24        27.95838
565.68        28.06916
566.11        28.15399
566.55        28.23453
566.98        28.30193
567.42        28.38479
567.85        28.52385
568.29        28.74123
568.72        28.94063
569.16        29.14554
569.60        29.47592
570.03        29.79821
570.47        29.82803
570.90        29.69804
571.34        29.28988
571.77        29.73208
572.21        29.82134
572.64        29.87376
573.08        29.50493
573.51        28.74423
573.95        30.02785
574.38        31.83754
574.82        31.13116
