SpectraSmart Spectrum 2.9.0.0
--------- Device Information -----------
Spectrum Name :  反射率_0
Saving Time :  2024/04/25 22:51:12
Spectro-Module Model Name : SE2030-DUVN
Spectro-Module Serial Number : OS361AC55029948
Wavelength Start : 200
Wavelength End : 1025
Wavelength Unit : Wavelength(nm)
Spectrum Unit : Reflectance(%)
-----------Spectrum Setting ------------
Integration Time : 20ms
Average : 10
Boxcar : 0
Background removal :  enabled
linearity correction :  enabled
SC :  disabled
Intensity correction :  disabled
DWT denoise :  enabled
savitzky-golay :  disabled
FFT :  disabled
Running average :  disabled
Kalman :  disabled
High pass :  disabled
---------------BEGIN--------------------
Wavelength(nm)             Reflectance(%)
200.29               0
200.75        75.26641
201.21        75.14511
201.67         73.9325
202.13        72.08602
202.58        69.78313
203.04        67.35727
203.50        64.83405
203.96         62.5821
204.42         60.9348
204.88         59.8074
205.34        59.20422
205.80        59.05041
206.26        59.29623
206.72        60.33665
207.18        62.23137
207.64        62.25609
208.10        58.14039
208.55        53.93843
209.01        52.01367
209.47        52.31872
209.93        54.10761
210.39        57.29314
210.85        60.84984
211.31         62.2781
211.77        60.69246
212.23        56.84587
212.69        52.98549
213.14         52.7503
213.60        56.47028
214.06        63.30197
214.52        70.33537
214.98        73.14892
215.44        70.92812
215.90        65.22147
216.36         59.0082
216.81        56.41018
217.27        58.14642
217.73        62.46004
218.19        66.57712
218.65        66.96937
219.11        62.50957
219.57        52.73222
220.02        38.95623
220.48         29.8278
220.94        30.61582
221.40        39.50989
221.86        48.77355
222.32        50.10958
222.77        44.24935
223.23        35.54573
223.69        28.60165
224.15        28.11681
224.61        33.43958
225.06        42.11584
225.52        50.43983
225.98        53.65994
226.44        51.05685
226.90        44.80869
227.36        37.74857
227.81         33.6967
228.27        33.78524
228.73         36.4595
229.19        40.38201
229.65        43.57059
230.10         45.3154
230.56         46.2628
231.02        46.69278
231.48        46.86324
231.93        46.86895
232.39         46.5767
232.85        46.01794
233.31        45.35188
233.77        44.61538
234.22        43.82691
234.68         42.9829
235.14        42.01637
235.60        41.01122
236.05        40.10877
236.51        39.43001
236.97         39.0213
237.43        38.92782
237.88        39.26818
238.34        40.06583
238.80        41.35718
239.26         42.9872
239.71        44.74426
240.17        46.51564
240.63        48.71704
241.08        51.35884
241.54        54.15235
242.00        56.34195
242.46        56.85799
242.91        55.18285
243.37        49.19885
243.83         33.6979
244.28        9.003452
244.74        28.88475
245.20        76.76669
245.66        92.73866
246.11        97.68007
246.57        100.4826
247.03         103.406
247.48        98.49866
247.94        63.33624
248.40        59.84943
248.85        62.79008
249.31        65.34853
249.77         67.7274
250.22        70.57256
250.68        74.95758
251.14        80.74874
251.59        83.50353
252.05        79.71298
252.51          71.766
252.96        63.67882
253.42        59.34829
253.88        58.24226
254.33        58.83488
254.79        61.34542
255.25        65.41563
255.70        69.97302
256.16         74.7296
256.62        77.65961
257.07        76.71172
257.53         72.8571
257.99        67.02108
258.44        61.44071
258.90        59.49144
259.35        60.20719
259.81        62.08989
260.27        62.95113
260.72        60.72698
261.18         56.2079
261.63        50.41847
262.09        45.12298
262.55        41.70702
263.00        40.12847
263.46        39.75376
263.91        39.59942
264.37        38.86151
264.83        37.38826
265.28        35.40269
265.74        33.55159
266.19        32.55762
266.65        32.57223
267.11        33.13394
267.56        33.63713
268.02        33.37881
268.47         32.2606
268.93        30.55398
269.38        28.61595
269.84         27.2845
270.30        26.80132
270.75        26.93432
271.21        27.31057
271.66        27.37252
272.12        26.95564
272.57        26.24518
273.03        25.48277
273.48        24.94534
273.94         24.7243
274.39        24.66607
274.85        24.62783
275.31        24.40913
275.76        23.96222
276.22        23.40215
276.67        22.81474
277.13        22.39792
277.58        22.14914
278.04        22.02315
278.49        21.91785
278.95        21.74126
279.40         21.4427
279.86        21.10394
280.31        20.71879
280.77        20.37848
281.22        20.07047
281.68        19.79601
282.13        19.55682
282.59        19.38307
283.04        19.26902
283.50        19.23363
283.95        19.21232
284.41        19.11891
284.86        18.93458
285.32        18.69124
285.77        18.48613
286.22        18.52105
286.68        18.79483
287.13        19.21577
287.59        19.59434
288.04        19.64909
288.50        19.35645
288.95        18.80393
289.41        18.19527
289.86        17.73799
290.32        17.53919
290.77        17.51838
291.22        17.63084
291.68         17.7708
292.13        17.91077
292.59        18.08587
293.04        18.32582
293.50        18.67237
293.95        19.11519
294.40         19.6028
294.86        20.07337
295.31        20.45122
295.77        20.72369
296.22        20.91963
296.68        21.07292
297.13        21.21085
297.58        21.36918
298.04        21.55686
298.49         21.8056
298.95        22.19671
299.40        22.72441
299.85        23.35652
300.31         24.0115
300.76        24.57194
301.21        24.98627
301.67        25.30345
302.12        25.51817
302.58        25.67438
303.03        25.77884
303.48        25.83267
303.94        25.91783
304.39        26.12879
304.84        26.47928
305.30        26.92981
305.75         27.3506
306.20        27.54835
306.66        27.50729
307.11        27.28468
307.57        27.01365
308.02        26.82494
308.47        26.78385
308.93         26.8432
309.38        26.97298
309.83        27.15458
310.29        27.35316
310.74        27.56382
311.19        27.73532
311.65        27.78638
312.10        27.70221
312.55        27.50574
313.00        27.23118
313.46        26.95136
313.91        26.69071
314.36        26.45065
314.82        26.26661
315.27        26.17595
315.72        26.18297
316.18        26.27475
316.63        26.39314
317.08        26.41873
317.53        26.31845
317.99        26.11051
318.44        25.86913
318.89        25.71764
319.35        25.67777
319.80        25.72066
320.25        25.75089
320.70        25.61386
321.16         25.2828
321.61        24.81267
322.06         24.3245
322.51        23.99874
322.97        23.86529
323.42        23.87584
323.87        23.91681
324.32        23.79959
324.78        23.47507
325.23        23.00981
325.68        22.50268
326.13        22.11444
326.59         21.8912
327.04        21.80497
327.49        21.79307
327.94        21.75279
328.39        21.65291
328.85        21.51654
329.30         21.4147
329.75        21.43375
330.20        21.58729
330.66        21.81373
331.11        22.04887
331.56        22.15463
332.01        22.08974
332.46        21.87922
332.92         21.5795
333.37        21.31856
333.82        21.14494
334.27        21.05321
334.72        20.99423
335.17        20.87958
335.63        20.68824
336.08        20.44595
336.53        20.25638
336.98        20.28253
337.43        20.54153
337.88        20.98034
338.34        21.38631
338.79        21.45962
339.24        21.11402
339.69        20.43731
340.14        19.69431
340.59        19.35055
341.05        19.51203
341.50        20.03054
341.95        20.63932
342.40        20.94349
342.85        20.85069
343.30        20.49865
343.75        20.01828
344.20        19.64025
344.66        19.44859
345.11          19.328
345.56        19.28002
346.01        19.30871
346.46          19.386
346.91         19.5421
347.36        19.62774
347.81        19.39367
348.26        18.82943
348.72        18.04311
349.17        17.27709
349.62        17.01659
350.07        17.35996
350.52        18.13732
350.97        19.05907
351.42        19.67933
351.87        19.87351
352.32        19.77186
352.77        19.49477
353.22        19.24078
353.67        19.08194
354.13        18.95066
354.58        18.83405
355.03        18.75544
355.48        18.71123
355.93        18.72736
356.38        18.74651
356.83        18.65858
357.28        18.44597
357.73        18.13217
358.18         17.8146
358.63        17.65099
359.08        17.67237
359.53        17.83523
359.98        18.01813
360.43         18.0315
360.88        17.83732
361.33        17.49096
361.78        17.12893
362.23        16.97311
362.68        17.06407
363.13        17.31588
363.58        17.57995
364.03        17.62722
364.48        17.40854
364.93         17.0146
365.38        16.55174
365.83        16.18687
366.28        15.98063
366.73        15.87994
367.18        15.87563
367.63        15.95278
368.08        16.08226
368.53        16.26397
368.98        16.43167
369.43        16.47717
369.88        16.38263
370.33        16.17693
370.78        15.92104
371.23        15.72806
371.68        15.63611
372.13         15.6122
372.58        15.64653
373.03        15.71646
373.48         15.8006
373.93        15.90676
374.38        15.98844
374.83        15.97109
375.28        15.84516
375.72        15.61854
376.17        15.37962
376.62        15.23444
377.07        15.21319
377.52        15.28401
377.97        15.39398
378.42        15.45529
378.87        15.44014
379.32        15.37465
379.77        15.28767
380.22        15.21876
380.67        15.17884
381.11        15.15689
381.56        15.12718
382.01        15.05932
382.46        14.94718
382.91        14.79877
383.36        14.65531
383.81        14.57864
384.26        14.58011
384.71        14.64615
385.15        14.70491
385.60        14.65832
386.05        14.48599
386.50        14.21121
386.95         13.9335
387.40        13.82465
387.85        13.91642
388.29        14.14175
388.74        14.36899
389.19        14.41591
389.64        14.25775
390.09        13.94495
390.54        13.60395
390.98        13.44678
391.43         13.5326
391.88        13.78388
392.33        14.05175
392.78        14.11827
393.23         13.9552
393.67        13.64081
394.12        13.33381
394.57        13.20424
395.02        13.28444
395.47        13.50897
395.91        13.78393
396.36        13.92421
396.81        13.87486
397.26        13.68654
397.71        13.43927
398.15        13.23648
398.60        13.13168
399.05        13.09808
399.50        13.08334
399.95        12.97811
400.39        12.82588
400.84        12.61283
401.29        12.43454
401.74        12.43381
402.18        12.64562
402.63        12.99794
403.08        13.36559
403.53        13.55266
403.97        13.51032
404.42        13.29547
404.87        13.00367
405.32        12.80389
405.76        12.74924
406.21         12.7924
406.66        12.87646
407.11        12.92311
407.55        12.91499
408.00        12.87751
408.45        12.83187
408.90        12.80457
409.34        12.80444
409.79        12.81349
410.24        12.83098
410.68        12.86113
411.13        12.90545
411.58        12.96915
412.03        13.02872
412.47        13.04455
412.92        13.00031
413.37        12.90454
413.81        12.80667
414.26        12.79778
414.71        12.88343
415.15         13.0419
415.60        13.18251
416.05        13.17694
416.49        13.00075
416.94        12.70999
417.39        12.39466
417.83         12.2097
418.28        12.20453
418.73         12.3151
419.17        12.48774
419.62        12.63361
420.07         12.7218
420.51        12.77972
420.96         12.7791
421.41        12.66986
421.85        12.45797
422.30        12.18432
422.74        11.92065
423.19        11.79774
423.64        11.82408
424.08        11.97079
424.53        12.16624
424.98        12.30297
425.42        12.34609
425.87        12.31962
426.31         12.2435
426.76        12.19161
427.21        12.16112
427.65        12.04316
428.10        11.91709
428.54         11.9842
428.99        12.25656
429.44         12.6567
429.88         13.0076
430.33        13.06997
430.77         12.8131
431.22         12.3189
431.66        11.80675
432.11        11.65193
432.56         11.8958
433.00        12.36907
433.45        12.86549
433.89        13.17334
434.34        13.16075
434.78        12.78251
435.23        12.30117
435.67        12.18987
436.12        12.42539
436.57        12.55478
437.01        12.49875
437.46        12.43959
437.90         12.3872
438.35        12.29397
438.79        12.19209
439.24        12.16384
439.68        12.22443
440.13        12.29214
440.57         12.3474
441.02        12.52948
441.46        12.72509
441.91        12.51077
442.35        12.00617
442.80        11.74157
443.24         11.7078
443.69        11.71238
444.13        11.69084
444.58        11.54381
445.02        11.31258
445.47        11.26318
445.91        11.36391
446.36        11.35837
446.80        11.23212
447.24        11.12848
447.69        11.08161
448.13        11.06932
448.58        11.10072
449.02        11.17908
449.47        11.25806
449.91        11.26055
450.36         11.1772
450.80        11.02906
451.25        10.88536
451.69        10.84466
452.13        10.92852
452.58        11.09135
453.02        11.27556
453.47        11.38582
453.91        11.40102
454.36        11.35474
454.80        11.27006
455.24        11.18721
455.69        11.13155
456.13        11.08263
456.58        11.06851
457.02        11.11498
457.46        11.22565
457.91        11.38779
458.35        11.55388
458.79        11.63602
459.24        11.62587
459.68        11.53711
460.13        11.43729
460.57        11.39882
461.01        11.45354
461.46        11.56892
461.90        11.70534
462.34        11.78823
462.79        11.79667
463.23        11.74598
463.68        11.68358
464.12        11.68572
464.56        11.77281
465.01         11.9264
465.45        12.06105
465.89        12.09299
466.34        12.02106
466.78        11.81225
467.22        11.58531
467.67        11.64813
468.11        11.97318
468.55        12.19169
468.99        12.24302
469.44        12.28085
469.88        12.33683
470.32        12.45948
470.77        12.60612
471.21        12.61935
471.65        12.48877
472.10        12.34613
472.54        12.23785
472.98        12.20254
473.42        12.25873
473.87        12.39708
474.31        12.57202
474.75        12.70193
475.20        12.76807
475.64        12.78609
476.08        12.78215
476.52        12.79846
476.97         12.8476
477.41        12.91715
477.85        12.98964
478.29        13.06438
478.74        13.13968
479.18        13.15237
479.62        13.11738
480.06        13.28239
480.50        13.37417
480.95        13.42968
481.39        13.36319
481.83         13.3222
482.27        13.31709
482.72         13.2269
483.16        13.09664
483.60        13.18961
484.04        13.49293
484.48        13.63119
484.93         13.8213
485.37        14.17657
485.81        14.48227
486.25        14.96922
486.69        19.16404
487.14        14.98887
487.58        10.19952
488.02        12.65154
488.46        14.34505
488.90        14.44228
489.34        14.55216
489.79        14.45782
490.23        15.17011
490.67        15.67784
491.11        15.76039
491.55        15.76434
491.99        15.65018
492.43         15.5326
492.88        15.47122
493.32        15.47507
493.76        15.46934
494.20        15.63459
494.64        15.93325
495.08        16.32045
495.52        16.73872
495.96        17.09656
496.41        17.33522
496.85         17.5103
497.29         17.6271
497.73         17.4704
498.17        17.25475
498.61        17.44046
499.05        18.02826
499.49        18.15727
499.93        18.26215
500.37        18.37722
500.82        18.45478
501.26          18.682
501.70        18.96495
502.14        19.14534
502.58        19.19529
503.02        19.25556
503.46        19.32896
503.90        19.31795
504.34        19.25442
504.78        19.23856
505.22        19.28787
505.66        19.38476
506.10        19.49371
506.54        19.55168
506.98        19.54821
507.42        19.50811
507.86        19.49055
508.30        19.58547
508.74        19.80456
509.18        20.10836
509.62        20.42817
510.06        20.65203
510.50        20.74874
510.94        20.75805
511.38         20.7149
511.82        20.67589
512.26        20.66561
512.70        20.66249
513.14        20.68763
513.58        20.77664
514.02        20.91805
514.46        21.09663
514.90        21.25315
515.34        21.25555
515.78        21.05646
516.22        20.85222
516.66        20.72228
517.10        20.34526
517.54        19.74834
517.98        20.53889
518.42        20.34374
518.86        20.68759
519.30         20.8421
519.74        21.03161
520.18        21.21127
520.62        21.27876
521.06        21.24738
521.50        21.12474
521.93        20.95315
522.37        20.81595
522.81        20.73908
523.25        20.70269
523.69        20.70536
524.13         20.7416
524.57        20.79938
525.01        20.87901
525.45        20.94637
525.89        20.94421
526.32        20.85971
526.76        20.71007
527.20        20.53084
527.64        20.38902
528.08         20.3066
528.52        20.24562
528.96        20.18402
529.40        20.14176
529.83        20.12165
530.27        19.91863
530.71        19.92261
531.15        19.80663
531.59        19.69275
532.03        19.57071
532.46        19.48025
532.90         19.4883
533.34        19.59194
533.78         19.7628
534.22        19.93299
534.66        20.00257
535.09         19.9458
535.53        19.80278
535.97        19.61413
536.41        19.45044
536.85        19.34144
537.28        19.27349
537.72        19.24641
538.16        19.25927
538.60        19.30714
539.04        19.37541
539.47        19.45817
539.91        19.59373
540.35        19.75499
540.79        19.85835
541.22        19.90203
541.66        19.96439
542.10         20.0492
542.54        20.10612
542.97        20.15636
543.41        20.26868
543.85        20.44732
544.29        20.68384
544.72        20.92801
545.16        21.10805
545.60        21.20862
546.04        21.24599
546.47        21.29152
546.91        21.46952
547.35        21.78897
547.79        22.21012
548.22         22.6233
548.66        22.83852
549.10        22.83469
549.53        22.70969
549.97        22.57749
550.41        22.55464
550.84          22.685
551.28         22.9445
551.72        23.29007
552.15         23.6362
552.59        23.93947
553.03        24.21666
553.46        24.45106
553.90        24.63975
554.34        24.79299
554.77        24.88405
555.21        24.92975
555.65        25.03656
556.08        25.22783
556.52        25.16718
556.96        25.44015
557.39        25.56656
557.83         25.7236
558.27        25.88907
558.70        26.05522
559.14        26.19254
559.57         26.2844
560.01        26.35109
560.45        26.38855
560.88        26.39097
561.32        26.38477
561.75        26.35942
562.19        26.35285
562.63        26.38605
563.06        26.45955
563.50        26.57265
563.93        26.70556
564.37         26.8387
564.80        26.95558
565.24        27.07172
565.68        27.17877
566.11        27.26803
566.55        27.35974
566.98        27.44551
567.42         27.5575
567.85        27.73914
568.29        28.00901
568.72        28.26999
569.16        28.52582
569.60        28.86626
570.03        29.15773
570.47        29.13193
570.90        28.95106
571.34        28.51974
571.77        28.99858
572.21        29.13153
572.64        29.29833
573.08        28.93673
573.51        28.17517
573.95        29.38406
574.38        31.14935
574.82        30.40499
