SpectraSmart Spectrum 2.9.0.0
--------- Device Information -----------
Spectrum Name :  反射率_0
Saving Time :  2024/04/26 00:55:35
Spectro-Module Model Name : SE2030-DUVN
Spectro-Module Serial Number : OS361AC55029948
Wavelength Start : 200
Wavelength End : 1025
Wavelength Unit : Wavelength(nm)
Spectrum Unit : Reflectance(%)
-----------Spectrum Setting ------------
Integration Time : 20ms
Average : 10
Boxcar : 0
Background removal :  enabled
linearity correction :  enabled
SC :  disabled
Intensity correction :  disabled
DWT denoise :  enabled
savitzky-golay :  disabled
FFT :  disabled
Running average :  disabled
Kalman :  disabled
High pass :  disabled
---------------BEGIN--------------------
Wavelength(nm)             Reflectance(%)
200.29               0
200.75        96.80962
201.21        90.09212
201.67        82.03401
202.13        77.22502
202.58         76.3296
203.04        78.62298
203.50        81.86681
203.96        82.37477
204.42        79.72646
204.88        75.51425
205.34        72.29011
205.80         72.8839
206.26        78.69447
206.72        93.19638
207.18        122.3228
207.64        148.5027
208.10        132.8516
208.55        99.17033
209.01        77.53819
209.47        69.79958
209.93        70.03391
210.39        75.00952
210.85        81.69504
211.31         83.8578
211.77         79.4622
212.23        71.11931
212.69        62.98173
213.14        61.35124
213.60        67.18645
214.06        78.29575
214.52        90.92592
214.98        99.46883
215.44        102.2324
215.90        101.0903
216.36        97.70431
216.81        94.22412
217.27        91.93904
217.73        90.21629
218.19        88.77441
218.65        87.22861
219.11         85.3008
219.57        82.84572
220.02        80.51838
220.48        81.14478
220.94         85.3307
221.40        91.82213
221.86        96.70056
222.32        96.46514
222.77        91.90701
223.23         85.7914
223.69         80.8314
224.15        79.97614
224.61        82.91531
225.06        88.34142
225.52        94.06474
225.98        97.28945
226.44        97.50139
226.90        95.76812
227.36        93.78496
227.81        93.83503
228.27        96.56906
228.73        100.8094
229.19        105.0285
229.65        107.0249
230.10        106.4933
230.56        104.7967
231.02        102.9706
231.48        102.2297
231.93         102.642
232.39        103.7447
232.85        105.2058
233.31        106.7083
233.77        108.0232
234.22        109.3106
234.68        110.0519
235.14        109.3503
235.60         107.124
236.05         103.761
236.51        100.0957
236.97        97.16487
237.43        95.09106
237.88        93.64285
238.34        92.49919
238.80        91.60214
239.26        90.90333
239.71        90.93678
240.17        90.72842
240.63        89.14503
241.08        86.17312
241.54        82.12491
242.00        78.37874
242.46        76.65466
242.91         77.9101
243.37        83.76759
243.83        103.1845
244.28        160.5519
244.74        212.0631
245.20        167.5359
245.66        134.7938
246.11        126.8095
246.57        133.1855
247.03        160.2956
247.48        244.1377
247.94        213.3439
248.40        126.4844
248.85        98.62443
249.31        89.97189
249.77        88.43085
250.22        90.70144
250.68        96.48495
251.14          105.79
251.59        113.3275
252.05        113.1734
252.51        107.2729
252.96        100.2121
253.42        97.39333
253.88        98.50043
254.33        101.3548
254.79        105.2669
255.25        108.7158
255.70        110.9615
256.16          112.99
256.62        113.9973
257.07        113.0103
257.53        110.8798
257.99        107.6407
258.44        104.3535
258.90        103.4183
259.35        103.6776
259.81        104.4786
260.27        104.2326
260.72           101.4
261.18        96.96002
261.63        91.50645
262.09        86.47101
262.55        82.60406
263.00        79.87449
263.46        78.09528
263.91        76.71346
264.37        75.68711
264.83        74.67613
265.28        73.59309
265.74        72.42815
266.19         70.7645
266.65        68.92776
267.11        67.06674
267.56        65.32878
268.02        63.94335
268.47        62.76628
268.93        61.73079
269.38        60.80897
269.84        60.15361
270.30        59.75235
270.75        59.58634
271.21        59.39798
271.66        58.77697
272.12         57.6797
272.57        56.22539
273.03        54.80854
273.48        53.91964
273.94        53.69172
274.39        53.87177
274.85        54.18607
275.31        54.16705
275.76        53.67887
276.22        52.93203
276.67        52.01017
277.13        51.19834
277.58        50.49385
278.04        49.86869
278.49        49.24673
278.95        48.66406
279.40        48.04459
279.86        47.49162
280.31        46.88564
280.77         46.2069
281.22        45.41062
281.68        44.58274
282.13        43.81701
282.59        43.34031
283.04        43.13467
283.50        43.16739
283.95        43.22476
284.41        43.04541
284.86        42.54838
285.32        41.83562
285.77        41.08671
286.22        40.66191
286.68         40.6007
287.13        40.74736
287.59        40.85179
288.04        40.49986
288.50         39.6778
288.95        38.52219
289.41         37.3336
289.86        36.41517
290.32        35.90812
290.77        35.66418
291.22        35.60646
291.68        35.57711
292.13        35.51265
292.59        35.47271
293.04         35.4446
293.50        35.41842
293.95        35.38401
294.40        35.30945
294.86        35.22948
295.31        35.20831
295.77        35.26336
296.22        35.38885
296.68        35.51435
297.13        35.49352
297.58        35.32344
298.04        35.06863
298.49        34.86932
298.95        34.98269
299.40        35.43037
299.85        36.11562
300.31        36.84832
300.76         37.3392
301.21        37.50161
301.67        37.45979
302.12        37.28279
302.58        37.14198
303.03        37.06385
303.48        37.00934
303.94        37.03254
304.39         37.1781
304.84        37.44553
305.30        37.81584
305.75        38.14361
306.20        38.21917
306.66        38.03078
307.11        37.62787
307.57        37.18415
308.02        36.87402
308.47        36.77613
308.93        36.83799
309.38        36.97772
309.83        37.10201
310.29        37.16692
310.74        37.18544
311.19        37.18331
311.65        37.19477
312.10        37.21961
312.55        37.24427
313.00        37.20214
313.46        37.00298
313.91        36.63422
314.36        36.15023
314.82        35.69457
315.27        35.46245
315.72        35.49793
316.18        35.73692
316.63        36.04216
317.08        36.16146
317.53        36.02665
317.99        35.70499
318.44        35.33199
318.89        35.12555
319.35        35.13132
319.80        35.28666
320.25        35.46089
320.70        35.44404
321.16        35.18641
321.61        34.76113
322.06        34.29264
322.51        33.96643
322.97        33.81753
323.42        33.79871
323.87        33.81116
324.32        33.69484
324.78        33.40792
325.23        33.01663
325.68        32.60336
326.13        32.30345
326.59        32.14877
327.04        32.11445
327.49        32.14325
327.94        32.14649
328.39        32.09661
328.85        32.01451
329.30        31.95509
329.75        31.95988
330.20         32.0438
330.66        32.16539
331.11        32.32775
331.56        32.49245
332.01        32.64224
332.46        32.77378
332.92        32.86744
333.37        32.93548
333.82        32.96087
334.27        32.95224
334.72        32.89372
335.17        32.76608
335.63        32.57711
336.08        32.34771
336.53        32.15347
336.98        32.11846
337.43        32.26332
337.88        32.55886
338.34        32.86849
338.79        33.01762
339.24        32.93628
339.69        32.67003
340.14        32.36119
340.59        32.26132
341.05        32.42012
341.50          32.754
341.95        33.10634
342.40        33.25089
342.85         33.1428
343.30        32.86842
343.75        32.52674
344.20        32.29004
344.66        32.21894
345.11        32.22772
345.56        32.29928
346.01        32.40395
346.46        32.51505
346.91        32.66031
347.36        32.74478
347.81        32.61374
348.26        32.26429
348.72        31.76586
349.17         31.2765
349.62        31.13749
350.07        31.41388
350.52        31.98936
350.97         32.6464
351.42        33.04912
351.87        33.11118
352.32        32.93396
352.77        32.63045
353.22        32.38614
353.67        32.25969
354.13        32.18971
354.58         32.1359
355.03        32.07685
355.48        31.99928
355.93        31.93871
356.38        31.85856
356.83        31.68771
357.28        31.42141
357.73        31.07144
358.18        30.73348
358.63         30.5622
359.08        30.58204
359.53         30.7486
359.98        30.92627
360.43        30.90128
360.88        30.63174
361.33          30.182
361.78        29.70054
362.23        29.43041
362.68        29.42383
363.13        29.59336
363.58        29.79564
364.03        29.80843
364.48         29.5778
364.93        29.18479
365.38        28.72305
365.83        28.33989
366.28         28.0852
366.73        27.90755
367.18        27.78777
367.63        27.69839
368.08        27.62009
368.53        27.57075
368.98        27.51539
369.43        27.38915
369.88        27.18607
370.33        26.92392
370.78        26.65658
371.23         26.4823
371.68        26.42624
372.13        26.45355
372.58        26.53156
373.03        26.60107
373.48        26.63345
373.93        26.64663
374.38         26.6172
374.83        26.50907
375.28         26.3243
375.72        26.06021
376.17        25.80098
376.62        25.64735
377.07        25.62122
377.52        25.68867
377.97        25.78209
378.42        25.78895
378.87        25.68114
379.32        25.50038
379.77        25.28551
380.22        25.09017
380.67        24.93101
381.11        24.78953
381.56        24.66306
382.01        24.55833
382.46        24.47258
382.91        24.40641
383.36        24.34303
383.81        24.25104
384.26        24.12675
384.71        23.98459
385.15        23.82979
385.60        23.68848
386.05         23.5567
386.50        23.42002
386.95        23.29892
387.40        23.23022
387.85        23.21962
388.29        23.25159
388.74        23.28653
389.19        23.22475
389.64         23.0577
390.09        22.80319
390.54        22.55764
390.98        22.48373
391.43        22.61961
391.88        22.89918
392.33         23.1814
392.78         23.2583
393.23        23.10559
393.67        22.79206
394.12         22.4812
394.57        22.32606
395.02        22.36085
395.47        22.52458
395.91        22.75145
396.36        22.89281
396.81        22.90444
397.26        22.81963
397.71        22.67877
398.15        22.51884
398.60        22.39156
399.05        22.29057
399.50        22.19518
399.95        22.01418
400.39        21.84192
400.84        21.62502
401.29        21.45282
401.74        21.43936
402.18        21.61303
402.63        21.90391
403.08        22.21835
403.53        22.40486
403.97        22.42112
404.42        22.31048
404.87        22.11287
405.32        21.90406
405.76        21.72177
406.21        21.55937
406.66        21.44053
407.11         21.4042
407.55         21.4564
408.00        21.58546
408.45        21.74411
408.90        21.82255
409.34         21.7863
409.79        21.66608
410.24        21.52806
410.68        21.46908
411.13        21.51492
411.58        21.63462
412.03        21.78119
412.47        21.87751
412.92         21.8812
413.37         21.8189
413.81        21.72944
414.26        21.68956
414.71        21.70569
415.15        21.75727
415.60        21.78406
416.05        21.70996
416.49         21.5236
416.94         21.2681
417.39        21.00231
417.83        20.82298
418.28        20.76784
418.73        20.79759
419.17        20.89044
419.62        21.01034
420.07        21.13571
420.51        21.27517
420.96        21.38301
421.41         21.3814
421.85         21.2553
422.30        21.05411
422.74        20.83908
423.19        20.74626
423.64        20.78294
424.08        20.92425
424.53        21.09848
424.98        21.21616
425.42        21.25383
425.87        21.22395
426.31        21.15374
426.76         21.1449
427.21        21.18393
427.65        21.10193
428.10        20.98422
428.54        21.10547
428.99        21.47468
429.44        21.96307
429.88          22.361
430.33        22.41772
430.77        22.09705
431.22        21.49039
431.66        20.83411
432.11        20.59965
432.56        20.82414
433.00        21.17594
433.45        21.47288
433.89        21.88358
434.34        22.17141
434.78         21.8113
435.23        20.87118
435.67        20.79224
436.12        21.41544
436.57        21.71866
437.01        21.58457
437.46        21.51579
437.90        21.54931
438.35        21.53861
438.79        21.47468
439.24        21.40473
439.68        21.34922
440.13        21.21742
440.57        21.08507
441.02        21.34729
441.46        21.84526
441.91        21.81157
442.35        21.32089
442.80        21.09021
443.24        21.10773
443.69        21.16524
444.13         21.1834
444.58        20.94504
445.02        20.54287
445.47        20.48654
445.91         20.7084
446.36        20.69995
446.80        20.43684
447.24        20.21158
447.69        20.09061
448.13        20.04317
448.58        20.08808
449.02        20.22127
449.47        20.38323
449.91        20.47583
450.36         20.4762
450.80        20.40566
451.25        20.31272
451.69        20.26262
452.13        20.27734
452.58        20.32291
453.02        20.38095
453.47        20.42562
453.91        20.44899
454.36        20.46928
454.80        20.47209
455.24        20.42643
455.69        20.34449
456.13        20.22851
456.58        20.14802
457.02        20.17611
457.46        20.33061
457.91        20.57574
458.35        20.83808
458.79        20.99849
459.24        21.03745
459.68        20.97264
460.13        20.87599
460.57         20.8136
461.01        20.82491
461.46        20.88198
461.90        20.95324
462.34        20.98553
462.79        20.96034
463.23        20.89241
463.68         20.8284
464.12         20.8507
464.56        20.97403
465.01        21.18447
465.45        21.36567
465.89        21.42668
466.34        21.36609
466.78        21.09527
467.22        20.77103
467.67        20.85861
468.11        21.29041
468.55        21.44288
468.99         21.2718
469.44         21.1404
469.88        21.13266
470.32        21.30835
470.77        21.59075
471.21        21.69424
471.65        21.58419
472.10        21.47789
472.54        21.42316
472.98        21.41971
473.42        21.48523
473.87        21.62363
474.31        21.78294
474.75        21.88015
475.20        21.90154
475.64        21.86084
476.08        21.80264
476.52        21.79366
476.97        21.85244
477.41        21.96258
477.85        22.08014
478.29         22.1775
478.74        22.24717
479.18        22.18948
479.62        22.05433
480.06        22.29287
480.50        22.45336
480.95        22.58944
481.39        22.52785
481.83        22.47248
482.27        22.42547
482.72        22.18818
483.16         21.8674
483.60        21.92542
484.04        22.36831
484.48         22.5615
484.93        22.75632
485.37        23.20474
485.81        23.80122
486.25        23.94189
486.69        31.39021
487.14        25.26324
487.58        16.38651
488.02        20.23941
488.46        22.78822
488.90        22.65007
489.34        23.18312
489.79        22.92988
490.23        23.82281
490.67        24.47267
491.11        24.57193
491.55        24.46765
491.99        24.10962
492.43        23.81966
492.88         23.7026
493.32        23.74564
493.76        23.77719
494.20        23.98041
494.64        24.27818
495.08        24.62654
495.52        24.99174
495.96        25.34892
496.41        25.61451
496.85        25.76228
497.29        25.79757
497.73         25.4777
498.17        25.11173
498.61        25.32013
499.05         26.0999
499.49         26.2279
499.93        26.33398
500.37        26.45822
500.82        26.51544
501.26        26.74616
501.70         27.0137
502.14        27.10501
502.58        27.01418
503.02        26.98938
503.46         27.0475
503.90        27.03993
504.34        26.98602
504.78        26.98474
505.22        27.04523
505.66        27.14756
506.10         27.2567
506.54        27.31105
506.98        27.30005
507.42        27.24774
507.86        27.20839
508.30        27.26504
508.74        27.43075
509.18        27.67064
509.62        27.93115
510.06        28.12475
510.50        28.22484
510.94         28.2625
511.38        28.25557
511.82        28.23262
512.26           28.21
512.70        28.17419
513.14        28.15365
513.58        28.19796
514.02        28.30241
514.46        28.44775
514.90        28.57823
515.34        28.56961
515.78        28.37868
516.22        28.19006
516.66        28.07145
517.10        27.72364
517.54        27.16977
517.98        27.86516
518.42        27.67468
518.86        28.01219
519.30         28.2187
519.74        28.49092
520.18        28.74576
520.62        28.82305
521.06        28.72443
521.50        28.47725
521.93        28.18272
522.37        28.01892
522.81        28.03085
523.25        28.16585
523.69        28.35364
524.13        28.48336
524.57        28.51897
525.01        28.49355
525.45        28.42735
525.89        28.35172
526.32        28.27809
526.76        28.19533
527.20        28.10062
527.64        28.00282
528.08        27.91194
528.52        27.80861
528.96        27.69427
529.40        27.64363
529.83        27.67277
530.27        27.47668
530.71        27.58372
531.15        27.53461
531.59        27.48894
532.03        27.43546
532.46        27.40807
532.90        27.45794
533.34        27.57881
533.78        27.74693
534.22        27.90374
534.66        27.96552
535.09          27.911
535.53        27.78024
535.97        27.61005
536.41        27.46664
536.85        27.37735
537.28        27.32858
537.72        27.31955
538.16        27.34978
538.60        27.41331
539.04        27.48881
539.47        27.56476
539.91        27.69395
540.35        27.84109
540.79        27.89239
541.22        27.86442
541.66         27.8968
542.10        27.99712
542.54        28.08415
542.97        28.16202
543.41        28.28461
543.85        28.44757
544.29        28.64966
544.72        28.83884
545.16         28.9448
545.60        28.95528
546.04        28.88671
546.47        28.83126
546.91        28.94706
547.35         29.2489
547.79        29.69438
548.22        30.14202
548.66        30.34716
549.10        30.28161
549.53        30.06832
549.97        29.85953
550.41        29.81717
550.84        29.99439
551.28        30.35101
551.72        30.80209
552.15        31.18942
552.59        31.45198
553.03        31.63002
553.46         31.7399
553.90        31.83589
554.34        31.94093
554.77        32.00464
555.21         32.0252
555.65        32.10273
556.08        32.25909
556.52        32.08045
556.96         32.3264
557.39         32.3998
557.83        32.53127
558.27        32.68475
558.70        32.85302
559.14        33.00711
559.57        33.12275
560.01        33.22237
560.45        33.28497
560.88        33.27389
561.32        33.21684
561.75        33.12359
562.19        33.05766
562.63        33.04268
563.06        33.09871
563.50         33.2769
563.93        33.52549
564.37        33.72392
564.80         33.8367
565.24        33.92773
565.68        33.99874
566.11        34.04052
566.55         34.0863
566.98        34.13234
567.42         34.2098
567.85        34.36169
568.29        34.61478
568.72        34.84954
569.16        35.09788
569.60        35.52989
570.03        35.98266
570.47        36.05309
570.90         35.8736
571.34        35.46202
571.77        35.90844
572.21        35.92255
572.64        35.90931
573.08        35.42956
573.51        34.35455
573.95        35.81778
574.38         37.9848
574.82        37.17271
