SpectraSmart Spectrum 2.9.0.0
--------- Device Information -----------
Spectrum Name :  反射率_0
Saving Time :  2024/04/26 00:40:57
Spectro-Module Model Name : SE2030-DUVN
Spectro-Module Serial Number : OS361AC55029948
Wavelength Start : 200
Wavelength End : 1025
Wavelength Unit : Wavelength(nm)
Spectrum Unit : Reflectance(%)
-----------Spectrum Setting ------------
Integration Time : 20ms
Average : 10
Boxcar : 0
Background removal :  enabled
linearity correction :  enabled
SC :  disabled
Intensity correction :  disabled
DWT denoise :  enabled
savitzky-golay :  disabled
FFT :  disabled
Running average :  disabled
Kalman :  disabled
High pass :  disabled
---------------BEGIN--------------------
Wavelength(nm)             Reflectance(%)
200.29               0
200.75        77.89496
201.21        72.56583
201.67        66.40059
202.13        62.69688
202.58        61.84808
203.04        63.28788
203.50        65.74786
203.96        67.03286
204.42        66.61516
204.88        65.31342
205.34        64.16696
205.80        64.30421
206.26        66.25053
206.72        71.06681
207.18         80.4513
207.64        87.95802
208.10        81.22364
208.55        69.36643
209.01        62.11623
209.47         59.8747
209.93        60.54808
210.39        63.17621
210.85        66.38319
211.31        67.22113
211.77        64.79225
212.23        60.27482
212.69        55.97383
213.14        55.54342
213.60        59.34637
214.06        66.31153
214.52         74.0285
214.98         78.8898
215.44        79.82201
215.90         77.8569
216.36        74.53359
216.81        71.86926
217.27        70.78266
217.73        70.76599
218.19         70.5014
218.65        68.15711
219.11        62.90065
219.57        53.73771
220.02        42.25661
220.48        36.87776
220.94        41.66711
221.40        54.20553
221.86        64.93867
222.32        64.17191
222.77        53.81306
223.23        39.79498
223.69        28.44908
224.15        26.23056
224.61        32.30975
225.06        43.24851
225.52         54.6301
225.98        60.68713
226.44        60.26507
226.90        55.76561
227.36         49.8795
227.81        46.23179
228.27        46.02564
228.73        47.76671
229.19        50.43735
229.65        52.61757
230.10        53.79314
230.56        54.55267
231.02        55.09967
231.48        55.58812
231.93         56.0492
232.39        56.37743
232.85        56.52245
233.31         56.5222
233.77        56.36951
234.22        56.09214
234.68        55.66519
235.14        55.01552
235.60        54.21743
236.05        53.40004
236.51        52.70522
236.97        52.24007
237.43        52.03485
237.88        52.13703
238.34        52.56537
238.80        53.50451
239.26        54.89848
239.71        56.73552
240.17        58.42636
240.63        59.54327
241.08        60.06067
241.54        60.01138
242.00        59.75633
242.46        59.79658
242.91        60.54553
243.37        62.31856
243.83        68.85419
244.28        96.29685
244.74        138.3724
245.20        128.9741
245.66        113.1452
246.11        107.1611
246.57        106.1421
247.03        107.8436
247.48        105.4704
247.94        71.26253
248.40        64.69912
248.85        66.85004
249.31        69.12553
249.77        71.05006
250.22        73.14593
250.68        76.17171
251.14        79.92837
251.59        81.14016
252.05        77.57295
252.51        71.25022
252.96         64.9829
253.42        61.54706
253.88        60.45593
254.33        60.62493
254.79        62.67919
255.25        66.78333
255.70        71.84032
256.16        77.18467
256.62        80.63095
257.07        80.01668
257.53        76.29543
257.99        70.45241
258.44        64.63402
258.90        62.14396
259.35        62.12645
259.81        63.25401
260.27        63.51546
260.72        60.98841
261.18        56.44291
261.63         50.8297
262.09        45.79127
262.55        42.58194
263.00         41.1283
263.46        40.80309
263.91        40.72546
264.37        40.22353
264.83        39.12318
265.28        37.59665
265.74        36.09493
266.19        35.03095
266.65        34.59114
267.11         34.5057
267.56        34.42798
268.02        33.94265
268.47        32.96338
268.93        31.65218
269.38        30.23858
269.84        29.31764
270.30        29.03606
270.75        29.23948
271.21        29.59169
271.66        29.59579
272.12        29.12132
272.57        28.31507
273.03        27.48108
273.48        26.99785
273.94        26.96468
274.39        27.20559
274.85        27.46143
275.31         27.3463
275.76        26.78817
276.22        25.96598
276.67        25.10225
277.13        24.60582
277.58        24.49393
278.04        24.63416
278.49        24.78862
278.95        24.68567
279.40         24.2457
279.86        23.63718
280.31        22.93768
280.77        22.36538
281.22        21.94717
281.68        21.64503
282.13        21.44088
282.59        21.34634
283.04        21.33149
283.50        21.41218
283.95        21.49535
284.41        21.45268
284.86        21.25079
285.32        20.93237
285.77        20.59518
286.22        20.45081
286.68        20.51414
287.13        20.70093
287.59        20.86022
288.04        20.76211
288.50        20.39311
288.95         19.8257
289.41        19.22863
289.86        18.75215
290.32        18.48884
290.77        18.37065
291.22        18.37476
291.68        18.42903
292.13          18.514
292.59        18.65521
293.04        18.86144
293.50        19.14458
293.95        19.48957
294.40        19.85445
294.86        20.20864
295.31        20.52314
295.77        20.78978
296.22        21.01869
296.68        21.19897
297.13        21.28696
297.58        21.30461
298.04        21.28798
298.49        21.31336
298.95        21.52899
299.40        21.94925
299.85         22.5246
300.31        23.15375
300.76         23.6873
301.21        24.06276
301.67        24.33826
302.12        24.51625
302.58        24.64905
303.03        24.74259
303.48        24.78772
303.94        24.85559
304.39        25.02765
304.84        25.31747
305.30        25.69621
305.75        26.04243
306.20        26.17483
306.66        26.08244
307.11        25.81722
307.57        25.52304
308.02        25.34792
308.47        25.35427
308.93         25.4907
309.38        25.69173
309.83        25.88202
310.29        26.01895
310.74        26.11545
311.19        26.17285
311.65        26.19165
312.10        26.17402
312.55         26.1197
313.00        26.00861
313.46        25.82164
313.91        25.56129
314.36        25.25948
314.82         25.0041
315.27        24.91418
315.72        25.01123
316.18        25.25194
316.63        25.53832
317.08        25.68642
317.53        25.64296
317.99        25.44924
318.44         25.1981
318.89        25.04193
319.35        25.01381
319.80        25.07113
320.25        25.12377
320.70        25.02768
321.16        24.75371
321.61        24.35689
322.06        23.93401
322.51        23.62536
322.97        23.45638
323.42        23.39174
323.87        23.35261
324.32        23.21055
324.78        22.93402
325.23        22.57261
325.68        22.19499
326.13        21.91201
326.59        21.75163
327.04        21.69454
327.49        21.69363
327.94        21.67374
328.39        21.61069
328.85        21.51847
329.30        21.44696
329.75        21.44834
330.20        21.53387
330.66        21.66175
331.11         21.8039
331.56        21.87663
332.01         21.8532
332.46        21.74187
332.92         21.5771
333.37        21.44423
333.82        21.36794
334.27        21.34791
334.72        21.32569
335.17        21.20086
335.63        20.95781
336.08        20.63206
336.53        20.35043
336.98         20.3143
337.43        20.55561
337.88        21.01416
338.34        21.48419
338.79        21.67281
339.24        21.48499
339.69        21.00066
340.14        20.44129
340.59        20.19748
341.05        20.35617
341.50        20.79076
341.95        21.27965
342.40        21.49725
342.85        21.37376
343.30        21.03416
343.75        20.60027
344.20        20.28252
344.66        20.15528
345.11        20.10852
345.56        20.14195
346.01        20.25751
346.46        20.41937
346.91        20.64359
347.36        20.77248
347.81        20.54796
348.26        19.95918
348.72        19.12681
349.17        18.28728
349.62        17.91523
350.07        18.12185
350.52        18.75088
350.97        19.56442
351.42        20.19216
351.87        20.51472
352.32         20.6299
352.77        20.59253
353.22        20.49533
353.67        20.38174
354.13        20.21726
354.58        20.01968
355.03        19.86602
355.48         19.7743
355.93        19.75005
356.38        19.75176
356.83        19.69606
357.28        19.56197
357.73        19.36804
358.18        19.16302
358.63        19.02264
359.08        18.96658
359.53        18.98139
359.98        19.00247
360.43        18.93077
360.88         18.7517
361.33        18.49117
361.78        18.25505
362.23        18.21431
362.68        18.38754
363.13        18.70191
363.58        19.00532
364.03        19.06354
364.48        18.82923
364.93        18.38978
365.38        17.86645
365.83        17.45429
366.28        17.22231
366.73        17.11526
367.18        17.11097
367.63        17.17012
368.08        17.25893
368.53         17.3861
368.98        17.50314
369.43        17.52762
369.88        17.44699
370.33        17.28306
370.78        17.07614
371.23        16.90573
371.68         16.8019
372.13        16.74024
372.58        16.73661
373.03        16.81206
373.48        16.95297
373.93        17.14934
374.38        17.32373
374.83         17.3553
375.28        17.22526
375.72         16.9599
376.17         16.6675
376.62         16.4868
377.07        16.45938
377.52        16.54053
377.97         16.6777
378.42        16.78327
378.87        16.82324
379.32        16.82353
379.77        16.79057
380.22        16.73093
380.67        16.65166
381.11        16.54947
381.56        16.43023
382.01        16.31672
382.46        16.21719
382.91        16.12875
383.36         16.0567
383.81        16.00385
384.26         15.9694
384.71        15.95762
385.15        15.94028
385.60        15.88477
386.05         15.7801
386.50         15.6269
386.95        15.47262
387.40        15.40194
387.85        15.42919
388.29        15.52244
388.74        15.60913
389.19        15.57428
389.64        15.40521
390.09        15.13294
390.54        14.85124
390.98        14.71804
391.43        14.77837
391.88        14.97155
392.33        15.18375
392.78        15.24713
393.23        15.13664
393.67        14.90586
394.12        14.67428
394.57        14.55578
395.02         14.5748
395.47        14.68601
395.91        14.83123
396.36        14.88949
396.81        14.82876
397.26        14.67885
397.71        14.49583
398.15        14.34511
398.60        14.26764
399.05        14.24752
399.50        14.23338
399.95        14.11313
400.39        13.93698
400.84        13.68407
401.29        13.45788
401.74        13.41675
402.18        13.60254
402.63        13.94379
403.08        14.30993
403.53        14.49208
403.97        14.44086
404.42         14.2202
404.87        13.93386
405.32        13.76388
405.76        13.76103
406.21        13.86259
406.66        14.00595
407.11        14.10997
407.55        14.15201
408.00        14.15727
408.45        14.12143
408.90        14.02645
409.34        13.88271
409.79        13.70139
410.24        13.53297
410.68        13.44734
411.13        13.45895
411.58        13.55404
412.03        13.69181
412.47        13.79657
412.92        13.83033
413.37        13.80802
413.81        13.76223
414.26        13.76148
414.71        13.81026
415.15        13.88846
415.60        13.93419
416.05         13.8709
416.49        13.68503
416.94        13.41799
417.39        13.13347
417.83        12.93844
418.28        12.87308
418.73        12.89914
419.17        12.97971
419.62        13.04736
420.07        13.08118
420.51        13.09948
420.96        13.09297
421.41        13.04298
421.85        12.94881
422.30        12.83123
422.74        12.71376
423.19        12.66453
423.64        12.68106
424.08        12.75022
424.53        12.83092
424.98        12.87811
425.42        12.88025
425.87        12.84559
426.31        12.77501
426.76        12.70953
427.21        12.63801
427.65        12.46783
428.10        12.29184
428.54        12.33202
428.99        12.60545
429.44        13.01865
429.88        13.39696
430.33        13.50898
430.77        13.31546
431.22         12.8912
431.66        12.42653
432.11        12.25853
432.56        12.42144
433.00        12.75141
433.45        13.07877
433.89        13.27763
434.34        13.24898
434.78        12.92298
435.23        12.52517
435.67        12.48522
436.12        12.76513
436.57        12.91099
437.01        12.84448
437.46         12.7596
437.90        12.67228
438.35        12.53495
438.79        12.37703
439.24        12.27849
439.68        12.26107
440.13        12.24935
440.57        12.25559
441.02        12.46445
441.46        12.76645
441.91        12.71132
442.35        12.35813
442.80        12.17646
443.24        12.14819
443.69        12.09656
444.13         11.9792
444.58        11.73935
445.02        11.43988
445.47        11.33747
445.91        11.40464
446.36        11.39316
446.80        11.28708
447.24        11.23147
447.69        11.23811
448.13        11.24531
448.58        11.25463
449.02        11.27831
449.47        11.29656
449.91        11.27809
450.36         11.2229
450.80        11.13536
451.25        11.05792
451.69        11.04777
452.13        11.11641
452.58        11.23355
453.02        11.35984
453.47        11.42637
453.91        11.42158
454.36        11.37306
454.80        11.29813
455.24        11.22779
455.69        11.18355
456.13        11.14651
456.58        11.15023
457.02        11.22803
457.46        11.38186
457.91         11.5931
458.35         11.7976
458.79        11.88349
459.24        11.83884
459.68         11.6854
460.13        11.51081
460.57        11.41838
461.01        11.44704
461.46        11.55634
461.90        11.69138
462.34        11.75133
462.79        11.71167
463.23        11.60186
463.68        11.48461
464.12         11.4614
464.56        11.56029
465.01        11.74858
465.45          11.938
465.89        12.04354
466.34        12.05593
466.78        11.93646
467.22        11.78096
467.67        11.86547
468.11        12.15468
468.55        12.28596
468.99        12.22576
469.44        12.17274
469.88        12.17473
470.32        12.27192
470.77        12.42165
471.21        12.46526
471.65        12.38544
472.10        12.31086
472.54        12.27469
472.98        12.29257
473.42         12.3765
473.87        12.52236
474.31         12.6883
474.75        12.80189
475.20        12.84954
475.64        12.84356
476.08        12.82196
476.52          12.845
476.97         12.9264
477.41        13.04972
477.85        13.17381
478.29        13.25855
478.74        13.29389
479.18         13.2274
479.62         13.1045
480.06        13.21729
480.50        13.30409
480.95        13.39186
481.39        13.36759
481.83        13.33473
482.27        13.29599
482.72        13.14632
483.16        12.96071
483.60        13.04789
484.04         13.4219
484.48        13.65302
484.93         13.8906
485.37        14.35318
485.81        14.87752
486.25        14.99096
486.69        19.38839
487.14        15.35801
487.58        10.28256
488.02        12.72003
488.46        14.22906
488.90        14.32485
489.34        14.53196
489.79        14.45341
490.23        15.08202
490.67        15.54278
491.11        15.61718
491.55        15.54001
491.99        15.29446
492.43        15.10141
492.88        15.03589
493.32        15.06604
493.76        15.09741
494.20        15.28028
494.64        15.56617
495.08        15.91015
495.52        16.26505
495.96        16.57839
496.41         16.7871
496.85        16.88813
497.29         16.8984
497.73        16.68347
498.17        16.45652
498.61         16.6182
499.05        17.17564
499.49        17.33555
499.93        17.50749
500.37        17.71194
500.82        17.86916
501.26        18.11067
501.70        18.33758
502.14        18.41313
502.58        18.34797
503.02        18.33737
503.46        18.40103
503.90        18.42962
504.34        18.43215
504.78        18.46908
505.22        18.54436
505.66        18.65033
506.10        18.75775
506.54        18.81364
506.98        18.80998
507.42        18.76459
507.86        18.72962
508.30        18.78724
508.74        18.94867
509.18        19.17957
509.62        19.42339
510.06        19.58643
510.50        19.64416
510.94        19.63492
511.38        19.58311
511.82         19.5269
512.26        19.48779
512.70        19.44909
513.14        19.44408
513.58         19.5396
514.02        19.72858
514.46         19.9623
514.90        20.15782
515.34        20.25175
515.78        20.02197
516.22        19.81194
516.66        19.65837
517.10        19.25042
517.54        18.62049
517.98        19.39559
518.42         19.1829
518.86        19.54617
519.30        19.74695
519.74        20.00786
520.18        20.25543
520.62        20.34054
521.06        20.26763
521.50        20.05731
521.93        19.78622
522.37        19.59488
522.81        19.52521
523.25        19.54309
523.69        19.61656
524.13        19.69247
524.57        19.74747
525.01        19.79545
525.45        19.83129
525.89        19.84358
526.32        19.82782
526.76        19.78346
527.20        19.70991
527.64        19.61908
528.08        19.52258
528.52        19.40423
528.96        19.27836
529.40        19.21794
529.83        19.23972
530.27        19.12955
530.71        19.23666
531.15        19.21045
531.59        19.15552
532.03        19.06933
532.46         19.0012
532.90        19.03291
533.34        19.16542
533.78        19.36632
534.22        19.55273
534.66        19.60423
535.09        19.49568
535.53        19.27621
535.97        19.01908
536.41        18.84428
536.85        18.78975
537.28         18.8266
537.72        18.91294
538.16         18.9791
538.60        19.00522
539.04        18.99987
539.47        18.99694
539.91        19.09423
540.35        19.27841
540.79         19.4449
541.22         19.5649
541.66        19.67445
542.10        19.76358
542.54        19.79572
542.97        19.80055
543.41        19.85814
543.85        19.98022
544.29        20.15737
544.72        20.34213
545.16        20.46772
545.60        20.52142
546.04        20.51988
546.47        20.54006
546.91        20.71267
547.35        21.04442
547.79        21.49014
548.22         21.9236
548.66        22.13014
549.10        22.08323
549.53        21.88669
549.97        21.66973
550.41        21.57494
550.84        21.65293
551.28        21.87253
551.72        22.18201
552.15        22.48246
552.59        22.72798
553.03        22.94229
553.46         23.1161
553.90         23.2536
554.34        23.36501
554.77        23.41965
555.21        23.43021
555.65        23.49261
556.08        23.62902
556.52         23.5305
556.96        23.74458
557.39        23.82079
557.83        23.92612
558.27        24.03925
558.70        24.16469
559.14        24.29344
559.57        24.40985
560.01        24.52394
560.45        24.60884
560.88        24.62278
561.32        24.58556
561.75        24.50277
562.19        24.42943
562.63        24.41516
563.06        24.46865
563.50        24.57663
563.93        24.72052
564.37        24.88137
564.80        25.03743
565.24        25.20244
565.68         25.3461
566.11        25.42502
566.55        25.45532
566.98        25.44194
567.42        25.44734
567.85        25.56312
568.29         25.8168
568.72        26.10635
569.16        26.42119
569.60        26.77293
570.03        27.01832
570.47        27.01839
570.90        26.94684
571.34        26.29495
571.77        26.86885
572.21         26.9374
572.64        27.05773
573.08        26.69378
573.51        25.99107
573.95        27.12714
574.38        28.72965
574.82         28.3223
