SpectraSmart Spectrum 2.9.0.0
--------- Device Information -----------
Spectrum Name :  反射率_0
Saving Time :  2024/04/26 00:14:48
Spectro-Module Model Name : SE2030-DUVN
Spectro-Module Serial Number : OS361AC55029948
Wavelength Start : 200
Wavelength End : 1025
Wavelength Unit : Wavelength(nm)
Spectrum Unit : Reflectance(%)
-----------Spectrum Setting ------------
Integration Time : 20ms
Average : 10
Boxcar : 0
Background removal :  enabled
linearity correction :  enabled
SC :  disabled
Intensity correction :  disabled
DWT denoise :  enabled
savitzky-golay :  disabled
FFT :  disabled
Running average :  disabled
Kalman :  disabled
High pass :  disabled
---------------BEGIN--------------------
Wavelength(nm)             Reflectance(%)
200.29               0
200.75        86.23692
201.21        76.04485
201.67        64.53635
202.13         57.5318
202.58        55.70996
203.04        57.82406
203.50        61.83982
203.96        64.14109
204.42           63.77
204.88        62.07405
205.34        60.47153
205.80        60.47062
206.26        62.71099
206.72        68.19406
207.18        78.79893
207.64        87.29787
208.10        79.63717
208.55        66.29369
209.01        57.93238
209.47        54.72998
209.93        54.42359
210.39        56.06788
210.85        58.43221
211.31         59.0899
211.77        57.34192
212.23        53.99502
212.69        51.42397
213.14        53.45822
213.60        60.28646
214.06        70.64619
214.52        80.98806
214.98        86.02814
215.44        84.75209
215.90        79.16586
216.36         72.2274
216.81        68.06866
217.27        67.76621
217.73        69.62029
218.19         71.7993
218.65        72.00249
219.11        69.32404
219.57        63.51971
220.02        54.71132
220.48        46.90105
220.94        43.11674
221.40         43.6819
221.86        45.25645
222.32         43.6907
222.77        39.19956
223.23        33.87094
223.69        30.46534
224.15        31.95732
224.61        37.62572
225.06        45.79703
225.52        53.23462
225.98        55.76856
226.44        52.85832
226.90        46.40773
227.36        39.20839
227.81        35.07909
228.27        35.13247
228.73        37.89235
229.19        41.93695
229.65        45.10974
230.10        46.71314
230.56        47.47845
231.02        47.82716
231.48        48.19249
231.93        48.68111
232.39        49.10314
232.85        49.38099
233.31        49.51377
233.77         49.4959
234.22        49.38316
234.68        49.23546
235.14        49.08038
235.60        48.94669
236.05        48.83842
236.51        48.74841
236.97        48.61385
237.43         48.4402
237.88        48.34119
238.34        48.28578
238.80        48.40985
239.26        48.75496
239.71        49.31233
240.17        50.05854
240.63         51.4411
241.08        53.53215
241.54        56.08697
242.00        58.52286
242.46         60.1386
242.91        60.93321
243.37        60.40808
243.83        58.84091
244.28        65.84589
244.74        96.85112
245.20        108.0787
245.66        103.7783
246.11        99.80756
246.57        95.18914
247.03        84.08975
247.48        40.69872
247.94        12.54332
248.40        46.30794
248.85        62.44057
249.31        69.91294
249.77        74.05616
250.22        77.33766
250.68        81.27184
251.14        85.89018
251.59        87.88364
252.05        84.60233
252.51        77.86624
252.96        70.83541
253.42        66.70308
253.88        65.02475
254.33        64.78623
254.79        66.44958
255.25        69.92983
255.70         74.2579
256.16        78.95094
256.62        82.17999
257.07        82.12147
257.53        79.58714
257.99        75.27339
258.44        70.80405
258.90        68.95336
259.35        68.86928
259.81        69.52988
260.27        69.31488
260.72        66.67299
261.18        62.32981
261.63        57.01065
262.09         52.0974
262.55        48.51105
263.00        46.27134
263.46        45.03554
263.91        44.13982
264.37        43.14287
264.83        41.84483
265.28        40.29287
265.74         38.8636
266.19        37.85715
266.65        37.42225
267.11        37.31938
267.56        37.18135
268.02          36.569
268.47        35.39308
268.93        33.82142
269.38        32.11991
269.84        30.97105
270.30        30.55306
270.75        30.68313
271.21        31.00769
271.66        30.99326
272.12        30.49178
272.57         29.6687
273.03        28.78932
273.48         28.1686
273.94        27.91184
274.39        27.86518
274.85        27.85848
275.31        27.64264
275.76        27.15438
276.22        26.50972
276.67        25.83938
277.13        25.41451
277.58        25.23169
278.04        25.23181
278.49        25.20976
278.95        24.93955
279.40        24.36502
279.86        23.62714
280.31           22.87
280.77        22.41634
281.22        22.27648
281.68        22.35919
282.13        22.49523
282.59        22.47964
283.04        22.26326
283.50        21.95591
283.95        21.60931
284.41        21.31873
284.86        21.11085
285.32        20.95566
285.77        20.88679
286.22        21.01747
286.68        21.31979
287.13        21.73276
287.59        22.08875
288.04        22.12934
288.50        21.83906
288.95        21.28694
289.41        20.67048
289.86        20.18785
290.32        19.94885
290.77        19.88236
291.22        19.94956
291.68        20.04993
292.13        20.15943
292.59        20.31304
293.04         20.5517
293.50        20.93527
293.95        21.45324
294.40        22.04869
294.86        22.63647
295.31         23.1031
295.77        23.43104
296.22        23.66147
296.68        23.85363
297.13        24.07696
297.58        24.37421
298.04        24.73494
298.49        25.17218
298.95        25.74148
299.40        26.42805
299.85        27.21302
300.31        28.00434
300.76        28.66603
301.21        29.14741
301.67        29.50023
302.12        29.75575
302.58        30.02362
303.03        30.31065
303.48         30.5963
303.94        30.90536
304.39        31.23771
304.84        31.59596
305.30        31.98165
305.75        32.31562
306.20        32.48779
306.66        32.50576
307.11        32.38999
307.57          32.263
308.02        32.23235
308.47        32.35054
308.93        32.57879
309.38         32.8492
309.83        33.08568
310.29        33.24982
310.74        33.35196
311.19        33.40285
311.65        33.41931
312.10        33.40462
312.55        33.35336
313.00        33.24501
313.46        33.05839
313.91        32.79449
314.36        32.49232
314.82        32.22559
315.27        32.08414
315.72        32.09317
316.18        32.21852
316.63        32.40597
317.08        32.54234
317.53        32.58515
317.99        32.54839
318.44        32.47053
318.89        32.41911
319.35        32.40184
319.80        32.40268
320.25        32.35862
320.70        32.17583
321.16        31.84784
321.61        31.41631
322.06        30.97776
322.51        30.67358
322.97        30.52338
323.42        30.49592
323.87        30.50152
324.32        30.38918
324.78        30.11927
325.23        29.74925
325.68        29.34865
326.13        29.03479
326.59        28.84063
327.04        28.75089
327.49        28.73166
327.94         28.7318
328.39        28.73094
328.85        28.73231
329.30        28.77365
329.75        28.87112
330.20         29.0224
330.66        29.19196
331.11        29.35458
331.56        29.43076
332.01        29.39884
332.46        29.26146
332.92        29.06425
333.37         28.9328
333.82        28.89324
334.27        28.93969
334.72        28.98232
335.17        28.86403
335.63        28.55704
336.08        28.12081
336.53        27.71729
336.98         27.6066
337.43        27.83788
337.88        28.33297
338.34        28.86888
338.79        29.12929
339.24        29.00536
339.69        28.58552
340.14        28.08184
340.59        27.86776
341.05        28.03054
341.50        28.44488
341.95        28.90876
342.40        29.13062
342.85        29.04689
343.30        28.77023
343.75        28.40752
344.20        28.14182
344.66        28.03804
345.11        27.99579
345.56        28.01288
346.01        28.08749
346.46        28.19163
346.91        28.34783
347.36        28.42221
347.81        28.19397
348.26        27.65839
348.72        26.92093
349.17        26.19733
349.62        25.92513
350.07        26.19616
350.52        26.85611
350.97        27.66476
351.42        28.25078
351.87        28.50058
352.32        28.51959
352.77        28.36964
353.22        28.15549
353.67        27.93093
354.13        27.66288
354.58         27.3903
355.03        27.22321
355.48        27.17682
355.93        27.23911
356.38        27.32419
356.83        27.27731
357.28        27.06346
357.73        26.72894
358.18         26.3515
358.63        26.05604
359.08        25.88117
359.53        25.79474
359.98        25.74795
360.43        25.66581
360.88        25.52692
361.33        25.35038
361.78        25.18258
362.23        25.09591
362.68        25.09544
363.13        25.14391
363.58        25.16423
364.03        25.04181
364.48        24.75771
364.93        24.35938
365.38        23.92113
365.83        23.56072
366.28        23.31782
366.73        23.16017
367.18        23.06855
367.63        23.00855
368.08        22.95818
368.53         22.9266
368.98         22.8883
369.43        22.79812
369.88        22.65157
370.33        22.46297
370.78        22.25821
371.23        22.08904
371.68        21.97302
372.13        21.88877
372.58        21.85064
373.03        21.87935
373.48        21.96319
373.93        22.09303
374.38        22.19271
374.83        22.14365
375.28        21.93085
375.72        21.58344
376.17        21.22067
376.62        20.99954
377.07        20.96192
377.52        21.05188
377.97        21.20089
378.42        21.29606
378.87        21.29572
379.32        21.23601
379.77        21.12236
380.22        20.95876
380.67        20.75742
381.11        20.51839
381.56        20.27305
382.01        20.08638
382.46        19.97731
382.91         19.9336
383.36        19.92983
383.81        19.91771
384.26         19.8801
384.71        19.82881
385.15         19.7592
385.60        19.68055
386.05        19.58481
386.50         19.4572
386.95        19.31105
387.40        19.17756
387.85         19.0721
388.29        18.99655
388.74        18.92731
389.19        18.79328
389.64         18.5882
390.09        18.32388
390.54        18.08525
390.98        18.01442
391.43        18.14238
391.88        18.40787
392.33        18.67555
392.78        18.74712
393.23        18.59755
393.67        18.29064
394.12        17.97838
394.57        17.81063
395.02        17.82119
395.47        17.95654
395.91        18.14748
396.36        18.24655
396.81        18.21245
397.26        18.07887
397.71        17.90938
398.15        17.77833
398.60        17.72934
399.05        17.73858
399.50        17.74214
399.95        17.60189
400.39        17.38327
400.84        17.06334
401.29        16.76399
401.74        16.67001
402.18         16.8347
402.63        17.17679
403.08        17.56382
403.53        17.78251
403.97        17.77633
404.42        17.60708
404.87        17.35976
405.32        17.18356
405.76        17.12682
406.21         17.1466
406.66        17.20354
407.11        17.25051
407.55        17.27531
408.00        17.29037
408.45        17.29854
408.90        17.28843
409.34        17.25891
409.79        17.21201
410.24         17.1598
410.68        17.12124
411.13        17.10551
411.58        17.10928
412.03        17.13027
412.47        17.16715
412.92        17.20385
413.37         17.2387
413.81        17.26835
414.26        17.30529
414.71        17.33997
415.15        17.37131
415.60        17.36643
416.05        17.29265
416.49        17.14899
416.94        16.96277
417.39        16.77035
417.83         16.6341
418.28        16.58133
418.73         16.5854
419.17        16.64184
419.62        16.73459
420.07        16.85115
420.51        16.99623
420.96         17.1172
421.41        17.12389
421.85        16.99982
422.30        16.79419
422.74        16.58428
423.19        16.52018
423.64        16.61244
424.08         16.8293
424.53        17.07697
424.98         17.2191
425.42        17.21833
425.87        17.10493
426.31        16.94055
426.76        16.87129
427.21        16.90283
427.65        16.88197
428.10        16.85453
428.54        16.99762
428.99        17.30823
429.44        17.70514
429.88        18.02691
430.33        18.07725
430.77        17.82807
431.22        17.34127
431.66        16.82748
432.11        16.67984
432.56        16.92883
433.00        17.36983
433.45        17.79185
433.89        18.05462
434.34        18.03643
434.78        17.62878
435.23        17.11849
435.67        17.07403
436.12        17.44139
436.57        17.61185
437.01        17.50329
437.46        17.41702
437.90        17.38134
438.35         17.3119
438.79        17.22308
439.24        17.18584
439.68        17.21824
440.13        17.22641
440.57        17.23198
441.02        17.50472
441.46        17.90154
441.91        17.79577
442.35        17.28843
442.80        17.05171
443.24          17.069
443.69        17.08557
444.13        17.04387
444.58        16.85356
445.02        16.58832
445.47        16.60831
445.91        16.85688
446.36        16.93515
446.80        16.81108
447.24         16.7126
447.69         16.6707
448.13         16.6219
448.58        16.58091
449.02        16.56329
449.47        16.55519
449.91        16.53338
450.36        16.49683
450.80        16.44485
451.25        16.40832
451.69         16.4222
452.13        16.49223
452.58        16.59492
453.02        16.69116
453.47         16.7182
453.91        16.66871
454.36         16.5706
454.80        16.45427
455.24        16.37038
455.69        16.34456
456.13        16.34748
456.58        16.40034
457.02        16.50983
457.46        16.67336
457.91        16.87917
458.35        17.06302
458.79        17.11799
459.24        17.03823
459.68         16.8431
460.13        16.63238
460.57        16.52045
461.01        16.55177
461.46        16.68639
461.90        16.85654
462.34        16.94607
462.79        16.92166
463.23        16.81007
463.68        16.68663
464.12        16.68188
464.56        16.82273
465.01        17.07088
465.45        17.29056
465.89        17.34917
466.34         17.2395
466.78        16.91746
467.22        16.54695
467.67        16.55563
468.11        16.90386
468.55        17.07557
468.99        17.01451
469.44        16.97589
469.88        17.01254
470.32        17.18386
470.77        17.41534
471.21         17.4576
471.65        17.28502
472.10        17.08051
472.54        16.91706
472.98        16.85602
473.42        16.92501
473.87        17.11043
474.31        17.33501
474.75        17.47113
475.20        17.49349
475.64        17.43093
476.08        17.34738
476.52        17.34133
476.97        17.43605
477.41        17.59983
477.85        17.77288
478.29        17.89488
478.74        17.94915
479.18        17.86985
479.62        17.71239
480.06        17.86062
480.50        17.96052
480.95        18.05041
481.39        17.99278
481.83        17.94952
482.27        17.92265
482.72        17.76021
483.16        17.53942
483.60        17.62182
484.04        18.02498
484.48        18.20954
484.93        18.37287
485.37        18.81874
485.81        19.49553
486.25        19.41596
486.69        25.73081
487.14        20.62837
487.58        13.50501
488.02        16.42822
488.46        18.59204
488.90        18.35382
489.34        18.39932
489.79        18.32916
490.23        19.50391
490.67        20.14604
491.11        19.98471
491.55        19.84313
491.99        19.69946
492.43         19.5104
492.88        19.36133
493.32        19.38955
493.76        19.45891
494.20        19.66556
494.64        19.94252
495.08        20.26207
495.52        20.59373
495.96        20.90905
496.41        21.13602
496.85        21.27295
497.29         21.3148
497.73        21.00254
498.17        20.61826
498.61        20.78298
499.05        21.49285
499.49        21.63898
499.93        21.73232
500.37        21.86747
500.82        21.97497
501.26        22.22782
501.70        22.51035
502.14        22.65067
502.58        22.63144
503.02        22.64326
503.46        22.69746
503.90        22.67104
504.34        22.59829
504.78        22.59242
505.22        22.66748
505.66        22.80014
506.10        22.93824
506.54        22.99055
506.98         22.9409
507.42        22.82467
507.86        22.71674
508.30        22.73193
508.74        22.89057
509.18        23.14666
509.62        23.43345
510.06        23.64117
510.50        23.73641
510.94        23.75986
511.38         23.7323
511.82        23.68627
512.26        23.64233
512.70        23.58508
513.14        23.55424
513.58        23.61813
514.02         23.7734
514.46        23.99406
514.90        24.20444
515.34        24.24765
515.78        24.07002
516.22        23.87015
516.66        23.73291
517.10        23.36326
517.54        22.79221
517.98        23.55891
518.42        23.38094
518.86        23.72747
519.30        23.89596
519.74         24.1021
520.18        24.29264
520.62        24.35198
521.06        24.29097
521.50        24.12354
521.93        23.90505
522.37        23.73953
522.81        23.65977
523.25        23.64094
523.69        23.67216
524.13        23.73337
524.57        23.80681
525.01        23.89391
525.45        23.96623
525.89        23.97561
526.32        23.91044
526.76        23.78627
527.20         23.6249
527.64        23.47328
528.08        23.35379
528.52        23.23463
528.96        23.12037
529.40        23.07959
529.83        23.12368
530.27        23.00028
530.71        23.12819
531.15        23.08392
531.59        22.99548
532.03        22.86195
532.46        22.74784
532.90        22.75954
533.34        22.90295
533.78        23.13619
534.22        23.36393
534.66        23.44705
535.09        23.35229
535.53         23.1344
535.97        22.86356
536.41        22.65633
536.85        22.55345
537.28        22.52905
537.72         22.5514
538.16        22.56939
538.60         22.5687
539.04        22.55081
539.47        22.54624
539.91        22.65507
540.35        22.85683
540.79        23.03544
541.22        23.15687
541.66        23.26375
542.10        23.34549
542.54        23.35638
542.97          23.341
543.41        23.40957
543.85        23.57551
544.29        23.81929
544.72        24.06641
545.16        24.20941
545.60        24.22779
546.04        24.15314
546.47        24.09036
546.91        24.21522
547.35        24.54581
547.79        25.02433
548.22        25.50556
548.66        25.74309
549.10        25.70267
549.53        25.50429
549.97        25.28606
550.41        25.19574
550.84        25.28868
551.28        25.53259
551.72        25.87468
552.15        26.21335
552.59        26.50001
553.03         26.7557
553.46        26.96978
553.90        27.15033
554.34        27.30629
554.77        27.40218
555.21           27.44
555.65        27.51175
556.08        27.64176
556.52         27.4764
556.96        27.67336
557.39          27.734
557.83        27.85829
558.27        28.01062
558.70        28.18574
559.14        28.35671
559.57        28.49928
560.01        28.63312
560.45         28.7218
560.88        28.70932
561.32        28.61977
561.75        28.46025
562.19         28.3185
562.63        28.28868
563.06         28.3852
563.50        28.58402
563.93        28.82512
564.37        29.02489
564.80        29.14709
565.24        29.22748
565.68        29.28041
566.11        29.33174
566.55        29.41394
566.98        29.50802
567.42        29.63542
567.85        29.82312
568.29        30.08821
568.72        30.33909
569.16        30.60168
569.60        30.97408
570.03        31.30875
570.47        31.35289
570.90        31.25943
571.34        30.70311
571.77        31.34642
572.21        31.43713
572.64        31.41792
573.08        31.29486
573.51         30.1353
573.95         31.4621
574.38        33.41289
574.82        32.74346
