SpectraSmart Spectrum 2.9.0.0
--------- Device Information -----------
Spectrum Name :  反射率_0
Saving Time :  2024/04/25 23:55:25
Spectro-Module Model Name : SE2030-DUVN
Spectro-Module Serial Number : OS361AC55029948
Wavelength Start : 200
Wavelength End : 1025
Wavelength Unit : Wavelength(nm)
Spectrum Unit : Reflectance(%)
-----------Spectrum Setting ------------
Integration Time : 20ms
Average : 10
Boxcar : 0
Background removal :  enabled
linearity correction :  enabled
SC :  disabled
Intensity correction :  disabled
DWT denoise :  enabled
savitzky-golay :  disabled
FFT :  disabled
Running average :  disabled
Kalman :  disabled
High pass :  disabled
---------------BEGIN--------------------
Wavelength(nm)             Reflectance(%)
200.29               0
200.75        75.34471
201.21        71.65084
201.67        67.25452
202.13         64.9021
202.58        64.90356
203.04        66.73206
203.50         69.2448
203.96        70.49979
204.42        70.01416
204.88        68.57381
205.34        67.09791
205.80        66.38577
206.26        66.71101
206.72        68.64483
207.18        72.73319
207.64        75.28483
208.10         70.7966
208.55        64.08109
209.01        61.06544
209.47         62.5896
209.93        67.32678
210.39        75.01978
210.85        82.74535
211.31        83.62536
211.77        75.75626
212.23        61.83742
212.69        48.03138
213.14        43.75711
213.60        50.66191
214.06        66.20423
214.52        84.12589
214.98        94.65766
215.44        95.26128
215.90        88.94726
216.36        80.16616
216.81        75.11024
217.27        75.27178
217.73        78.36401
218.19        80.98651
218.65        78.65101
219.11        69.80126
219.57         53.8143
220.02        33.21519
220.48        21.24345
220.94         25.8388
221.40        43.15269
221.86        60.95233
222.32        66.60609
222.77        60.93374
223.23        50.31157
223.69        40.81248
224.15        38.54306
224.61        43.07348
225.06        51.46735
225.52        59.86536
225.98        63.34835
226.44        61.13322
226.90        55.47646
227.36        49.27481
227.81        46.38814
228.27        47.85727
228.73        51.95094
229.19        56.96064
229.65        60.40191
230.10        61.59555
230.56        61.61658
231.02        61.07197
231.48        60.59483
231.93        60.33641
232.39        60.03124
232.85        59.75102
233.31        59.75675
233.77        60.03639
234.22        60.59577
234.68        61.06057
235.14         60.6415
235.60        59.22449
236.05        57.17662
236.51        55.06036
236.97        53.56311
237.43        52.85138
237.88         52.8243
238.34        53.45131
238.80        54.73981
239.26        56.50285
239.71        58.84504
240.17        61.03793
240.63        62.39218
241.08        62.83839
241.54        62.39756
242.00        61.72906
242.46        61.85505
242.91        63.55292
243.37        68.01803
243.83        82.13405
244.28        128.2313
244.74        180.1816
245.20        151.2436
245.66         124.403
246.11        115.7106
246.57        116.3666
247.03        126.8996
247.48        154.9079
247.94        117.9368
248.40        82.01615
248.85        73.55929
249.31        72.60358
249.77         75.0432
250.22        80.23101
250.68        89.25774
251.14        101.6978
251.59        108.6717
252.05         102.082
252.51        86.31843
252.96        70.33365
253.42        62.07906
253.88        60.84846
254.33        63.87217
254.79        69.45816
255.25        74.64941
255.70        78.20314
256.16        81.04715
256.62        82.63654
257.07        82.33415
257.53        80.76581
257.99        77.86309
258.44        74.54662
258.90         72.8729
259.35        72.13071
259.81        71.90636
260.27        70.89728
260.72          67.817
261.18        63.37875
261.63        58.08762
262.09        53.37674
262.55        50.23186
263.00        48.55146
263.46        47.91766
263.91        47.42196
264.37        46.37801
264.83        44.62779
265.28        42.35728
265.74        40.20507
266.19        38.88007
266.65        38.59217
267.11        38.91104
267.56        39.25817
268.02        38.97621
268.47        37.94379
268.93        36.40866
269.38        34.69699
269.84        33.58517
270.30        33.27561
270.75        33.53427
271.21        33.96492
271.66        33.98069
272.12        33.42954
272.57        32.51284
273.03         31.5281
273.48        30.82776
273.94        30.53365
274.39        30.47348
274.85        30.49026
275.31        30.34807
275.76        29.97476
276.22        29.48371
276.67        28.94731
277.13        28.56124
277.58        28.30809
278.04        28.15098
278.49        27.95847
278.95        27.61883
279.40         27.0844
279.86        26.46711
280.31        25.81271
280.77        25.30273
281.22        24.93465
281.68         24.6842
282.13        24.49858
282.59        24.34262
283.04        24.18389
283.50        24.06204
283.95        23.92496
284.41        23.71583
284.86        23.42215
285.32        23.07221
285.77        22.75037
286.22        22.64746
286.68        22.76629
287.13        23.02248
287.59        23.25514
288.04        23.21461
288.50        22.88296
288.95        22.32951
289.41        21.72668
289.86        21.22978
290.32        20.93633
290.77        20.77485
291.22        20.72927
291.68        20.73636
292.13        20.77822
292.59        20.88303
293.04        21.05209
293.50         21.2854
293.95        21.56769
294.40        21.86381
294.86         22.1602
295.31        22.45094
295.77        22.73458
296.22        23.01808
296.68        23.27358
297.13        23.42828
297.58        23.49747
298.04        23.52403
298.49        23.60642
298.95        23.93091
299.40        24.51377
299.85        25.28575
300.31         26.1109
300.76        26.78484
301.21         27.2311
301.67        27.52955
302.12        27.70341
302.58        27.84169
303.03        27.96299
303.48        28.05374
303.94        28.18858
304.39        28.45107
304.84        28.85186
305.30        29.35778
305.75        29.83727
306.20        30.09412
306.66        30.11027
307.11        29.93607
307.57        29.70757
308.02        29.55724
308.47        29.55229
308.93        29.64808
309.38        29.80335
309.83        29.98427
310.29        30.15621
310.74        30.31755
311.19        30.44386
311.65        30.49404
312.10        30.45827
312.55        30.34888
313.00        30.16175
313.46        29.90601
313.91        29.59435
314.36        29.25175
314.82        28.95989
315.27          28.824
315.72        28.86575
316.18          29.051
316.63        29.29053
317.08        29.41226
317.53        29.36555
317.99        29.18376
318.44        28.95907
318.89        28.84369
319.35        28.86689
319.80        28.98931
320.25        29.10035
320.70        29.02258
321.16        28.72193
321.61        28.26006
322.06        27.77284
322.51        27.46363
322.97        27.36707
323.42        27.43044
323.87        27.52361
324.32        27.42919
324.78        27.09245
325.23        26.59355
325.68        26.05182
326.13        25.66214
326.59         25.4778
327.04        25.45774
327.49        25.52497
327.94        25.55506
328.39        25.50466
328.85        25.39979
329.30        25.30469
329.75        25.28799
330.20        25.36725
330.66        25.49331
331.11        25.62715
331.56        25.66781
332.01        25.58781
332.46        25.40375
332.92        25.17134
333.37        25.02195
333.82        24.98754
334.27        25.05081
334.72        25.12683
335.17        25.06882
335.63        24.84396
336.08        24.50548
336.53        24.17882
336.98        24.06618
337.43        24.20998
337.88        24.55136
338.34        24.92535
338.79        25.10897
339.24        25.02075
339.69        24.72635
340.14        24.38894
340.59        24.29116
341.05        24.48901
341.50        24.88302
341.95        25.30618
342.40        25.51996
342.85        25.47346
343.30        25.25862
343.75        24.95986
344.20         24.7248
344.66        24.60682
345.11         24.5208
345.56        24.48175
346.01        24.51111
346.46        24.58747
346.91        24.72544
347.36        24.78307
347.81        24.52762
348.26        23.95147
348.72        23.16693
349.17         22.3952
349.62        22.08193
350.07        22.32446
350.52        22.96915
350.97        23.77427
351.42        24.36648
351.87        24.62979
352.32        24.66529
352.77        24.53993
353.22        24.36663
353.67        24.19661
354.13        23.99327
354.58        23.77266
355.03         23.6078
355.48        23.51185
355.93        23.48837
356.38        23.48855
356.83        23.41726
357.28        23.25055
357.73        23.01032
358.18        22.74542
358.63        22.53431
359.08        22.39928
359.53        22.32467
359.98        22.25947
360.43        22.12473
360.88        21.90826
361.33        21.63359
361.78        21.38047
362.23        21.27674
362.68        21.33618
363.13        21.50168
363.58        21.66183
364.03        21.64521
364.48        21.41659
364.93        21.04252
365.38        20.60287
365.83        20.22631
366.28        19.96202
366.73        19.77081
367.18        19.66014
367.63        19.64158
368.08        19.69469
368.53          19.811
368.98        19.91713
369.43        19.89137
369.88        19.71601
370.33        19.43511
370.78        19.11097
371.23        18.85752
371.68        18.71606
372.13        18.64474
372.58        18.66288
373.03        18.79717
373.48        19.02277
373.93        19.32451
374.38        19.57783
374.83        19.59007
375.28        19.33599
375.72        18.86753
376.17        18.35841
376.62        18.05732
377.07        18.03503
377.52        18.21324
377.97        18.49167
378.42        18.70277
378.87        18.78403
379.32        18.78373
379.77        18.72009
380.22        18.61651
380.67        18.48795
381.11        18.32289
381.56        18.13239
382.01        17.95297
382.46        17.79771
382.91         17.6645
383.36        17.55721
383.81         17.4726
384.26         17.4073
384.71        17.36779
385.15        17.32213
385.60        17.23178
386.05        17.08554
386.50        16.88779
386.95        16.69169
387.40        16.59438
387.85        16.61296
388.29        16.70567
388.74        16.80289
389.19        16.79073
389.64        16.65279
390.09        16.41953
390.54        16.16424
390.98        16.01033
391.43        16.00152
391.88        16.09394
392.33        16.20951
392.78        16.23244
393.23        16.14542
393.67        15.98052
394.12        15.83258
394.57        15.77979
395.02        15.83715
395.47        15.96909
395.91        16.12212
396.36        16.18104
396.81        16.11849
397.26        15.96187
397.71        15.76847
398.15        15.60701
398.60        15.52076
399.05        15.49253
399.50        15.47684
399.95        15.36463
400.39        15.21247
400.84        14.99802
401.29        14.80906
401.74        14.77287
402.18        14.92554
402.63        15.20049
403.08        15.50527
403.53        15.69195
403.97        15.71838
404.42        15.62664
404.87        15.46584
405.32        15.32466
405.76        15.23744
406.21        15.18549
406.66        15.15918
407.11        15.15008
407.55        15.15588
408.00        15.17725
408.45        15.20978
408.90        15.22939
409.34        15.22708
409.79        15.20867
410.24        15.18178
410.68         15.1593
411.13        15.14941
411.58        15.14789
412.03        15.15773
412.47         15.1884
412.92        15.22865
413.37        15.27486
413.81        15.31722
414.26        15.35674
414.71        15.38215
415.15        15.39538
415.60        15.37397
416.05        15.30127
416.49        15.17938
416.94         15.0326
417.39        14.88123
417.83        14.76112
418.28        14.69421
418.73        14.66137
419.17        14.68047
419.62        14.76777
420.07        14.91567
420.51        15.11588
420.96        15.29239
421.41        15.31489
421.85        15.15978
422.30         14.8941
422.74        14.61471
423.19        14.49318
423.64         14.5469
424.08        14.73327
424.53        14.96501
424.98        15.11425
425.42        15.14152
425.87        15.07959
426.31        14.96366
426.76         14.8931
427.21        14.86877
427.65        14.76033
428.10        14.64748
428.54        14.75019
428.99        15.07685
429.44        15.53437
429.88        15.93253
430.33        16.02329
430.77        15.76963
431.22        15.25439
431.66        14.70249
432.11        14.51281
432.56        14.72468
433.00        15.14418
433.45        15.56891
433.89        15.83999
434.34        15.83537
434.78        15.47308
435.23        15.01437
435.67        14.96827
436.12        15.29009
436.57         15.4364
437.01        15.33663
437.46        15.26029
437.90        15.23108
438.35        15.17733
438.79        15.09647
439.24        15.02646
439.68        14.98263
440.13        14.89332
440.57        14.80842
441.02        15.00618
441.46        15.37293
441.91        15.35461
442.35        14.99957
442.80        14.84327
443.24        14.86152
443.69        14.84539
444.13        14.76125
444.58        14.56238
445.02        14.32127
445.47        14.33924
445.91        14.55368
446.36        14.59994
446.80        14.44802
447.24        14.30568
447.69         14.2157
448.13        14.14586
448.58        14.11498
449.02        14.12844
449.47        14.16283
449.91        14.17919
450.36        14.17048
450.80         14.1409
451.25         14.1217
451.69        14.15026
452.13        14.23293
452.58        14.34211
453.02        14.44374
453.47         14.4828
453.91        14.45185
454.36        14.37583
454.80        14.27441
455.24        14.18042
455.69        14.11834
456.13        14.07199
456.58        14.07323
457.02        14.14673
457.46         14.2944
457.91        14.49756
458.35        14.69933
458.79        14.80167
459.24        14.79383
459.68        14.69129
460.13        14.56587
460.57        14.49265
461.01        14.50911
461.46        14.58597
461.90        14.68929
462.34        14.75434
462.79        14.76211
463.23        14.72775
463.68        14.69502
464.12        14.73572
464.56        14.86249
465.01        15.05355
465.45        15.21518
465.89        15.26625
466.34        15.20534
466.78        14.98024
467.22        14.71108
467.67        14.74027
468.11        15.02467
468.55        15.12039
468.99        15.00401
469.44        14.94128
469.88        14.98988
470.32        15.18846
470.77        15.46047
471.21        15.56757
471.65        15.47556
472.10        15.35186
472.54        15.25251
472.98        15.21881
473.42        15.27453
473.87        15.41003
474.31         15.5715
474.75        15.66921
475.20        15.68646
475.64        15.64312
476.08         15.5859
476.52        15.58504
476.97        15.65793
477.41        15.78495
477.85        15.91858
478.29        16.01466
478.74         16.0608
479.18        15.99024
479.62        15.85524
480.06        16.00519
480.50        16.12071
480.95        16.23416
481.39        16.20299
481.83        16.14515
482.27        16.06071
482.72          15.824
483.16        15.53886
483.60        15.57628
484.04        15.94609
484.48        16.19295
484.93        16.47626
485.37        16.92394
485.81        17.40257
486.25        17.69499
486.69        22.82952
487.14        18.38953
487.58        12.13108
488.02        14.86969
488.46        16.78891
488.90        16.86726
489.34        17.01427
489.79        16.96321
490.23        17.85691
490.67         18.3889
491.11        18.32047
491.55        18.19745
491.99        17.99508
492.43        17.77595
492.88        17.62262
493.32        17.61216
493.76        17.63646
494.20        17.82536
494.64         18.1236
495.08         18.4944
495.52        18.88782
495.96        19.24922
496.41        19.50477
496.85        19.64173
497.29        19.67608
497.73        19.44646
498.17        19.19687
498.61        19.39653
499.05        20.04254
499.49        20.19066
499.93        20.31955
500.37        20.46039
500.82        20.55067
501.26        20.78415
501.70        21.05441
502.14        21.19228
502.58        21.17747
503.02        21.18155
503.46         21.2149
503.90        21.16884
504.34        21.08093
504.78        21.06344
505.22        21.13288
505.66        21.26627
506.10        21.41628
506.54        21.49963
506.98        21.49769
507.42        21.43809
507.86        21.38351
508.30        21.43105
508.74        21.59653
509.18        21.84076
509.62        22.09909
510.06        22.26603
510.50        22.31497
510.94        22.28835
511.38        22.22221
511.82        22.17272
512.26        22.16217
512.70        22.16499
513.14        22.20093
513.58        22.30407
514.02        22.45957
514.46        22.65174
514.90        22.81017
515.34        22.78639
515.78        22.53485
516.22        22.25824
516.66        22.05795
517.10         21.6566
517.54        21.08885
517.98        21.91805
518.42        21.79678
518.86        22.19963
519.30        22.40054
519.74        22.62839
520.18        22.82253
520.62        22.85662
521.06        22.74562
521.50        22.50559
521.93        22.22374
522.37        22.05725
522.81        22.04634
523.25        22.14796
523.69        22.30794
524.13        22.43828
524.57        22.50606
525.01        22.53406
525.45        22.52446
525.89        22.48044
526.32        22.40598
526.76        22.29841
527.20        22.16749
527.64        22.04124
528.08        21.93434
528.52        21.82644
528.96        21.71731
529.40        21.66146
529.83        21.67132
530.27        21.51328
530.71        21.59545
531.15         21.5481
531.59        21.49443
532.03        21.42354
532.46        21.37781
532.90        21.42731
533.34        21.56702
533.78        21.76595
534.22        21.94299
534.66        21.98039
535.09        21.85364
535.53        21.61346
535.97        21.32787
536.41        21.10963
536.85        20.99887
537.28        20.97192
537.72        21.00318
538.16        21.04912
538.60         21.0935
539.04        21.13255
539.47        21.18154
539.91        21.31576
540.35        21.51272
540.79        21.66904
541.22        21.76376
541.66        21.85474
542.10        21.93839
542.54        21.96792
542.97        21.98108
543.41        22.07507
543.85        22.25904
544.29        22.51474
544.72        22.77339
545.16        22.93569
545.60         22.9812
546.04        22.93796
546.47        22.89675
546.91        23.01153
547.35        23.29989
547.79        23.71474
548.22        24.13358
548.66        24.34579
549.10        24.32442
549.53        24.17451
549.97        24.01856
550.41        23.98274
550.84        24.11298
551.28        24.38183
551.72        24.73453
552.15        25.06672
552.59        25.33303
553.03        25.55776
553.46        25.74022
553.90        25.90286
554.34        26.05747
554.77        26.16353
555.21         26.2234
555.65        26.32397
556.08        26.48447
556.52        26.36684
556.96        26.58519
557.39        26.63551
557.83        26.70973
558.27        26.78449
558.70        26.88408
559.14        27.03003
559.57        27.20917
560.01        27.42249
560.45        27.60999
560.88        27.68058
561.32        27.64319
561.75        27.50946
562.19        27.37193
562.63        27.33983
563.06        27.43176
563.50        27.61438
563.93        27.83495
564.37        28.02402
564.80        28.15075
565.24        28.25181
565.68        28.32805
566.11         28.3931
566.55        28.47765
566.98        28.53429
567.42        28.61051
567.85        28.84789
568.29         29.2275
568.72        29.48482
569.16        29.66227
569.60        29.97326
570.03        30.26629
570.47        30.31355
570.90        30.29529
571.34        29.51595
571.77         30.1151
572.21        30.26975
572.64         30.3459
573.08        29.87526
573.51        28.95599
573.95        30.38441
574.38        32.59634
574.82        31.75745
