SpectraSmart Spectrum 2.9.0.0
--------- Device Information -----------
Spectrum Name :  反射率_0
Saving Time :  2024/04/25 23:40:29
Spectro-Module Model Name : SE2030-DUVN
Spectro-Module Serial Number : OS361AC55029948
Wavelength Start : 200
Wavelength End : 1025
Wavelength Unit : Wavelength(nm)
Spectrum Unit : Reflectance(%)
-----------Spectrum Setting ------------
Integration Time : 20ms
Average : 10
Boxcar : 0
Background removal :  enabled
linearity correction :  enabled
SC :  disabled
Intensity correction :  disabled
DWT denoise :  enabled
savitzky-golay :  disabled
FFT :  disabled
Running average :  disabled
Kalman :  disabled
High pass :  disabled
---------------BEGIN--------------------
Wavelength(nm)             Reflectance(%)
200.29               0
200.75        76.83755
201.21        70.88988
201.67        64.45973
202.13        60.97477
202.58        60.79622
203.04        63.14997
203.50        66.85918
203.96        69.77303
204.42         71.0135
204.88        71.17953
205.34        71.00449
205.80        71.32587
206.26        72.56189
206.72        75.28197
207.18        79.74786
207.64        80.63583
208.10        72.59007
208.55        63.78074
209.01        59.55688
209.47        59.25981
209.93        61.31224
210.39        65.42929
210.85        69.82168
211.31        70.39843
211.77        66.04892
212.23        58.31705
212.69        50.82259
213.14        49.28444
213.60        54.45328
214.06        64.64728
214.52        76.07976
214.98        82.92101
215.44        83.57535
215.90        79.88937
216.36        74.18647
216.81        69.63586
217.27        67.46975
217.73        66.73083
218.19        65.92025
218.65        62.93119
219.11        56.79261
219.57        46.71975
220.02        34.07084
220.48        27.03553
220.94        29.99795
221.40          40.788
221.86        50.96881
222.32        51.80943
222.77        44.47786
223.23        33.88169
223.69        25.02149
224.15        22.97847
224.61        27.16744
225.06         34.9511
225.52        42.88869
225.98        46.68915
226.44        45.53312
226.90        41.31765
227.36        36.16245
227.81        32.86519
228.27        32.41385
228.73        33.65137
229.19        35.80985
229.65        37.79771
230.10        39.15787
230.56        40.20428
231.02        41.05022
231.48        41.76215
231.93        42.37481
232.39        42.84179
232.85        43.08958
233.31        43.08792
233.77        42.82968
234.22        42.30651
234.68        41.69994
235.14        41.28741
235.60        41.19038
236.05        41.42629
236.51        41.72437
236.97        41.61066
237.43         40.9953
237.88        39.95189
238.34        38.91631
238.80        39.18497
239.26        41.28765
239.71        44.92549
240.17        48.90057
240.63        51.51305
241.08        52.30276
241.54        51.73234
242.00        50.41573
242.46        49.08327
242.91        47.88484
243.37        45.67729
243.83        42.93471
244.28        54.25909
244.74        104.1184
245.20        123.2469
245.66        117.8788
246.11        114.5241
246.57        113.7788
247.03        113.4707
247.48        100.5321
247.94        59.36296
248.40        61.35942
248.85         67.1384
249.31          71.553
249.77         75.8801
250.22         81.3298
250.68        89.76295
251.14        100.3286
251.59        103.6199
252.05        92.71114
252.51        73.25578
252.96        55.35406
253.42        47.23996
253.88        47.70972
254.33        53.50252
254.79        62.40368
255.25         70.5341
255.70        76.14563
256.16        80.43191
256.62        82.34875
257.07        80.77094
257.53        76.80433
257.99        70.91625
258.44         65.3185
258.90         63.4483
259.35        64.26424
259.81        66.32003
260.27        67.25079
260.72        64.79192
261.18        59.83551
261.63        53.51148
262.09        47.78194
262.55        44.24624
263.00        42.80359
263.46        42.66645
263.91        42.70897
264.37        42.00668
264.83        40.39419
265.28        38.16605
265.74        35.98536
266.19        34.60283
266.65        34.23883
267.11         34.4464
267.56        34.68571
268.02        34.32774
268.47        33.25648
268.93        31.71563
269.38         29.9856
269.84         28.7588
270.30        28.23712
270.75        28.23577
271.21        28.44777
271.66        28.42048
272.12        28.01671
272.57        27.37707
273.03        26.72902
273.48        26.32718
273.94        26.24703
274.39        26.34485
274.85        26.43192
275.31        26.23746
275.76        25.70476
276.22        24.95948
276.67        24.16979
277.13        23.66317
277.58        23.44772
278.04        23.44092
278.49        23.42608
278.95        23.14925
279.40        22.55358
279.86        21.80297
280.31        21.02676
280.77        20.51852
281.22        20.29989
281.68         20.2866
282.13        20.38054
282.59        20.47484
283.04         20.5223
283.50        20.58456
283.95        20.60883
284.41        20.52995
284.86          20.339
285.32        20.05147
285.77        19.78846
286.22        19.79698
286.68        20.08183
287.13        20.54478
287.59        20.95714
288.04        20.97035
288.50        20.55757
288.95        19.83467
289.41        19.05973
289.86        18.51764
290.32        18.33042
290.77        18.38865
291.22        18.60746
291.68        18.81987
292.13        18.98261
292.59        19.15336
293.04        19.38086
293.50        19.73722
293.95        20.22125
294.40         20.7668
294.86        21.31153
295.31        21.78135
295.77        22.16092
296.22        22.48205
296.68        22.76246
297.13        22.99939
297.58        23.22589
298.04        23.46286
298.49        23.76769
298.95        24.26557
299.40        24.95748
299.85        25.79035
300.31        26.66256
300.76        27.42305
301.21        28.00234
301.67        28.45799
302.12        28.77193
302.58        28.97589
303.03        29.08394
303.48        29.11376
303.94        29.17991
304.39        29.42431
304.84          29.871
305.30        30.46028
305.75        31.04717
306.20        31.41512
306.66        31.53176
307.11        31.45345
307.57        31.28804
308.02        31.12256
308.47        31.02735
308.93         30.9758
309.38        30.98312
309.83        31.10805
310.29        31.33333
310.74        31.62473
311.19         31.9069
311.65        32.05775
312.10        32.04551
312.55        31.91104
313.00        31.66878
313.46         31.3591
313.91        31.01079
314.36         30.6369
314.82        30.33291
315.27        30.22752
315.72        30.34016
316.18        30.62667
316.63        30.96648
317.08        31.13249
317.53        31.05951
317.99        30.79781
318.44        30.45903
318.89        30.22852
319.35        30.14944
319.80        30.17514
320.25         30.2061
320.70        30.08248
321.16        29.77352
321.61        29.34193
322.06        28.89849
322.51        28.60425
322.97        28.48364
323.42        28.49039
323.87         28.5233
324.32        28.41754
324.78        28.12936
325.23        27.72171
325.68        27.27192
326.13        26.90864
326.59        26.66775
327.04        26.52635
327.49        26.44983
327.94        26.38505
328.39        26.30972
328.85        26.23244
329.30         26.1776
329.75        26.14335
330.20        26.12967
330.66        26.11122
331.11        26.09463
331.56        26.04929
332.01        25.96427
332.46        25.83331
332.92        25.67072
333.37        25.53504
333.82        25.43474
334.27        25.37802
334.72         25.3129
335.17         25.1488
335.63        24.87453
336.08         24.5243
336.53         24.2177
336.98         24.1486
337.43        24.34801
337.88         24.7571
338.34        25.18698
338.79        25.37387
339.24        25.22697
339.69        24.82065
340.14        24.34216
340.59        24.12303
341.05        24.23845
341.50        24.57824
341.95        24.96721
342.40        25.15037
342.85        25.06794
343.30         24.8176
343.75        24.47651
344.20        24.17871
344.66        23.98045
345.11        23.80551
345.56        23.68291
346.01        23.65644
346.46        23.70886
346.91        23.84397
347.36        23.92165
347.81        23.71048
348.26        23.19817
348.72        22.49877
349.17        21.80134
349.62         21.5004
350.07        21.68545
350.52        22.21414
350.97        22.90279
351.42        23.46822
351.87        23.80952
352.32        24.00223
352.77        24.04019
353.22        23.91977
353.67        23.66835
354.13        23.28582
354.58        22.87008
355.03        22.62237
355.48        22.58602
355.93        22.72631
356.38        22.91466
356.83        22.93044
357.28        22.72024
357.73        22.34538
358.18        21.93172
358.63        21.67719
359.08        21.62914
359.53        21.72928
359.98        21.84984
360.43        21.79604
360.88        21.52917
361.33        21.11129
361.78        20.69024
362.23        20.50135
362.68        20.58704
363.13        20.85652
363.58         21.1411
364.03        21.18175
364.48         20.9215
364.93         20.4552
365.38        19.91296
365.83        19.50107
366.28        19.28859
366.73        19.21294
367.18        19.23074
367.63        19.27211
368.08        19.29853
368.53        19.32864
368.98        19.34435
369.43        19.30962
369.88        19.22116
370.33        19.08785
370.78        18.91949
371.23        18.74389
371.68        18.57847
372.13        18.41611
372.58         18.3029
373.03        18.31066
373.48        18.44125
373.93        18.66841
374.38        18.89255
374.83        18.95926
375.28        18.83892
375.72        18.56661
376.17        18.25872
376.62        18.06797
377.07        18.03783
377.52        18.11372
377.97        18.23593
378.42        18.30793
378.87        18.29596
379.32        18.23634
379.77        18.13789
380.22        18.00697
380.67        17.85465
381.11        17.67937
381.56        17.50324
382.01        17.37571
382.46        17.30772
382.91        17.28471
383.36        17.28588
383.81        17.27283
384.26        17.23147
384.71        17.17454
385.15        17.08926
385.60        16.96815
386.05        16.80724
386.50        16.60299
386.95        16.39778
387.40        16.26889
387.85        16.23773
388.29        16.28537
388.74        16.35114
389.19        16.33037
389.64        16.20905
390.09        16.00632
390.54        15.81132
390.98        15.77333
391.43        15.92294
391.88         16.1937
392.33        16.44738
392.78        16.48295
393.23          16.281
393.67        15.91782
394.12        15.54926
394.57        15.33379
395.02        15.30631
395.47        15.40799
395.91        15.57723
396.36        15.68297
396.81        15.68168
397.26        15.60155
397.71        15.47641
398.15        15.33809
398.60        15.22725
399.05        15.14195
399.50        15.05379
399.95        14.88142
400.39        14.68676
400.84        14.43642
401.29        14.23265
401.74          14.229
402.18        14.45887
402.63        14.84653
403.08        15.24689
403.53        15.42935
403.97        15.33936
404.42        15.04645
404.87         14.6619
405.32        14.38413
405.76        14.27894
406.21        14.29063
406.66        14.36694
407.11        14.43707
407.55        14.47955
408.00        14.51691
408.45        14.54368
408.90         14.5337
409.34        14.48423
409.79        14.39766
410.24        14.30757
410.68        14.26688
411.13        14.28854
411.58        14.36112
412.03        14.45582
412.47        14.52149
412.92        14.53064
413.37        14.49729
413.81        14.44855
414.26        14.44161
414.71        14.47937
415.15        14.54785
415.60        14.59429
416.05        14.55469
416.49         14.4174
416.94        14.21804
417.39        14.00694
417.83        13.86918
418.28          13.837
418.73        13.87492
419.17        13.95735
419.62          14.037
420.07        14.09622
420.51        14.14633
420.96        14.16451
421.41        14.11048
421.85        13.98034
422.30        13.80769
422.74        13.63082
423.19        13.53695
423.64        13.52867
424.08         13.5907
424.53        13.67755
424.98        13.73701
425.42        13.75541
425.87        13.74081
426.31        13.70044
426.76        13.68843
427.21         13.6916
427.65         13.6018
428.10        13.49394
428.54        13.57167
428.99        13.84674
429.44        14.23182
429.88        14.56299
430.33        14.62934
430.77        14.40027
431.22        13.94769
431.66        13.46755
432.11        13.31057
432.56        13.50888
433.00        13.88701
433.45        14.26395
433.89        14.50558
434.34        14.50205
434.78        14.17283
435.23        13.74969
435.67        13.68702
436.12        13.94205
436.57        14.02462
437.01        13.87984
437.46        13.76641
437.90        13.71109
438.35        13.64501
438.79        13.56915
439.24        13.52236
439.68        13.51514
440.13        13.47954
440.57        13.44156
441.02        13.62417
441.46        13.91717
441.91        13.82599
442.35        13.42277
442.80        13.22464
443.24        13.21223
443.69        13.19195
444.13        13.11312
444.58        12.90039
445.02        12.61661
445.47        12.54651
445.91        12.65762
446.36        12.67071
446.80        12.56735
447.24        12.50739
447.69        12.51441
448.13        12.53813
448.58        12.58248
449.02        12.65693
449.47        12.72134
449.91        12.71121
450.36        12.62059
450.80        12.46369
451.25        12.31054
451.69        12.26089
452.13        12.33523
452.58        12.49032
453.02        12.65867
453.47        12.72906
453.91        12.68009
454.36        12.55258
454.80        12.38968
455.24        12.26498
455.69        12.21227
456.13        12.19908
456.58        12.23612
457.02        12.32117
457.46         12.4502
457.91        12.61815
458.35         12.7802
458.79        12.85465
459.24        12.83569
459.68        12.73124
460.13        12.61407
460.57        12.56436
461.01        12.61511
461.46        12.73428
461.90        12.87081
462.34        12.93131
462.79        12.89294
463.23        12.77881
463.68        12.65576
464.12         12.6355
464.56         12.7445
465.01        12.94818
465.45        13.13955
465.89        13.20981
466.34        13.14995
466.78        12.92771
467.22        12.66413
467.67        12.68071
468.11        12.94671
468.55        13.06954
468.99        13.01173
469.44        12.97805
469.88        13.01222
470.32        13.15605
470.77        13.35345
471.21        13.41592
471.65        13.32055
472.10        13.20947
472.54        13.12521
472.98        13.09695
473.42         13.1438
473.87        13.25918
474.31         13.4039
474.75         13.5093
475.20        13.56024
475.64        13.56769
476.08        13.56027
476.52        13.58175
476.97        13.64444
477.41        13.73982
477.85        13.83535
478.29        13.90684
478.74        13.94993
479.18        13.90209
479.62        13.81131
480.06        13.98719
480.50        14.14735
480.95        14.31412
481.39        14.34847
481.83        14.33303
482.27        14.26691
482.72         14.0522
483.16        13.78177
483.60         13.7906
484.04        14.09948
484.48        14.28041
484.93        14.50333
485.37        14.96759
485.81        15.56724
486.25        15.82239
486.69        20.80124
487.14        16.61009
487.58        10.94409
488.02         13.4925
488.46         15.3269
488.90        15.40392
489.34        15.38994
489.79        15.23475
490.23        16.01246
490.67        16.56272
491.11        16.63811
491.55        16.58909
491.99        16.39095
492.43        16.23301
492.88        16.18821
493.32        16.22802
493.76        16.25493
494.20        16.44658
494.64        16.75658
495.08        17.13058
495.52        17.52308
495.96         17.8878
496.41        18.15648
496.85        18.32192
497.29        18.39358
497.73        18.20591
498.17        17.98703
498.61        18.18707
499.05        18.81146
499.49        18.97944
499.93        19.14091
500.37        19.32444
500.82        19.45923
501.26         19.7103
501.70        19.97408
502.14        20.09616
502.58        20.06886
503.02        20.07349
503.46        20.12446
503.90        20.11233
504.34         20.0642
504.78        20.07338
505.22        20.15192
505.66         20.2834
506.10        20.42595
506.54        20.50496
506.98        20.50584
507.42        20.45368
507.86        20.41101
508.30        20.47553
508.74        20.66189
509.18        20.92941
509.62        21.21166
510.06        21.39994
510.50        21.46505
510.94         21.4493
511.38        21.38511
511.82        21.32318
512.26        21.28757
512.70        21.25834
513.14         21.2637
513.58        21.35099
514.02        21.51008
514.46        21.72051
514.90        21.91142
515.34        21.93375
515.78        21.73549
516.22        21.51487
516.66        21.35972
517.10        20.96714
517.54        20.36822
517.98        21.15343
518.42        20.96038
518.86        21.28932
519.30        21.41685
519.74          21.574
520.18        21.72404
520.62         21.7769
521.06        21.74868
521.50        21.63951
521.93        21.49308
522.37         21.3948
522.81        21.36597
523.25        21.38482
523.69        21.42917
524.13        21.46218
524.57        21.46919
525.01        21.46103
525.45         21.4349
525.89        21.38553
526.32        21.31193
526.76         21.2147
527.20        21.10145
527.64        20.99392
528.08        20.90195
528.52        20.80285
528.96        20.68883
529.40        20.60278
529.83        20.55693
530.27        20.33562
530.71        20.33711
531.15        20.22917
531.59        20.13432
532.03        20.04038
532.46        19.98434
532.90        20.02677
533.34        20.15943
533.78        20.35266
534.22        20.53038
534.66        20.58189
535.09        20.48258
535.53        20.27896
535.97        20.02637
536.41         19.8188
536.85        19.69275
537.28        19.62883
537.72        19.62004
538.16        19.65264
538.60        19.71649
539.04        19.80071
539.47        19.89724
539.91        20.04206
540.35        20.20856
540.79        20.31144
541.22        20.35491
541.66        20.43075
542.10         20.5426
542.54        20.63086
542.97        20.71108
543.41        20.84404
543.85        21.03046
544.29        21.26747
544.72        21.49628
545.16        21.63145
545.60        21.66166
546.04        21.61182
546.47        21.58302
546.91        21.74593
547.35        22.11666
547.79        22.63825
548.22        23.16964
548.66        23.46964
549.10        23.50208
549.53        23.38028
549.97         23.2303
550.41        23.18802
550.84        23.30479
551.28        23.54732
551.72        23.87796
552.15        24.22166
552.59        24.53495
553.03        24.83438
553.46        25.08529
553.90        25.25644
554.34        25.35491
554.77        25.36303
555.21        25.32211
555.65        25.38046
556.08        25.57196
556.52        25.54372
556.96        25.86773
557.39        26.02238
557.83         26.1793
558.27        26.32661
558.70        26.47221
559.14        26.61118
559.57        26.73205
560.01        26.84475
560.45        26.93118
560.88        26.96531
561.32        26.96843
561.75        26.93652
562.19        26.91722
562.63        26.94502
563.06        27.02401
563.50        27.14933
563.93        27.29535
564.37        27.43386
564.80        27.54666
565.24        27.65419
565.68        27.75439
566.11        27.84683
566.55        27.95541
566.98        28.07106
567.42         28.2216
567.85        28.44297
568.29        28.75066
568.72        29.04683
569.16        29.34847
569.60         29.7421
570.03        30.08597
570.47        30.14626
570.90        30.07883
571.34         29.5453
571.77        30.10398
572.21        30.18237
572.64        30.31225
573.08        29.90014
573.51        29.08677
573.95        30.41762
574.38        32.39928
574.82        31.46293
