SpectraSmart Spectrum 2.9.0.0
--------- Device Information -----------
Spectrum Name :  反射率_0
Saving Time :  2024/04/25 23:51:29
Spectro-Module Model Name : SE2030-DUVN
Spectro-Module Serial Number : OS361AC55029948
Wavelength Start : 200
Wavelength End : 1025
Wavelength Unit : Wavelength(nm)
Spectrum Unit : Reflectance(%)
-----------Spectrum Setting ------------
Integration Time : 20ms
Average : 10
Boxcar : 0
Background removal :  enabled
linearity correction :  enabled
SC :  disabled
Intensity correction :  disabled
DWT denoise :  enabled
savitzky-golay :  disabled
FFT :  disabled
Running average :  disabled
Kalman :  disabled
High pass :  disabled
---------------BEGIN--------------------
Wavelength(nm)             Reflectance(%)
200.29               0
200.75        88.57066
201.21        83.80011
201.67        77.89664
202.13        74.47295
202.58        73.95319
203.04        75.67039
203.50        78.00494
203.96         78.2567
204.42        76.06422
204.88        72.74672
205.34        69.60857
205.80        67.63812
206.26        66.85908
206.72        67.19198
207.18        68.64546
207.64        68.98743
208.10        65.85474
208.55         62.3141
209.01        60.90145
209.47         61.8092
209.93        64.34972
210.39        68.54451
210.85        72.57134
211.31        72.31773
211.77        66.81498
212.23        57.63393
212.69         48.9952
213.14         47.4985
213.60        53.96352
214.06        66.47326
214.52        80.16713
214.98          87.478
215.44        86.66161
215.90        80.40538
216.36        72.07027
216.81        66.35781
217.27        64.68863
217.73        65.28506
218.19        66.32835
218.65        65.51409
219.11        61.90204
219.57        55.24663
220.02        46.19481
220.48        40.01008
220.94        39.82664
221.40        44.86034
221.86        49.97689
222.32        49.64418
222.77        44.49684
223.23        37.59405
223.69        32.49526
224.15        32.95089
224.61        38.30259
225.06         46.5378
225.52         54.3885
225.98        57.66347
226.44        55.69017
226.90        50.32963
227.36        44.03069
227.81        40.09966
228.27        39.61364
228.73        41.30064
229.19        44.08802
229.65        46.38386
230.10        47.63013
230.56        48.35069
231.02        48.85485
231.48        49.44363
231.93        50.16755
232.39        50.90186
232.85        51.43367
233.31        51.54682
233.77        51.18967
234.22        50.39931
234.68        49.48885
235.14        49.01415
235.60         49.1396
236.05        49.74333
236.51        50.32244
236.97        50.05996
237.43        48.73741
237.88        46.46259
238.34        43.65854
238.80        41.94918
239.26        42.25387
239.71        44.35437
240.17        47.31972
240.63        49.73419
241.08        51.08104
241.54        51.71518
242.00        51.76608
242.46        51.32752
242.91        50.35009
243.37        47.37479
243.83        40.92077
244.28        39.06648
244.74        72.46681
245.20        98.81651
245.66        100.9154
246.11        99.58175
246.57         97.4243
247.03        90.61487
247.48        59.36926
247.94        32.02662
248.40        54.70393
248.85        66.52215
249.31        72.29644
249.77        75.63258
250.22        78.36753
250.68        81.80424
251.14        85.57564
251.59        85.74785
252.05        79.99657
252.51        70.93188
252.96        62.60573
253.42        58.57405
253.88        58.01529
254.33         59.4726
254.79        62.65785
255.25        66.47397
255.70        69.92821
256.16        73.14159
256.62        74.57245
257.07        72.64422
257.53        68.26845
257.99        62.15723
258.44        56.39888
258.90        54.17577
259.35        54.57596
259.81        56.19627
260.27        56.88696
260.72        54.60436
261.18        50.10273
261.63         44.4029
262.09        39.27953
262.55        36.17632
263.00        35.01414
263.46        35.07427
263.91        35.31384
264.37        34.84371
264.83        33.53154
265.28        31.63258
265.74        29.83901
266.19        28.94589
266.65        29.10404
267.11        29.84182
267.56        30.50656
268.02        30.33349
268.47        29.23795
268.93        27.50434
269.38        25.58007
269.84         24.4489
270.30        24.36823
270.75        25.05274
271.21        25.95859
271.66        26.28199
272.12        25.81534
272.57        24.81346
273.03        23.71091
273.48        23.08091
273.94        23.07183
274.39        23.44318
274.85        23.85003
275.31        23.79708
275.76        23.18911
276.22        22.24295
276.67        21.25966
277.13        20.74298
277.58        20.72959
278.04        21.04991
278.49        21.38139
278.95        21.32515
279.40        20.79847
279.86        20.01314
280.31        19.16421
280.77        18.63569
281.22        18.47089
281.68        18.54679
282.13        18.72184
282.59        18.82808
283.04        18.80777
283.50        18.74205
283.95        18.61885
284.41        18.42699
284.86        18.17376
285.32        17.86403
285.77        17.57791
286.22        17.49696
286.68        17.62249
287.13        17.88684
287.59        18.13058
288.04         18.1107
288.50        17.80812
288.95        17.29565
289.41        16.74642
289.86        16.32691
290.32        16.13003
290.77        16.08368
291.22        16.15706
291.68         16.2683
292.13        16.39411
292.59         16.5582
293.04        16.77499
293.50         17.0627
293.95        17.41023
294.40        17.78099
294.86         18.1306
295.31        18.40849
295.77        18.60895
296.22         18.7517
296.68        18.86835
297.13        18.98306
297.58        19.12463
298.04        19.29911
298.49        19.52309
298.95        19.85181
299.40        20.27876
299.85        20.78536
300.31        21.30679
300.76        21.75536
301.21        22.09142
301.67        22.35245
302.12        22.54387
302.58        22.71862
303.03        22.87766
303.48        23.01273
303.94        23.16736
304.39        23.37938
304.84        23.65527
305.30        23.97783
305.75        24.26085
306.20        24.37814
306.66        24.33031
307.11        24.15396
307.57         23.9595
308.02         23.8485
308.47        23.87215
308.93        23.99243
309.38        24.17329
309.83         24.3832
310.29        24.58712
310.74        24.78302
311.19        24.93653
311.65        24.99586
312.10        24.95389
312.55        24.82698
313.00        24.63573
313.46        24.42653
313.91        24.21752
314.36        24.02057
314.82        23.88038
315.27        23.85165
315.72        23.94169
316.18        24.12739
316.63        24.35033
317.08        24.49059
317.53        24.51072
317.99        24.43133
318.44        24.30592
318.89        24.22612
319.35        24.21128
319.80        24.23873
320.25        24.25453
320.70        24.17373
321.16        23.98215
321.61        23.71293
322.06        23.43031
322.51        23.22769
322.97        23.11726
323.42         23.0763
323.87        23.04502
324.32        22.92612
324.78         22.6974
325.23         22.3992
325.68          22.082
326.13        21.82824
326.59        21.66179
327.04        21.57606
327.49        21.55036
327.94        21.55128
328.39        21.56547
328.85        21.59383
329.30        21.66088
329.75        21.77419
330.20        21.92778
330.66        22.08941
331.11        22.24603
331.56        22.33976
332.01        22.35522
332.46        22.29727
332.92         22.1928
333.37         22.1146
333.82        22.08367
334.27        22.10377
334.72        22.13579
335.17        22.10919
335.63        22.01023
336.08         21.8607
336.53        21.74724
336.98        21.81212
337.43        22.07341
337.88        22.48447
338.34        22.88186
338.79        23.04451
339.24        22.89877
339.69         22.5126
340.14        22.06375
340.59        21.86351
341.05         21.9842
341.50        22.32939
341.95        22.73825
342.40        22.97533
342.85        22.98279
343.30        22.84524
343.75        22.62806
344.20        22.44424
344.66        22.33652
345.11        22.23366
345.56         22.1549
346.01        22.13034
346.46        22.15041
346.91        22.23088
347.36        22.26307
347.81        22.06555
348.26        21.63494
348.72        21.06551
349.17        20.52673
349.62        20.37628
350.07        20.68651
350.52        21.32745
350.97        22.09331
351.42        22.67118
351.87        22.96239
352.32        23.04604
352.77        22.97949
353.22        22.86145
353.67        22.73573
354.13        22.57592
354.58        22.38779
355.03        22.22308
355.48        22.09721
355.93        22.02419
356.38        21.98174
356.83        21.91781
357.28        21.81734
357.73        21.68571
358.18        21.55304
358.63        21.46758
359.08        21.43669
359.53        21.44837
359.98        21.44348
360.43        21.33306
360.88         21.1051
361.33        20.78433
361.78        20.46684
362.23        20.30879
362.68        20.33448
363.13        20.48677
363.58        20.64368
364.03         20.6129
364.48        20.35719
364.93        19.95207
365.38        19.49559
365.83        19.14485
366.28        18.95166
366.73        18.86156
367.18         18.8589
367.63        18.91791
368.08        19.00727
368.53        19.13231
368.98        19.22581
369.43        19.17779
369.88        18.97699
370.33        18.65884
370.78        18.30729
371.23        18.07261
371.68        17.99943
372.13        18.03999
372.58        18.16184
373.03        18.30142
373.48        18.42052
373.93        18.53793
374.38        18.60148
374.83        18.53046
375.28        18.32113
375.72        17.98219
376.17        17.63621
376.62        17.44737
377.07        17.45574
377.52        17.61211
377.97        17.81764
378.42        17.90818
378.87        17.83952
379.32        17.66537
379.77        17.45115
380.22        17.28906
380.67        17.20391
381.11        17.16751
381.56        17.14202
382.01        17.07818
382.46        16.96246
382.91        16.81077
383.36        16.66356
383.81        16.57998
384.26        16.56982
384.71        16.61449
385.15        16.64522
385.60        16.57259
386.05        16.37576
386.50        16.07773
386.95        15.76834
387.40        15.60455
387.85        15.62262
388.29         15.7666
388.74        15.92698
389.19        15.94156
389.64        15.78662
390.09        15.50377
390.54        15.20646
390.98        15.08431
391.43        15.18705
391.88        15.44084
392.33        15.70109
392.78        15.75703
393.23        15.58394
393.67         15.2586
394.12        14.93999
394.57        14.79399
395.02        14.85389
395.47        15.05601
395.91        15.31728
396.36        15.46847
396.81        15.45694
397.26        15.32526
397.71        15.13489
398.15        14.96096
398.60        14.85359
399.05        14.79494
399.50        14.74685
399.95        14.61516
400.39        14.45576
400.84        14.24479
401.29        14.07328
401.74        14.07278
402.18        14.27507
402.63         14.6106
403.08        14.96446
403.53        15.15458
403.97        15.13525
404.42        14.96095
404.87        14.70945
405.32        14.52042
405.76        14.44124
406.21        14.43302
406.66        14.46812
407.11        14.51228
407.55        14.55383
408.00        14.60383
408.45        14.64589
408.90        14.63478
409.34        14.56321
409.79        14.44573
410.24        14.32567
410.68        14.26591
411.13        14.28309
411.58        14.36298
412.03        14.47655
412.47        14.57227
412.92        14.61932
413.37        14.62837
413.81        14.62281
414.26        14.65549
414.71        14.72671
415.15        14.82185
415.60        14.88396
416.05        14.84349
416.49        14.69007
416.94        14.46372
417.39        14.22497
417.83        14.07527
418.28        14.05241
418.73        14.11732
419.17        14.23936
419.62        14.36349
420.07        14.46878
420.51        14.56829
420.96        14.63611
421.41        14.62531
421.85        14.52949
422.30        14.38332
422.74        14.22854
423.19        14.16125
423.64        14.18597
424.08        14.28403
424.53        14.40998
424.98        14.51062
425.42        14.56966
425.87        14.59574
426.31        14.58648
426.76        14.58292
427.21         14.5717
427.65        14.44592
428.10        14.30452
428.54        14.39615
428.99        14.73895
429.44        15.22518
429.88         15.6651
430.33        15.81238
430.77        15.62462
431.22        15.18428
431.66         14.6949
432.11         14.5261
432.56        14.71347
433.00         15.0641
433.45        15.40524
433.89         15.6457
434.34         15.6786
434.78        15.38957
435.23        15.00084
435.67        14.98319
436.12        15.28735
436.57        15.38354
437.01        15.23118
437.46         15.1518
437.90        15.18079
438.35        15.21985
438.79        15.25628
439.24        15.31575
439.68        15.40182
440.13        15.44545
440.57        15.45739
441.02        15.66556
441.46         15.9458
441.91        15.74523
442.35        15.20249
442.80        14.97384
443.24        15.04669
443.69        15.17955
444.13         15.2691
444.58        15.14467
445.02        14.85309
445.47        14.75076
445.91        14.82735
446.36        14.80033
446.80        14.66494
447.24        14.59575
447.69        14.60541
448.13        14.61533
448.58        14.62706
449.02        14.66377
449.47         14.7007
449.91        14.69367
450.36        14.64169
450.80         14.5514
451.25        14.47562
451.69        14.48761
452.13        14.60036
452.58        14.77452
453.02         14.9575
453.47        15.06543
453.91        15.07908
454.36        15.02751
454.80        14.93022
455.24        14.82054
455.69        14.72727
456.13        14.63821
456.58        14.58968
457.02         14.6119
457.46        14.71265
457.91        14.87549
458.35        15.05795
458.79        15.18244
459.24        15.23737
459.68        15.22711
460.13         15.1979
460.57        15.18532
461.01        15.21774
461.46        15.27617
461.90        15.34344
462.34        15.38394
462.79        15.38586
463.23        15.35397
463.68        15.32583
464.12        15.36315
464.56        15.47645
465.01        15.65523
465.45        15.80165
465.89         15.8276
466.34        15.73461
466.78        15.46942
467.22        15.17215
467.67        15.22311
468.11        15.58024
468.55        15.77007
468.99        15.73833
469.44        15.71775
469.88          15.758
470.32        15.91644
470.77        16.12038
471.21        16.13518
471.65         15.9406
472.10        15.70975
472.54        15.52999
472.98        15.48989
473.42        15.61784
473.87        15.88862
474.31         16.1997
474.75        16.38404
475.20        16.40689
475.64          16.308
476.08        16.17303
476.52        16.13525
476.97        16.22682
477.41        16.40684
477.85        16.59987
478.29        16.71736
478.74        16.73763
479.18        16.61353
479.62        16.41818
480.06        16.53818
480.50         16.6516
480.95        16.77972
481.39        16.77807
481.83        16.77623
482.27        16.76793
482.72        16.61337
483.16        16.39175
483.60        16.45215
484.04        16.79974
484.48        16.96887
484.93        17.15151
485.37        17.54343
485.81        18.03401
486.25        18.31435
486.69         23.5694
487.14        19.14799
487.58        12.73423
488.02        15.55735
488.46        17.50904
488.90         17.5259
489.34        17.71379
489.79        17.63982
490.23         18.4946
490.67        18.98672
491.11        18.88126
491.55          18.747
491.99        18.56232
492.43        18.37757
492.88        18.27126
493.32        18.33461
493.76        18.43358
494.20        18.65356
494.64        18.92632
495.08        19.24176
495.52        19.56536
495.96        19.83121
496.41        19.98955
496.85        20.11178
497.29        20.19729
497.73        19.94989
498.17        19.62982
498.61        19.84743
499.05         20.5935
499.49        20.78386
499.93        20.89831
500.37        21.02796
500.82        21.10825
501.26        21.31476
501.70        21.54239
502.14        21.62712
502.58        21.56573
503.02        21.56057
503.46        21.62611
503.90        21.63867
504.34        21.61994
504.78        21.65956
505.22        21.76283
505.66        21.90959
506.10        22.04618
506.54        22.08083
506.98        21.99962
507.42        21.83919
507.86        21.68103
508.30        21.65026
508.74        21.77208
509.18        22.00168
509.62        22.27419
510.06        22.48063
510.50         22.5866
510.94        22.63096
511.38         22.6305
511.82        22.61191
512.26        22.59156
512.70        22.55169
513.14        22.52871
513.58        22.58718
514.02        22.72389
514.46        22.91622
514.90        23.09111
515.34        23.09511
515.78        22.87762
516.22        22.64066
516.66         22.4784
517.10        22.10236
517.54         21.5449
517.98        22.36606
518.42        22.23277
518.86        22.61406
519.30        22.79232
519.74        22.99366
520.18        23.17549
520.62        23.24048
521.06        23.20396
521.50        23.07004
521.93        22.89069
522.37        22.76493
522.81        22.72069
523.25        22.73604
523.69        22.78881
524.13        22.84042
524.57        22.87485
525.01        22.90302
525.45        22.92029
525.89        22.91773
526.32        22.89118
526.76         22.8393
527.20        22.76568
527.64          22.688
528.08        22.61571
528.52        22.52539
528.96        22.41304
529.40        22.33275
529.83        22.30009
530.27        22.07962
530.71         22.1013
531.15        22.00105
531.59        21.91043
532.03        21.81668
532.46        21.76245
532.90         21.8151
533.34        21.96843
533.78        22.19432
534.22        22.40477
534.66        22.47124
535.09        22.36778
535.53        22.14533
535.97        21.88334
536.41        21.71512
536.85        21.68024
537.28        21.74262
537.72        21.85566
538.16        21.94268
538.60        21.97995
539.04        21.97751
539.47        21.96217
539.91        22.02818
540.35        22.16173
540.79        22.25368
541.22        22.29845
541.66        22.37942
542.10         22.4928
542.54        22.58122
542.97        22.65576
543.41          22.771
543.85        22.92691
544.29        23.12081
544.72        23.30081
545.16        23.39575
545.60        23.39621
546.04        23.32135
546.47        23.26806
546.91        23.39979
547.35         23.7305
547.79        24.20894
548.22        24.68881
548.66        24.92081
549.10           24.87
549.53        24.65226
549.97        24.41261
550.41        24.31281
550.84        24.40905
551.28         24.6653
551.72        25.01343
552.15        25.32677
552.59        25.55486
553.03        25.73152
553.46        25.86986
553.90        26.00965
554.34        26.16707
554.77        26.29822
555.21        26.39057
555.65        26.50854
556.08        26.66606
556.52        26.52599
556.96        26.73025
557.39        26.80884
557.83        26.95757
558.27        27.13877
558.70        27.33553
559.14        27.50446
559.57        27.62021
560.01         27.7073
560.45        27.75346
560.88        27.73918
561.32        27.69249
561.75        27.60856
562.19        27.54042
562.63        27.53107
563.06         27.5863
563.50        27.69862
563.93        27.84292
564.37        27.99133
564.80        28.12067
565.24        28.24703
565.68        28.35534
566.11        28.42617
566.55        28.48102
566.98        28.51828
567.42        28.57718
567.85        28.71321
568.29        28.95082
568.72        29.18652
569.16        29.43762
569.60        29.80179
570.03        30.12386
570.47        30.16379
570.90        30.07278
571.34         29.5528
571.77        29.90381
572.21         30.1675
572.64        30.08527
573.08        29.65533
573.51        28.82819
573.95        30.03979
574.38        31.83591
574.82        31.15911
