SpectraSmart Spectrum 2.9.0.0
--------- Device Information -----------
Spectrum Name :  反射率_0
Saving Time :  2024/04/26 00:55:50
Spectro-Module Model Name : SE2030-DUVN
Spectro-Module Serial Number : OS361AC55029948
Wavelength Start : 200
Wavelength End : 1025
Wavelength Unit : Wavelength(nm)
Spectrum Unit : Reflectance(%)
-----------Spectrum Setting ------------
Integration Time : 20ms
Average : 10
Boxcar : 0
Background removal :  enabled
linearity correction :  enabled
SC :  disabled
Intensity correction :  disabled
DWT denoise :  enabled
savitzky-golay :  disabled
FFT :  disabled
Running average :  disabled
Kalman :  disabled
High pass :  disabled
---------------BEGIN--------------------
Wavelength(nm)             Reflectance(%)
200.29               0
200.75        98.07815
201.21        89.97472
201.67        80.13197
202.13        74.02784
202.58         72.4468
203.04        74.28278
203.50        77.70543
203.96        79.54861
204.42        79.04691
204.88        77.45167
205.34        76.24691
205.80        77.10257
206.26        81.04967
206.72         90.3084
207.18         108.848
207.64        126.9008
208.10        119.4296
208.55        98.95435
209.01        85.50233
209.47        81.16605
209.93        82.25683
210.39        86.88169
210.85        92.05284
211.31        91.58509
211.77        83.92713
212.23        71.71143
212.69        60.26068
213.14        57.63472
213.60        65.05698
214.06          80.057
214.52        97.11451
214.98        107.7029
215.44        109.5487
215.90         105.435
216.36        98.69558
216.81        93.90804
217.27        92.68882
217.73        93.44975
218.19        94.52455
218.65        93.85952
219.11        90.67835
219.57        84.69666
220.02        77.33573
220.48         74.7955
220.94        79.74544
221.40        89.91739
221.86        97.91235
222.32         96.5518
222.77        87.46704
223.23        75.70537
223.69        66.22269
224.15        64.14626
224.61        68.86155
225.06        77.70243
225.52        87.27232
225.98        93.11988
226.44        94.29439
226.90        92.54091
227.36        89.86133
227.81        88.95338
228.27        90.71581
228.73        93.80473
229.19        97.14939
229.65        99.27232
230.10        99.77832
230.56        99.62307
231.02        99.19912
231.48        98.92922
231.93        98.89478
232.39        99.01364
232.85        99.32379
233.31        100.0661
233.77        101.2014
234.22        102.6845
234.68        104.0681
235.14        104.5291
235.60        103.8235
236.05        102.2207
236.51        100.1396
236.97        98.07697
237.43        96.07854
237.88        93.98882
238.34        91.65197
238.80        89.69243
239.26        88.52178
239.71        88.52373
240.17        88.87426
240.63        88.53024
241.08        87.30403
241.54         85.4718
242.00        83.74417
242.46         82.9498
242.91         83.7572
243.37        86.78274
243.83        97.52437
244.28        135.7641
244.74        182.5332
245.20        160.2764
245.66        138.8828
246.11        134.8348
246.57        142.7761
247.03        171.4331
247.48        252.0922
247.94        200.2332
248.40        111.6886
248.85        85.63575
249.31        78.40033
249.77        78.44852
250.22         82.8054
250.68        91.82938
251.14        105.5999
251.59        116.0998
252.05        114.5719
252.51        104.2099
252.96        91.96373
253.42        85.01011
253.88        83.25404
254.33          84.242
254.79        87.84303
255.25        93.25013
255.70        99.05615
256.16        105.1065
256.62         109.628
257.07        110.7931
257.53         109.499
257.99        106.2645
258.44        102.3536
258.90        100.3899
259.35        99.54896
259.81        99.32628
260.27        98.37203
260.72        95.37406
261.18        91.15617
261.63        86.11008
262.09        81.55039
262.55        78.11813
263.00        75.73411
263.46        74.25302
263.91        72.99712
264.37        71.74727
264.83        70.22202
265.28        68.40353
265.74        66.58718
266.19        64.86091
266.65        63.53272
267.11        62.50176
267.56        61.53797
268.02        60.42428
268.47         59.0116
268.93        57.40852
269.38        55.82511
269.84         54.8448
270.30        54.59371
270.75        54.89088
271.21        55.33744
271.66        55.32207
272.12        54.70462
272.57        53.65459
273.03        52.50659
273.48        51.66055
273.94        51.26192
274.39        51.10093
274.85        51.02092
275.31        50.74546
275.76        50.18644
276.22        49.49899
276.67         48.7283
277.13        48.07794
277.58         47.5218
278.04        47.06254
278.49        46.58568
278.95        46.06601
279.40        45.42697
279.86        44.76135
280.31        44.05314
280.77        43.43719
281.22        42.87897
281.68        42.40974
282.13         41.9505
282.59        41.47453
283.04        40.94679
283.50        40.42923
283.95        39.93183
284.41        39.52687
284.86         39.1978
285.32        38.93101
285.77        38.69367
286.22        38.52155
286.68        38.38823
287.13        38.25278
287.59        38.03555
288.04        37.57975
288.50        36.91833
288.95        36.08614
289.41        35.25186
289.86         34.5377
290.32        34.04062
290.77        33.68304
291.22        33.46384
291.68         33.3335
292.13        33.26075
292.59        33.26674
293.04        33.30326
293.50        33.30672
293.95        33.25518
294.40        33.14388
294.86         33.0312
295.31        33.01346
295.77        33.11441
296.22        33.30962
296.68        33.51697
297.13        33.57429
297.58        33.46865
298.04        33.26885
298.49        33.10229
298.95        33.20533
299.40        33.60171
299.85        34.20219
300.31        34.84627
300.76        35.29525
301.21         35.4697
301.67         35.4717
302.12        35.34505
302.58        35.21788
303.03        35.10919
303.48        34.99982
303.94        34.94433
304.39        34.98984
304.84        35.14439
305.30        35.38777
305.75        35.61512
306.20        35.67646
306.66        35.56567
307.11        35.31682
307.57        35.03602
308.02        34.80113
308.47        34.67027
308.93        34.61219
309.38        34.61785
309.83        34.70908
310.29        34.86172
310.74        35.05272
311.19        35.21587
311.65        35.24591
312.10        35.11905
312.55        34.86967
313.00        34.53727
313.46        34.20337
313.91        33.89898
314.36        33.62497
314.82         33.4238
315.27         33.3383
315.72        33.37514
316.18        33.51738
316.63        33.70218
317.08        33.79922
317.53        33.76883
317.99        33.62856
318.44        33.44748
318.89        33.34488
319.35        33.33955
319.80          33.403
320.25        33.44411
320.70        33.31762
321.16        33.00024
321.61        32.54738
322.06        32.07248
322.51        31.74389
322.97        31.58995
323.42        31.57153
323.87        31.59137
324.32        31.48746
324.78        31.21692
325.23        30.84251
325.68        30.44333
326.13         30.1507
326.59         29.9995
327.04        29.96982
327.49        30.01201
327.94        30.04986
328.39         30.0573
328.85        30.04498
329.30        30.06932
329.75        30.17659
330.20        30.37371
330.66        30.61642
331.11        30.86793
331.56          31.029
332.01        31.07397
332.46        31.01503
332.92        30.90017
333.37        30.86216
333.82        30.92493
334.27        31.07082
334.72        31.21411
335.17        31.20809
335.63        31.02067
336.08        30.70769
336.53        30.39688
336.98        30.29749
337.43        30.45282
337.88        30.80042
338.34        31.17415
338.79          31.352
339.24         31.2519
339.69        30.94686
340.14         30.5883
340.59        30.43952
341.05        30.56092
341.50        30.86003
341.95        31.21021
342.40        31.43173
342.85         31.4803
343.30        31.42968
343.75        31.30803
344.20        31.16477
344.66         31.0289
345.11        30.84531
345.56        30.68736
346.01        30.66667
346.46         30.7851
346.91        31.03041
347.36        31.22386
347.81        31.07539
348.26        30.56155
348.72        29.81272
349.17        29.07319
349.62        28.82277
350.07        29.16176
350.52        29.91312
350.97        30.81239
351.42        31.45643
351.87        31.72288
352.32        31.72954
352.77        31.54883
353.22        31.30095
353.67        31.04813
354.13        30.75611
354.58        30.46842
355.03        30.30127
355.48         30.2739
355.93        30.37925
356.38        30.52644
356.83        30.55104
357.28        30.41235
357.73        30.14872
358.18        29.84688
358.63        29.64913
359.08        29.58817
359.53        29.61967
359.98        29.65619
360.43        29.56429
360.88        29.31787
361.33        28.96292
361.78        28.59562
362.23        28.36937
362.68        28.31355
363.13        28.36688
363.58        28.43184
364.03        28.35793
364.48        28.11016
364.93        27.74931
365.38        27.33296
365.83        26.95056
366.28         26.6415
366.73        26.37899
367.18        26.18467
367.63        26.09501
368.08        26.10233
368.53        26.19371
368.98        26.29881
369.43        26.30163
369.88        26.17916
370.33         25.9656
370.78        25.71416
371.23        25.52331
371.68        25.42435
372.13        25.37901
372.58        25.38602
373.03        25.44013
373.48        25.52432
373.93        25.64684
374.38        25.73667
374.83         25.6816
375.28        25.46874
375.72         25.1154
376.17        24.75977
376.62        24.59084
377.07        24.65041
377.52        24.87699
377.97        25.13939
378.42        25.22542
378.87        25.08481
379.32        24.79076
379.77        24.44781
380.22        24.20514
380.67        24.09647
381.11        24.07283
381.56        24.07078
382.01        23.99657
382.46        23.82909
382.91        23.61271
383.36         23.3936
383.81        23.23918
384.26        23.16885
384.71        23.15273
385.15        23.16267
385.60        23.17971
386.05        23.17923
386.50        23.16154
386.95         23.1143
387.40        23.01891
387.85        22.88554
388.29        22.72761
388.74        22.57633
389.19        22.42379
389.64        22.27195
390.09        22.11182
390.54        21.99133
390.98        21.98646
391.43        22.11034
391.88        22.32664
392.33        22.52796
392.78         22.5557
393.23        22.39779
393.67        22.10308
394.12        21.82053
394.57        21.68832
395.02        21.73566
395.47        21.90891
395.91        22.14334
396.36        22.28973
396.81        22.30462
397.26        22.22091
397.71        22.07991
398.15        21.92266
398.60            21.8
399.05        21.70195
399.50        21.61032
399.95        21.43928
400.39        21.27972
400.84        21.08055
401.29        20.91833
401.74        20.88535
402.18         21.0088
402.63        21.23029
403.08        21.48057
403.53        21.64462
403.97        21.68862
404.42        21.64462
404.87        21.53633
405.32        21.41019
405.76        21.28908
406.21        21.16932
406.66        21.07487
407.11         21.0475
407.55        21.09484
408.00        21.20221
408.45        21.32303
408.90        21.35356
409.34        21.26567
409.79        21.09506
410.24        20.91195
410.68        20.81393
411.13        20.82665
411.58        20.92149
412.03        21.05352
412.47        21.14684
412.92        21.16186
413.37        21.12678
413.81         21.0771
414.26        21.08585
414.71        21.15582
415.15         21.2583
415.60        21.33999
416.05        21.33807
416.49        21.23807
416.94        21.07821
417.39        20.88145
417.83        20.68641
418.28        20.52519
418.73        20.38339
419.17        20.29888
419.62        20.32103
420.07        20.44621
420.51        20.65877
420.96        20.86986
421.41        20.92584
421.85        20.78956
422.30        20.53551
422.74        20.25393
423.19        20.11867
423.64        20.14682
424.08        20.29951
424.53        20.49285
424.98        20.61792
425.42        20.64407
425.87        20.59121
426.31        20.49917
426.76         20.4855
427.21        20.54107
427.65        20.49639
428.10        20.41694
428.54        20.54113
428.99        20.87477
429.44         21.3066
429.88        21.65523
430.33        21.70924
430.77        21.43721
431.22        20.91011
431.66        20.34454
432.11        20.18251
432.56        20.45786
433.00        20.85488
433.45         21.1737
433.89        21.55009
434.34        21.77915
434.78        21.26112
435.23        20.39466
435.67        20.27605
436.12        20.84466
436.57        21.14043
437.01        21.04382
437.46        21.00024
437.90        21.03668
438.35        21.02534
438.79        20.96571
439.24        20.91784
439.68         20.9014
440.13         20.8164
440.57        20.72695
441.02        21.00046
441.46        21.47526
441.91        21.42953
442.35        20.93637
442.80         20.6455
443.24        20.57509
443.69        20.64074
444.13        20.75405
444.58        20.57786
445.02        20.19147
445.47        20.15882
445.91        20.42053
446.36        20.45598
446.80        20.23652
447.24        20.05437
447.69        19.95193
448.13        19.86202
448.58        19.80398
449.02        19.79225
449.47        19.81012
449.91        19.82903
450.36          19.843
450.80        19.84946
451.25        19.86819
451.69        19.91775
452.13        20.00053
452.58        20.09379
453.02         20.1734
453.47        20.20532
453.91        20.18558
454.36        20.13413
454.80        20.05911
455.24        19.97116
455.69         19.8927
456.13        19.81443
456.58        19.78716
457.02        19.85407
457.46         20.0239
457.91        20.27047
458.35        20.52152
458.79        20.65996
459.24        20.66963
459.68         20.5666
460.13        20.43421
460.57        20.35703
461.01        20.37825
461.46        20.46824
461.90        20.57878
462.34        20.62999
462.79        20.59661
463.23         20.4955
463.68        20.39724
464.12        20.42497
464.56        20.59906
465.01        20.89126
465.45        21.14292
465.89        21.20339
466.34         21.0667
466.78        20.66859
467.22        20.21851
467.67        20.25421
468.11        20.73082
468.55        21.01929
468.99        21.01592
469.44        20.98161
469.88         20.9751
470.32        21.08179
470.77        21.26896
471.21        21.32807
471.65         21.2436
472.10        21.20201
472.54        21.21489
472.98         21.2273
473.42         21.2459
473.87        21.30173
474.31        21.36921
474.75        21.40262
475.20        21.40056
475.64        21.36204
476.08        21.32936
476.52        21.36756
476.97        21.48758
477.41        21.67121
477.85        21.85298
478.29        21.96884
478.74        22.00431
479.18        21.87226
479.62        21.64761
480.06         21.8124
480.50        21.93591
480.95        22.06369
481.39        22.01658
481.83        21.97436
482.27        21.93452
482.72        21.71272
483.16        21.41571
483.60        21.49546
484.04        21.95899
484.48        22.17874
484.93        22.37744
485.37        22.83422
485.81        23.49187
486.25        23.60101
486.69        30.76958
487.14        25.04469
487.58        16.14839
488.02        19.57607
488.46        22.36654
488.90        22.46434
489.34        22.61757
489.79        22.44292
490.23        23.54552
490.67        24.16463
491.11        24.02521
491.55        23.91834
491.99        23.78068
492.43        23.56684
492.88        23.36341
493.32        23.34858
493.76        23.37598
494.20        23.57823
494.64        23.88406
495.08        24.26264
495.52        24.65663
495.96        25.00449
496.41        25.21776
496.85        25.27924
497.29        25.22728
497.73        24.87976
498.17        24.54945
498.61        24.82661
499.05        25.67844
499.49        25.84359
499.93        25.92279
500.37        25.97284
500.82        25.94644
501.26        26.13406
501.70        26.41444
502.14        26.56302
502.58        26.53989
503.02        26.53532
503.46        26.55447
503.90        26.46979
504.34        26.33624
504.78        26.30521
505.22        26.39882
505.66        26.58087
506.10        26.78333
506.54        26.88989
506.98        26.87306
507.42        26.77098
507.86        26.66779
508.30        26.69311
508.74        26.87085
509.18        27.15238
509.62        27.45485
510.06         27.6431
510.50        27.68316
510.94        27.62753
511.38        27.53009
511.82        27.47433
512.26         27.4891
512.70        27.54004
513.14        27.63098
513.58        27.76979
514.02        27.93571
514.46        28.12262
514.90        28.27298
515.34        28.26162
515.78        28.04845
516.22        27.81248
516.66        27.64654
517.10        27.29225
517.54        26.77997
517.98        27.56484
518.42        27.45561
518.86        27.79808
519.30        27.92041
519.74          28.045
520.18        28.14957
520.62        28.17083
521.06        28.13197
521.50        28.02831
521.93        27.90309
522.37        27.83928
522.81        27.85449
523.25        27.92565
523.69        28.02259
524.13        28.09584
524.57        28.12773
525.01        28.13212
525.45        28.10864
525.89        28.05732
526.32        27.98078
526.76        27.87997
527.20         27.7686
527.64        27.67909
528.08        27.62377
528.52        27.57043
528.96        27.50115
529.40        27.46148
529.83        27.46312
530.27        27.21897
530.71        27.26588
531.15         27.1679
531.59        27.09136
532.03        27.01834
532.46         26.9929
532.90        27.08232
533.34        27.27652
533.78        27.54299
534.22        27.79101
534.66        27.88887
535.09        27.80685
535.53        27.59863
535.97        27.33162
536.41        27.12252
536.85        27.01254
537.28        26.97459
537.72        26.98862
538.16        27.02126
538.60        27.05957
539.04        27.09838
539.47        27.13961
539.91        27.25279
540.35        27.40777
540.79        27.48272
541.22        27.49128
541.66        27.56904
542.10         27.7181
542.54        27.85637
542.97        27.97547
543.41        28.10945
543.85        28.25227
544.29        28.41078
544.72        28.54764
545.16        28.61634
545.60        28.61188
546.04         28.5435
546.47        28.50031
546.91        28.63456
547.35        28.95592
547.79        29.42259
548.22        29.88312
548.66        30.07718
549.10        29.97471
549.53        29.70308
549.97        29.42771
550.41        29.33249
550.84        29.47671
551.28        29.81569
551.72        30.25824
552.15        30.63443
552.59        30.88157
553.03        31.04711
553.46         31.1518
553.90        31.25483
554.34        31.37967
554.77        31.47059
555.21        31.52674
555.65        31.64921
556.08        31.85549
556.52        31.73372
556.96        32.02081
557.39        32.10414
557.83        32.21214
558.27        32.32137
558.70        32.44055
559.14        32.56633
559.57        32.67836
560.01        32.78656
560.45        32.87282
560.88        32.88441
561.32         32.8397
561.75        32.81036
562.19        32.82088
562.63        32.70458
563.06        32.54348
563.50        32.69872
563.93        33.10143
564.37        33.34827
564.80        33.39478
565.24        33.47266
565.68        33.57909
566.11        33.62162
566.55        33.63076
566.98        33.62355
567.42        33.64803
567.85        33.77413
568.29        34.03036
568.72        34.29129
569.16        34.57771
569.60        34.98799
570.03        35.35143
570.47        35.39487
570.90        35.28817
571.34        34.61673
571.77        35.23034
572.21        35.22616
572.64        35.25004
573.08        34.77321
573.51        33.85057
573.95        35.31229
574.38        37.41584
574.82        36.34914
