SpectraSmart Spectrum 2.9.0.0
--------- Device Information -----------
Spectrum Name :  反射率_0
Saving Time :  2024/04/26 00:33:03
Spectro-Module Model Name : SE2030-DUVN
Spectro-Module Serial Number : OS361AC55029948
Wavelength Start : 200
Wavelength End : 1025
Wavelength Unit : Wavelength(nm)
Spectrum Unit : Reflectance(%)
-----------Spectrum Setting ------------
Integration Time : 20ms
Average : 10
Boxcar : 0
Background removal :  enabled
linearity correction :  enabled
SC :  disabled
Intensity correction :  disabled
DWT denoise :  enabled
savitzky-golay :  disabled
FFT :  disabled
Running average :  disabled
Kalman :  disabled
High pass :  disabled
---------------BEGIN--------------------
Wavelength(nm)             Reflectance(%)
200.29               0
200.75        112.4625
201.21        106.8379
201.67        99.03088
202.13        94.52039
202.58        94.24094
203.04        97.08948
203.50        100.7697
203.96        101.5664
204.42        99.04232
204.88         94.9876
205.34        91.87681
205.80        92.35668
206.26        97.77338
206.72        111.3726
207.18        139.0261
207.64        165.2712
208.10         152.801
208.55        121.9093
209.01        101.6186
209.47        94.11333
209.93        93.94347
210.39        98.07578
210.85         103.493
211.31        104.1689
211.77        98.38588
212.23        88.78448
212.69        79.84525
213.14        78.31474
213.60        85.21159
214.06         98.2724
214.52        113.1676
214.98        123.3688
215.44        126.8788
215.90        125.7104
216.36        121.9991
216.81        118.5216
217.27        116.8084
217.73        116.1752
218.19         115.802
218.65        114.6723
219.11        112.3698
219.57         108.464
220.02        104.8388
220.48        107.3587
220.94        117.4025
221.40        131.7318
221.86        141.6332
222.32        139.3411
222.77        127.2859
223.23        111.6811
223.69        98.69636
224.15        94.69409
224.61        99.05062
225.06        108.6742
225.52         119.541
225.98        126.1845
226.44        127.4869
226.90         125.449
227.36        122.8432
227.81        123.4677
228.27        128.2513
228.73        135.2433
229.19        142.0703
229.65        145.3729
230.10         144.694
230.56        142.2406
231.02        139.5359
231.48        138.3535
231.93        138.8405
232.39        140.3115
232.85         142.487
233.31        145.2276
233.77        148.2438
234.22        151.7371
234.68         154.527
235.14         154.483
235.60        151.2201
236.05        145.4975
236.51        139.1254
236.97        134.5412
237.43        132.1576
237.88        131.4919
238.34        131.6397
238.80        131.2745
239.26        129.6196
239.71        127.7758
240.17        124.8543
240.63        120.1188
241.08        113.9869
241.54        106.7522
242.00         100.493
242.46        97.76746
242.91        100.0552
243.37        110.5662
243.83        144.0641
244.28        235.0165
244.74        299.2013
245.20        215.4167
245.66        162.1747
246.11        148.8342
246.57        156.7448
247.03        194.7581
247.48        312.8061
247.94        264.3756
248.40         140.856
248.85        101.8216
249.31        89.98263
249.77        88.72214
250.22        93.45219
250.68        104.0044
251.14        120.7329
251.59        134.9824
252.05        136.3058
252.51        127.8951
252.96        116.7865
253.42        110.9891
253.88        110.7467
254.33        113.0807
254.79        118.4628
255.25        126.7485
255.70        136.0113
256.16        145.8392
256.62        153.3615
257.07         155.638
257.53        154.1693
257.99        150.0478
258.44        145.3363
258.90        143.8624
259.35        144.2794
259.81         145.544
260.27        145.6977
260.72        142.8896
261.18        138.2967
261.63        132.4692
262.09        126.8807
262.55        122.0218
263.00         117.897
263.46        114.6332
263.91        111.8131
264.37        109.8047
264.83        108.1303
265.28         106.565
265.74        104.8856
266.19        102.2614
266.65        99.18106
267.11        95.99761
267.56        93.11852
268.02        91.14623
268.47        89.85956
268.93        89.07835
269.38        88.56342
269.84        88.09921
270.30        87.56381
270.75         87.0303
271.21        86.40266
271.66          85.508
272.12        84.35735
272.57        82.94016
273.03        81.54926
273.48        80.49113
273.94        79.89253
274.39        79.58257
274.85        79.35679
275.31        78.79574
275.76        77.78922
276.22        76.53821
276.67         75.2038
277.13        74.24379
277.58        73.61658
278.04        73.27099
278.49        72.86877
278.95        72.15242
279.40        70.98459
279.86        69.59851
280.31        68.12894
280.77        67.00126
281.22        66.21181
281.68        65.71342
282.13        65.28503
282.59        64.76373
283.04         64.0445
283.50        63.26973
283.95        62.45452
284.41         61.7184
284.86        61.05149
285.32        60.43699
285.77        59.85788
286.22        59.41336
286.68        59.08283
287.13        58.78674
287.59         58.4133
288.04        57.71169
288.50        56.72122
288.95         55.5011
289.41        54.26082
289.86        53.14066
290.32        52.27639
290.77        51.57381
291.22        51.07718
291.68        50.79959
292.13        50.69958
292.59        50.77586
293.04        50.90838
293.50        50.93132
293.95        50.78648
294.40        50.49499
294.86        50.15461
295.31        49.91723
295.77        49.83259
296.22        49.86451
296.68        49.92112
297.13        49.82639
297.58        49.56572
298.04        49.21813
298.49        48.93347
298.95        48.98749
299.40        49.39625
299.85        50.05227
300.31        50.74014
300.76        51.13055
301.21        51.13601
301.67         50.9097
302.12        50.54216
302.58        50.25923
303.03        50.08953
303.48         49.9882
303.94          50.005
304.39        50.16328
304.84        50.45972
305.30        50.88163
305.75         51.2665
306.20        51.39074
306.66        51.23906
307.11        50.84354
307.57        50.40157
308.02         50.1042
308.47        50.03723
308.93        50.14649
309.38        50.30755
309.83        50.36983
310.29        50.29161
310.74        50.11006
311.19        49.92222
311.65        49.86653
312.10        49.95901
312.55        50.15296
313.00        50.31966
313.46        50.26549
313.91        49.94418
314.36        49.44034
314.82        48.92882
315.27        48.64501
315.72        48.65292
316.18        48.86827
316.63        49.15873
317.08        49.28142
317.53        49.16457
317.99        48.87477
318.44        48.52586
318.89        48.29957
319.35        48.22977
319.80        48.26624
320.25        48.29551
320.70        48.14222
321.16        47.77368
321.61        47.26028
322.06        46.71744
322.51        46.31481
322.97        46.07974
323.42        45.97433
323.87        45.91397
324.32        45.76177
324.78        45.47957
325.23        45.13203
325.68        44.77058
326.13          44.486
326.59        44.29677
327.04        44.19142
327.49        44.14859
327.94        44.14622
328.39         44.1692
328.85        44.21128
329.30        44.28387
329.75        44.33233
330.20        44.34947
330.66         44.3278
331.11        44.32098
331.56        44.36434
332.01        44.46584
332.46          44.595
332.92        44.72091
333.37         44.8628
333.82        44.98167
334.27        45.09146
334.72        45.12739
335.17         44.9854
335.63        44.66061
336.08         44.2049
336.53        43.77039
336.98        43.61235
337.43        43.78319
337.88        44.21456
338.34        44.71296
338.79        45.01314
339.24         45.0111
339.69        44.78709
340.14        44.48842
340.59        44.37586
341.05        44.51627
341.50        44.81406
341.95        45.15515
342.40        45.38559
342.85        45.46532
343.30        45.45465
343.75         45.3801
344.20        45.28555
344.66        45.19515
345.11         45.0593
345.56        44.91609
346.01        44.82304
346.46        44.78537
346.91        44.81349
347.36        44.80793
347.81        44.60186
348.26        44.19368
348.72         43.6726
349.17        43.19785
349.62        43.10289
350.07        43.44488
350.52        44.08674
350.97        44.82577
351.42        45.35725
351.87        45.58408
352.32        45.58908
352.77        45.40973
353.22        45.11412
353.67        44.75283
354.13        44.31991
354.58        43.87834
355.03        43.57385
355.48        43.43616
355.93        43.44581
356.38        43.51282
356.83        43.47559
357.28        43.28916
357.73        42.99251
358.18        42.65286
358.63         42.3798
359.08        42.20396
359.53        42.09452
359.98        41.99169
360.43        41.80653
360.88        41.52174
361.33        41.16489
361.78        40.81707
362.23        40.60664
362.68        40.55155
363.13        40.59979
363.58        40.64009
364.03         40.5002
364.48        40.14634
364.93        39.64431
365.38        39.08844
365.83        38.63034
366.28        38.31956
366.73        38.10805
367.18        37.97438
367.63        37.88215
368.08        37.80681
368.53        37.76513
368.98        37.71272
369.43        37.57267
369.88        37.33674
370.33        37.02374
370.78        36.70098
371.23        36.49057
371.68        36.42389
372.13        36.46108
372.58        36.55368
373.03        36.61546
373.48        36.61076
373.93        36.56521
374.38        36.47377
374.83        36.32701
375.28        36.13336
375.72        35.88484
376.17        35.64312
376.62        35.47543
377.07        35.39643
377.52        35.37999
377.97        35.39046
378.42        35.36611
378.87        35.28562
379.32        35.17219
379.77        35.01926
380.22        34.81415
380.67        34.56319
381.11        34.27129
381.56        33.98106
382.01        33.77428
382.46        33.66924
382.91        33.64321
383.36        33.64192
383.81        33.57415
384.26        33.41758
384.71        33.20309
385.15        32.95588
385.60        32.74043
386.05         32.5544
386.50        32.36855
386.95        32.18571
387.40        32.01894
387.85         31.8804
388.29        31.77345
388.74        31.68924
389.19        31.53174
389.64        31.29199
390.09        30.97504
390.54        30.69291
390.98        30.63542
391.43        30.83713
391.88        31.21831
392.33        31.58232
392.78        31.64016
393.23        31.36538
393.67        30.85906
394.12        30.36142
394.57        30.10736
395.02        30.14769
395.47        30.39235
395.91        30.74217
396.36         30.9762
396.81        31.02331
397.26        30.93258
397.71        30.75614
398.15        30.53934
398.60         30.3522
399.05         30.1956
399.50        30.04787
399.95        29.77726
400.39        29.52334
400.84          29.251
401.29        29.06703
401.74        29.05868
402.18        29.25321
402.63        29.59425
403.08        29.96858
403.53        30.18067
403.97        30.18124
404.42        30.02587
404.87        29.76501
405.32        29.49374
405.76        29.25876
406.21        29.05153
406.66        28.90537
407.11        28.87666
407.55        28.97136
408.00        29.16904
408.45        29.39577
408.90        29.48681
409.34        29.39501
409.79        29.17486
410.24        28.92503
410.68        28.78612
411.13        28.79766
411.58        28.91321
412.03        29.08806
412.47         29.2485
412.92        29.33953
413.37        29.38826
413.81         29.4008
414.26        29.40884
414.71        29.40871
415.15        29.38631
415.60        29.31973
416.05        29.19808
416.49        29.02617
416.94        28.82998
417.39        28.62445
417.83        28.43007
418.28        28.27059
418.73        28.13785
419.17         28.0663
419.62        28.10541
420.07        28.24766
420.51        28.47465
420.96        28.69423
421.41        28.75175
421.85        28.60859
422.30        28.34782
422.74        28.05732
423.19        27.92309
423.64         27.9585
424.08        28.12262
424.53        28.32948
424.98        28.47518
425.42        28.52772
425.87        28.50894
426.31        28.44347
426.76        28.40323
427.21        28.38942
427.65        28.28665
428.10        28.17613
428.54        28.31459
428.99        28.71947
429.44        29.20845
429.88        29.58778
430.33        29.80455
430.77        29.71831
431.22        29.02512
431.66         28.0504
432.11        27.71713
432.56        28.06516
433.00        28.53118
433.45        28.87181
433.89        29.16845
434.34        29.21273
434.78        28.84216
435.23         28.1556
435.67        27.83361
436.12        28.62808
436.57        28.92708
437.01        28.88398
437.46        28.85935
437.90        28.90626
438.35        28.96918
438.79        28.98228
439.24        28.89006
439.68        28.70902
440.13        28.35347
440.57        28.00692
441.02        28.30605
441.46        29.05919
441.91        29.25858
442.35        28.88622
442.80        28.62235
443.24         28.5055
443.69         28.6036
444.13        28.80375
444.58        28.51979
445.02        27.87954
445.47        27.73799
445.91        28.04191
446.36        28.08908
446.80        27.84803
447.24        27.71778
447.69        27.71929
448.13        27.69988
448.58        27.66516
449.02        27.64388
449.47        27.63386
449.91        27.63465
450.36        27.64721
450.80        27.65746
451.25        27.66806
451.69        27.66965
452.13        27.66463
452.58         27.6468
453.02        27.61924
453.47        27.59276
453.91         27.5714
454.36        27.56225
454.80        27.55037
455.24        27.50269
455.69        27.43109
456.13        27.33671
456.58        27.28907
457.02          27.349
457.46        27.53329
457.91         27.8044
458.35        28.08201
458.79        28.24413
459.24        28.27278
459.68        28.18248
460.13        28.05041
460.57        27.95048
461.01        27.93019
461.46        27.94781
461.90        27.96552
462.34        28.01639
462.79        27.93333
463.23        27.84361
463.68        27.75857
464.12        27.78459
464.56         27.9343
465.01        28.19784
465.45        28.41481
465.89        28.45456
466.34        28.31678
466.78        27.88622
467.22        27.38972
467.67        27.47024
468.11        28.04433
468.55        28.28274
468.99        28.10111
469.44         27.9368
469.88        27.89028
470.32        28.05275
470.77        28.34612
471.21        28.43069
471.65        28.27443
472.10         28.1501
472.54        28.10572
472.98        28.11257
473.42        28.18625
473.87        28.34116
474.31        28.52361
474.75        28.64976
475.20        28.70289
475.64        28.69424
476.08        28.67014
476.52         28.6534
476.97        28.65433
477.41        28.75233
477.85        28.93608
478.29        28.78265
478.74        29.02477
479.18        28.93492
479.62        28.77803
480.06        29.09285
480.50        29.28945
480.95        29.45002
481.39         29.3503
481.83        29.26936
482.27         29.2119
482.72        28.91592
483.16        28.51828
483.60        28.61923
484.04        29.25814
484.48        29.53273
484.93         29.6849
485.37        30.31492
485.81        31.18491
486.25        30.59593
486.69        41.87843
487.14        33.67106
487.58        21.23123
488.02        25.97085
488.46        29.49068
488.90        29.50349
489.34        29.94724
489.79        29.49481
490.23        30.59659
490.67         31.2286
491.11        31.11369
491.55        31.08975
491.99        31.02411
492.43        30.83905
492.88        30.61809
493.32        30.62901
493.76        30.66732
494.20         30.8634
494.64        31.12225
495.08        31.43663
495.52        31.78047
495.96        32.08596
496.41        32.27893
496.85        32.47192
497.29        32.62277
497.73        32.17735
498.17        31.55693
498.61        31.75707
499.05         32.7877
499.49        33.06306
499.93        33.30495
500.37        33.37852
500.82        33.22594
501.26         33.4244
501.70        33.81961
502.14        33.97905
502.58        33.86639
503.02        33.82584
503.46        33.87154
503.90        33.81176
504.34        33.68579
504.78         33.6408
505.22        33.69564
505.66        33.82045
506.10        33.97328
506.54        34.06908
506.98        34.08537
507.42        34.06589
507.86        34.07186
508.30        34.09491
508.74        34.30978
509.18        34.55274
509.62        34.80143
510.06        34.93837
510.50        34.94066
510.94        34.85184
511.38        34.73216
511.82        34.67928
512.26        34.72198
512.70        34.82543
513.14        34.97109
513.58        35.12897
514.02        35.26919
514.46         35.3918
514.90        35.47029
515.34         35.4321
515.78        35.25151
516.22        35.08431
516.66        34.98013
517.10        34.65116
517.54        34.11694
517.98         34.7065
518.42        34.50629
518.86        34.82098
519.30        35.05647
519.74        35.37717
520.18         35.6885
520.62        35.81636
521.06         35.7514
521.50        35.52558
521.93        35.23325
522.37        35.04059
522.81        34.99654
523.25        35.05682
523.69        35.17026
524.13        35.25464
524.57        35.28206
525.01        35.27879
525.45         35.2575
525.89        35.23531
526.32        35.21405
526.76        35.18206
527.20        35.12877
527.64        35.05407
528.08        34.96687
528.52        34.84223
528.96        34.68392
529.40        34.59163
529.83        34.59117
530.27         34.3065
530.71        34.40469
531.15        34.32265
531.59        34.26067
532.03        34.19874
532.46        34.18091
532.90        34.26842
533.34        34.45135
533.78        34.70352
534.22        34.92884
534.66        34.98892
535.09        34.85598
535.53        34.58776
535.97        34.27814
536.41         34.0871
536.85        34.05947
537.28        34.15229
537.72        34.29607
538.16        34.38029
538.60        34.37441
539.04        34.29081
539.47        34.18149
539.91        34.21133
540.35        34.36152
540.79        34.46186
541.22        34.49374
541.66         34.5697
542.10        34.68065
542.54        34.74659
542.97        34.79589
543.41        34.92735
543.85        35.14445
544.29        35.43232
544.72        35.70606
545.16        35.85151
545.60         35.8472
546.04        35.72031
546.47         35.6078
546.91        35.74545
547.35        36.15828
547.79        36.76254
548.22        37.35005
548.66        37.61309
549.10          37.486
549.53        37.04294
549.97        36.53572
550.41        36.34835
550.84        36.56948
551.28        37.06702
551.72        37.68184
552.15        38.15198
552.59        38.38456
553.03        38.46005
553.46        38.44462
553.90         38.4726
554.34         38.5848
554.77        38.69196
555.21         38.7725
555.65        38.91961
556.08        39.14552
556.52        38.95771
556.96        39.26352
557.39        39.31244
557.83        39.38764
558.27        39.45549
558.70        39.54506
559.14        39.68583
559.57        39.86231
560.01        40.08012
560.45        40.27868
560.88        40.36217
561.32        40.34349
561.75        40.23234
562.19        40.11882
562.63        40.08232
563.06        40.13976
563.50        40.28463
563.93        40.46298
564.37        40.60142
564.80        40.66958
565.24        40.71479
565.68        40.74844
566.11        40.79679
566.55        40.90018
566.98        41.00776
567.42        41.14243
567.85         41.4203
568.29        41.83121
568.72        42.05856
569.16        42.19178
569.60        42.69396
570.03        43.03527
570.47        43.16987
570.90        43.22908
571.34        42.12962
571.77        42.90162
572.21        43.31407
572.64        43.00225
573.08        42.67491
573.51         40.8742
573.95        42.73953
574.38         45.7716
574.82        44.66617
