SpectraSmart Spectrum 2.9.0.0
--------- Device Information -----------
Spectrum Name :  反射率_0
Saving Time :  2024/04/25 23:57:18
Spectro-Module Model Name : SE2030-DUVN
Spectro-Module Serial Number : OS361AC55029948
Wavelength Start : 200
Wavelength End : 1025
Wavelength Unit : Wavelength(nm)
Spectrum Unit : Reflectance(%)
-----------Spectrum Setting ------------
Integration Time : 20ms
Average : 10
Boxcar : 0
Background removal :  enabled
linearity correction :  enabled
SC :  disabled
Intensity correction :  disabled
DWT denoise :  enabled
savitzky-golay :  disabled
FFT :  disabled
Running average :  disabled
Kalman :  disabled
High pass :  disabled
---------------BEGIN--------------------
Wavelength(nm)             Reflectance(%)
200.29               0
200.75        77.42699
201.21        70.79858
201.67        63.47281
202.13        59.06549
202.58        57.93248
203.04        59.28675
203.50        61.90849
203.96         63.6454
204.42        63.78381
204.88        63.07274
205.34        62.11129
205.80        61.37673
206.26         60.9367
206.72        60.60061
207.18        59.74767
207.64        57.13069
208.10        54.00137
208.55        52.45354
209.01        52.56613
209.47         54.1838
209.93        56.89114
210.39        60.88411
210.85        64.46665
211.31        63.71587
211.77         57.7636
212.23        48.27786
212.69        38.97482
213.14        35.61639
213.60        39.13275
214.06        48.18962
214.52        59.40836
214.98        67.38992
215.44        70.40683
215.90        69.77492
216.36        67.42295
216.81          65.969
217.27        66.28853
217.73        67.48337
218.19        67.91196
218.65        65.34149
219.11        58.84847
219.57        47.53148
220.02        32.99947
220.48        24.68383
220.94        27.78286
221.40         39.8034
221.86        51.39201
222.32        52.75194
222.77        45.07418
223.23        33.78709
223.69        24.09858
224.15        21.27547
224.61        24.71856
225.06        31.58506
225.52        38.59554
225.98        41.74004
226.44        40.24311
226.90        36.07024
227.36        30.82662
227.81        26.52854
228.27        24.18206
228.73        22.95085
229.19        23.18214
229.65        25.38073
230.10        28.97974
230.56          33.279
231.02        37.09647
231.48        39.05724
231.93         39.1374
232.39        37.86921
232.85        35.93282
233.31        34.40662
233.77        33.62243
234.22        33.30357
234.68        33.24209
235.14        32.97023
235.60         32.3786
236.05        31.73962
236.51        31.32423
236.97        31.40557
237.43        32.11117
237.88        33.50293
238.34        35.39562
238.80        37.16716
239.26        38.32499
239.71        38.84846
240.17        39.07719
240.63        40.24267
241.08        42.69527
241.54        45.94324
242.00        49.17416
242.46        51.42964
242.91        52.69346
243.37        53.01371
243.83        53.70417
244.28        67.16794
244.74        105.1916
245.20        111.6759
245.66        104.1956
246.11        101.4637
246.57         102.611
247.03        108.4552
247.48        119.7594
247.94        90.18118
248.40        72.08549
248.85        69.15388
249.31        69.50425
249.77         71.1293
250.22         73.8614
250.68        78.36001
251.14        84.05565
251.59        85.50726
252.05        78.94596
252.51        67.77888
252.96        57.18771
253.42        51.46836
253.88        49.88294
254.33         50.8199
254.79        54.04998
255.25        58.60694
255.70        63.26406
256.16        67.75121
256.62        70.41454
257.07        69.59695
257.53        66.14208
257.99        60.81778
258.44        55.43951
258.90        52.89007
259.35        52.48098
259.81        53.10387
260.27        53.04783
260.72        50.67668
261.18        46.58834
261.63        41.53352
262.09         36.9762
262.55        34.03254
263.00        32.65187
263.46        32.31209
263.91         32.1208
264.37        31.29587
264.83        29.72975
265.28        27.63136
265.74        25.70233
266.19        24.78887
266.65        25.01196
267.11        25.86475
267.56        26.64967
268.02        26.52979
268.47        25.41971
268.93        23.62579
269.38        21.57825
269.84        20.24568
270.30        19.89896
270.75        20.25699
271.21        20.87328
271.66        21.08695
272.12        20.70643
272.57        19.96249
273.03        19.13428
273.48        18.55995
273.94        18.35193
274.39        18.34911
274.85        18.39724
275.31        18.29576
275.76        17.98392
276.22        17.54984
276.67        17.08862
277.13        16.79422
277.58        16.66272
278.04        16.65039
278.49        16.59987
278.95         16.3228
279.40        15.79087
279.86        15.12768
280.31        14.47415
280.77        14.12553
281.22        14.09414
281.68        14.28094
282.13        14.53993
282.59        14.67827
283.04        14.64914
283.50        14.53631
283.95         14.3591
284.41        14.15324
284.86         13.9396
285.32        13.70324
285.77         13.5172
286.22        13.54346
286.68        13.77147
287.13        14.14245
287.59         14.4731
288.04         14.4919
288.50         14.1775
288.95         13.6171
289.41        13.02132
289.86        12.62131
290.32        12.51736
290.77        12.62143
291.22        12.86222
291.68        13.09542
292.13        13.28737
292.59        13.48233
293.04        13.72539
293.50        14.08244
293.95        14.54973
294.40        15.06166
294.86        15.55411
295.31        15.95099
295.77        16.23592
296.22        16.44428
296.68        16.59133
297.13        16.67236
297.58        16.72517
298.04         16.7729
298.49         16.8923
298.95        17.23078
299.40        17.79462
299.85        18.52631
300.31         19.3013
300.76        19.93385
301.21         20.3519
301.67        20.62447
302.12        20.76981
302.58         20.8575
303.03        20.91151
303.48        20.92484
303.94        20.98365
304.39        21.19483
304.84        21.57128
305.30        22.07102
305.75         22.5614
306.20        22.83659
306.66        22.87348
307.11        22.73349
307.57        22.53857
308.02        22.41346
308.47         22.4209
308.93        22.51237
309.38        22.67462
309.83        22.91327
310.29        23.19431
310.74        23.50513
311.19        23.76879
311.65        23.86569
312.10        23.77589
312.55        23.53595
313.00        23.20679
313.46        22.90337
313.91        22.66446
314.36        22.48208
314.82        22.37293
315.27        22.34904
315.72        22.40482
316.18        22.53112
316.63        22.68411
317.08        22.76758
317.53        22.74965
317.99        22.63903
318.44         22.4769
318.89        22.33655
319.35        22.23392
319.80        22.15649
320.25         22.0584
320.70        21.86809
321.16        21.57996
321.61          21.224
322.06        20.87335
322.51        20.63299
322.97        20.51295
323.42        20.48465
323.87        20.46364
324.32        20.31133
324.78        19.99496
325.23         19.5625
325.68        19.09279
326.13        18.71482
326.59        18.46726
327.04        18.33409
327.49        18.27054
327.94        18.19986
328.39        18.09858
328.85        17.98158
329.30        17.90521
329.75        17.93748
330.20        18.08436
330.66        18.29037
331.11        18.49385
331.56        18.56258
332.01        18.45682
332.46        18.19766
332.92        17.84624
333.37        17.53198
333.82        17.30859
334.27        17.17375
334.72        17.07444
335.17        16.91245
335.63        16.66821
336.08        16.37292
336.53        16.14269
336.98        16.15768
337.43        16.43724
337.88        16.91861
338.34        17.38003
338.79        17.50497
339.24        17.19816
339.69         16.5468
340.14         15.8079
340.59        15.43548
341.05        15.53731
341.50        15.97631
341.95        16.49871
342.40        16.72639
342.85        16.57232
343.30        16.16918
343.75        15.65864
344.20        15.28774
344.66        15.13662
345.11        15.08165
345.56        15.09066
346.01        15.11687
346.46        15.12438
346.91        15.16108
347.36         15.1119
347.81        14.78144
348.26        14.17672
348.72        13.39483
349.17        12.66135
349.62        12.43369
350.07        12.79935
350.52        13.59317
350.97        14.53594
351.42        15.19762
351.87        15.45241
352.32         15.4202
352.77        15.19607
353.22        14.94117
353.67        14.72421
354.13        14.49523
354.58        14.27506
355.03        14.13828
355.48        14.09515
355.93        14.15526
356.38        14.24447
356.83        14.22423
357.28        14.06456
357.73         13.7969
358.18        13.51155
358.63        13.35534
359.08        13.35991
359.53        13.48251
359.98        13.62051
360.43        13.61598
360.88        13.43752
361.33        13.13329
361.78        12.81946
362.23         12.6834
362.68        12.75721
363.13        12.96496
363.58        13.17779
364.03        13.19762
364.48        12.98202
364.93        12.61142
365.38        12.17409
365.83        11.80753
366.28         11.5676
366.73        11.41532
367.18        11.35836
367.63        11.40927
368.08        11.54506
368.53         11.7505
368.98        11.95668
369.43        12.05142
369.88         12.0125
370.33        11.87596
370.78         11.6752
371.23         11.4776
371.68        11.31584
372.13        11.16512
372.58        11.07883
373.03        11.14238
373.48        11.35272
373.93        11.68148
374.38        11.99184
374.83        12.06999
375.28        11.87982
375.72        11.47695
376.17        11.02952
376.62        10.77383
377.07        10.77777
377.52        10.96558
377.97        11.23889
378.42         11.4367
378.87        11.50307
379.32          11.488
379.77        11.42483
380.22         11.3576
380.67        11.30432
381.11        11.24914
381.56        11.18214
382.01        11.10318
382.46        11.01328
382.91        10.91511
383.36        10.83357
383.81        10.80093
384.26        10.81931
384.71        10.88133
385.15        10.92706
385.60        10.87333
386.05        10.70417
386.50        10.43629
386.95        10.15902
387.40        10.02841
387.85        10.07778
388.29        10.25792
388.74        10.44342
389.19        10.46904
389.64        10.31433
390.09         10.0267
390.54        9.732914
390.98        9.644474
391.43        9.812175
391.88        10.14945
392.33        10.49818
392.78        10.62894
393.23        10.50872
393.67        10.22113
394.12        9.916696
394.57        9.763436
395.02        9.798734
395.47         9.96416
395.91         10.1837
396.36        10.30893
396.81        10.29166
397.26        10.16767
397.71        10.00208
398.15         9.87769
398.60        9.832892
399.05        9.846083
399.50        9.851694
399.95        9.731026
400.39        9.514954
400.84        9.204489
401.29        8.922226
401.74        8.869658
402.18        9.098235
402.63        9.524342
403.08        9.983312
403.53         10.2147
403.97        10.15534
404.42        9.883435
404.87        9.526807
405.32        9.310645
405.76        9.300465
406.21        9.418913
406.66        9.585938
407.11        9.692613
407.55        9.710986
408.00         9.68108
408.45        9.614866
408.90        9.524623
409.34        9.426208
409.79        9.310127
410.24        9.212973
410.68        9.190013
411.13         9.24818
411.58        9.381906
412.03        9.531185
412.47        9.586364
412.92        9.513754
413.37        9.342433
413.81        9.158092
414.26        9.106579
414.71        9.207818
415.15        9.420196
415.60        9.631086
416.05        9.679455
416.49        9.527343
416.94        9.239579
417.39        8.913591
417.83        8.715979
418.28        8.701876
418.73        8.806688
419.17        8.968563
419.62        9.083711
420.07         9.12403
420.51        9.123904
420.96        9.083134
421.41        8.995449
421.85         8.87015
422.30        8.721626
422.74         8.58548
423.19        8.538383
423.64         8.58101
424.08        8.700071
424.53        8.840016
424.98        8.919819
425.42         8.91653
425.87         8.84921
426.31        8.746369
426.76        8.686114
427.21        8.670732
427.65        8.617674
428.10        8.569952
428.54        8.643487
428.99        8.839672
429.44        9.111573
429.88        9.346011
430.33        9.388601
430.77        9.222281
431.22        8.896251
431.66         8.55961
432.11        8.473893
432.56        8.665058
433.00        9.012876
433.45        9.366816
433.89        9.576387
434.34        9.547575
434.78        9.249949
435.23        8.873866
435.67        8.755235
436.12        8.876716
436.57        8.913482
437.01        8.824304
437.46        8.762022
437.90        8.736047
438.35        8.706027
438.79        8.671631
439.24         8.65705
439.68        8.666449
440.13        8.653355
440.57        8.624931
441.02        8.708821
441.46        8.834066
441.91        8.697008
442.35        8.367579
442.80        8.202447
443.24        8.187905
443.69        8.196552
444.13        8.178294
444.58        8.060648
445.02         7.87164
445.47        7.796738
445.91        7.819845
446.36        7.777277
446.80        7.663109
447.24        7.574535
447.69        7.526873
448.13        7.487874
448.58        7.463697
449.02        7.463164
449.47        7.469369
449.91        7.452685
450.36        7.411289
450.80         7.34867
451.25        7.299182
451.69        7.308726
452.13        7.384915
452.58          7.4987
453.02        7.614865
453.47        7.669539
453.91        7.652907
454.36        7.588677
454.80        7.495552
455.24        7.408885
455.69        7.350554
456.13        7.306397
456.58        7.299945
457.02        7.353317
457.46        7.467788
457.91        7.630482
458.35        7.798732
458.79        7.891138
459.24        7.897843
459.68        7.828789
460.13        7.745511
460.57        7.717049
461.01          7.7712
461.46         7.87672
461.90        7.992935
462.34        8.038354
462.79        7.997417
463.23        7.893775
463.68        7.785176
464.12        7.761687
464.56        7.848428
465.01         8.01103
465.45        8.178074
465.89        8.272304
466.34        8.283905
466.78        8.196422
467.22         8.07463
467.67        8.106198
468.11        8.268921
468.55        8.314807
468.99        8.243112
469.44        8.221645
469.88        8.285131
470.32        8.448042
470.77        8.647066
471.21        8.717801
471.65        8.632566
472.10         8.50151
472.54        8.372239
472.98         8.30161
473.42         8.31528
473.87        8.398941
474.31        8.518009
474.75        8.609046
475.20        8.656693
475.64        8.671872
476.08        8.684088
476.52        8.738649
476.97        8.843796
477.41        8.988081
477.85        9.125138
478.29        9.199997
478.74        9.203037
479.18        9.104755
479.62        8.972327
480.06        9.061664
480.50        9.200397
480.95        9.386004
481.39        9.492021
481.83        9.518877
482.27        9.455767
482.72         9.25815
483.16        9.018137
483.60        9.003281
484.04        9.231848
484.48        9.432292
484.93        9.711892
485.37        10.08274
485.81        10.39525
486.25        10.78878
486.69        13.97818
487.14        10.94936
487.58        7.413013
488.02        9.236517
488.46        10.47698
488.90        10.46904
489.34        10.38213
489.79        10.36773
490.23        11.10787
490.67        11.54165
491.11        11.47857
491.55        11.34126
491.99        11.14058
492.43         10.9687
492.88        10.89324
493.32        10.90807
493.76        10.95156
494.20        11.14268
494.64        11.44528
495.08        11.81529
495.52        12.20509
495.96        12.56158
496.41        12.82796
496.85          12.998
497.29        13.07831
497.73        12.95937
498.17        12.80748
498.61        12.94051
499.05        13.36852
499.49          13.481
499.93          13.604
500.37        13.75464
500.82        13.88399
501.26         14.1152
501.70        14.37015
502.14        14.53084
502.58        14.57842
503.02        14.62515
503.46        14.67564
503.90        14.65587
504.34        14.58695
504.78        14.53997
505.22        14.53048
505.66        14.55043
506.10        14.58801
506.54        14.61882
506.98        14.63982
507.42        14.66175
507.86        14.71197
508.30        14.83136
508.74        15.02004
509.18        15.25361
509.62        15.48802
510.06        15.65275
510.50        15.72986
510.94        15.74671
511.38        15.72479
511.82        15.69953
512.26        15.68853
512.70        15.67787
513.14        15.69376
513.58        15.77879
514.02        15.92271
514.46        16.10501
514.90        16.26293
515.34        16.25859
515.78        16.04149
516.22        15.82028
516.66        15.67688
517.10        15.26474
517.54        14.61152
517.98        15.42894
518.42         15.1954
518.86        15.53878
519.30        15.68626
519.74         15.8779
520.18        16.06197
520.62        16.12317
521.06        16.07425
521.50        15.92256
521.93        15.72486
522.37        15.58865
522.81        15.54305
523.25        15.56195
523.69        15.61737
524.13         15.6637
524.57        15.68183
525.01        15.68232
525.45         15.6667
525.89        15.63574
526.32         15.5887
526.76        15.52489
527.20        15.43604
527.64        15.31898
528.08        15.18107
528.52        15.01368
528.96          14.843
529.40        14.74745
529.83        14.74539
530.27        14.66843
530.71        14.76367
531.15        14.72939
531.59        14.64025
532.03        14.50237
532.46        14.38399
532.90        14.40106
533.34        14.56056
533.78        14.81605
534.22         15.0601
534.66        15.13583
535.09        15.01063
535.53        14.74422
535.97        14.42824
536.41        14.21025
536.85        14.13686
537.28        14.17143
537.72        14.26351
538.16        14.32888
538.60        14.34314
539.04         14.3233
539.47        14.31043
539.91        14.39845
540.35        14.58138
540.79        14.77275
541.22        14.93001
541.66        15.04935
542.10        15.11848
542.54        15.11842
542.97        15.10006
543.41        15.16975
543.85        15.34341
544.29        15.59855
544.72        15.86448
545.16        16.03654
545.60         16.0939
546.04        16.06709
546.47        16.04641
546.91        16.18259
547.35        16.49288
547.79        16.92631
548.22         17.3634
548.66        17.60133
549.10        17.61085
549.53        17.48513
549.97        17.34038
550.41        17.30711
550.84        17.43019
551.28        17.67917
551.72        18.00459
552.15        18.31505
552.59        18.56801
553.03        18.78613
553.46        18.96717
553.90        19.12119
554.34        19.25957
554.77        19.35333
555.21        19.41039
555.65        19.50419
556.08        19.65081
556.52        19.59689
556.96          19.797
557.39        19.87511
557.83        19.97135
558.27         20.0673
558.70        20.17488
559.14        20.29758
559.57        20.42463
560.01        20.56312
560.45        20.67659
560.88        20.70749
561.32        20.67055
561.75        20.57702
562.19        20.49383
562.63        20.49393
563.06        20.58886
563.50        20.75537
563.93         20.9552
564.37        21.13553
564.80        21.27009
565.24        21.38427
565.68        21.47031
566.11        21.51836
566.55        21.55079
566.98        21.56283
567.42        21.60405
567.85        21.74688
568.29        22.01225
568.72        22.30939
569.16        22.60771
569.60        22.95749
570.03        23.24835
570.47        23.22746
570.90        23.02364
571.34        22.80942
571.77        23.12576
572.21        23.26267
572.64         23.4085
573.08        23.17714
573.51        22.61061
573.95        23.62465
574.38        25.03944
574.82        24.51192
