SpectraSmart Spectrum 2.9.0.0
--------- Device Information -----------
Spectrum Name :  反射率_0
Saving Time :  2024/04/26 00:49:46
Spectro-Module Model Name : SE2030-DUVN
Spectro-Module Serial Number : OS361AC55029948
Wavelength Start : 200
Wavelength End : 1025
Wavelength Unit : Wavelength(nm)
Spectrum Unit : Reflectance(%)
-----------Spectrum Setting ------------
Integration Time : 20ms
Average : 10
Boxcar : 0
Background removal :  enabled
linearity correction :  enabled
SC :  disabled
Intensity correction :  disabled
DWT denoise :  enabled
savitzky-golay :  disabled
FFT :  disabled
Running average :  disabled
Kalman :  disabled
High pass :  disabled
---------------BEGIN--------------------
Wavelength(nm)             Reflectance(%)
200.29               0
200.75        81.26623
201.21         75.7944
201.67        70.23232
202.13        67.30072
202.58        67.15128
203.04        69.43517
203.50        72.39478
203.96        73.01734
204.42        70.94514
204.88        67.52021
205.34        64.52981
205.80        63.77271
206.26         65.9579
206.72        72.66998
207.18        87.33913
207.64        103.1678
208.10        99.71292
208.55        85.07356
209.01        75.04207
209.47        72.13835
209.93        73.70012
210.39        78.21661
210.85         83.1218
211.31        83.02448
211.77        76.53349
212.23        65.91367
212.69        55.96201
213.14        53.97888
213.60        60.93812
214.06        74.52473
214.52        89.48525
214.98        97.74964
215.44        97.33064
215.90        91.04208
216.36        82.25568
216.81        75.65656
217.27        72.87566
217.73        72.34227
218.19        72.33575
218.65        70.58871
219.11        66.17229
219.57        58.79039
220.02        49.62673
220.48        45.15369
220.94        48.54105
221.40        57.73661
221.86        65.88319
222.32        66.17947
222.77        59.63305
223.23        50.36841
223.69        42.57613
224.15        40.53241
224.61        43.76226
225.06        50.17165
225.52        56.68933
225.98        59.48644
226.44        57.89811
226.90        53.56005
227.36        48.71636
227.81        46.36612
228.27         47.3796
228.73        50.45104
229.19         54.1198
229.65        56.27498
230.10        56.48593
230.56         55.7109
231.02        54.78643
231.48        54.62574
231.93        55.29954
232.39         56.4138
232.85        57.58601
233.31         58.3494
233.77        58.53401
234.22        58.29438
234.68        57.70798
235.14        56.90633
235.60        56.02716
236.05        55.10176
236.51        54.16936
236.97        53.16802
237.43        52.08018
237.88        51.02504
238.34        50.14911
238.80        50.07775
239.26        51.11708
239.71         53.1814
240.17        55.83472
240.63        58.76076
241.08         61.7074
241.54        64.48019
242.00        66.80875
242.46        68.56651
242.91        70.19083
243.37        71.86856
243.83        76.34486
244.28        97.74023
244.74        135.0345
245.20        130.2304
245.66        118.2091
246.11        114.5684
246.57         116.467
247.03        125.7721
247.48        146.9941
247.94        110.0427
248.40        80.88165
248.85        74.80925
249.31        74.28223
249.77        75.80751
250.22         78.9019
250.68        84.27173
251.14        91.75497
251.59        96.09833
252.05        92.56326
252.51        83.75833
252.96        74.41951
253.42        69.17153
253.88        67.53866
254.33        67.84863
254.79        70.13453
255.25        73.81289
255.70        77.83443
256.16        82.03961
256.62        84.71533
257.07        84.09908
257.53         81.0592
257.99        76.28206
258.44        71.45964
258.90        69.45929
259.35        69.40211
259.81        70.20341
260.27        70.16891
260.72        67.67752
261.18        63.45634
261.63        58.24636
262.09        53.44057
262.55        49.96386
263.00        47.82305
263.46        46.66323
263.91        45.82749
264.37        44.90073
264.83        43.67975
265.28        42.21279
265.74        40.83973
266.19        39.79381
266.65        39.24218
267.11        38.98653
267.56        38.72445
268.02        38.09796
268.47        37.01569
268.93        35.61383
269.38        34.11501
269.84        33.11755
270.30        32.76617
270.75        32.90413
271.21        33.18958
271.66        33.10692
272.12        32.52797
272.57         31.6163
273.03        30.66931
273.48        30.05161
273.94           29.87
274.39        29.94245
274.85        30.06977
275.31        29.95078
275.76        29.50913
276.22        28.89054
276.67         28.2059
277.13        27.70635
277.58        27.39698
278.04        27.22558
278.49        27.06753
278.95        26.81782
279.40        26.41849
279.86        25.96844
280.31        25.47953
280.77        25.07971
281.22        24.75421
281.68        24.49432
282.13        24.26731
282.59        24.06829
283.04        23.87848
283.50        23.73394
283.95        23.58797
284.41        23.39034
284.86        23.12918
285.32        22.83076
285.77        22.57352
286.22        22.53836
286.68          22.719
287.13        23.02405
287.59         23.2867
288.04        23.25085
288.50        22.89895
288.95        22.30892
289.41        21.65185
289.86        21.07941
290.32        20.69998
290.77        20.45476
291.22        20.35725
291.68        20.38671
292.13        20.53028
292.59        20.79685
293.04        21.16028
293.50        21.57564
293.95        22.00709
294.40        22.42466
294.86        22.80932
295.31        23.15144
295.77        23.45286
296.22        23.71952
296.68        23.94062
297.13         24.0742
297.58         24.1437
298.04        24.18731
298.49        24.29081
298.95         24.6167
299.40         25.1778
299.85        25.91809
300.31        26.71036
300.76        27.36328
301.21        27.80507
301.67        28.10793
302.12        28.30189
302.58        28.48736
303.03        28.68106
303.48        28.86856
303.94        29.09752
304.39        29.40974
304.84        29.81074
305.30        30.27769
305.75        30.72309
306.20        31.01945
306.66        31.16006
307.11        31.17408
307.57        31.13971
308.02        31.10212
308.47        31.11567
308.93        31.16331
309.38         31.2697
309.83        31.50435
310.29         31.8515
310.74        32.27279
311.19        32.67019
311.65         32.8923
312.10        32.90463
312.55        32.75306
313.00        32.49897
313.46        32.25874
313.91        32.06951
314.36        31.91787
314.82        31.82286
315.27        31.79524
315.72        31.83766
316.18        31.94943
316.63        32.09116
317.08        32.16947
317.53        32.15556
317.99        32.05457
318.44        31.92353
318.89        31.86237
319.35        31.88191
319.80        31.95922
320.25        31.99943
320.70        31.85025
321.16        31.49096
321.61         30.9817
322.06        30.44847
322.51        30.07946
322.97        29.90795
323.42         29.8875
323.87        29.91861
324.32        29.83338
324.78        29.58319
325.23        29.23075
325.68        28.83927
326.13        28.51463
326.59        28.28754
327.04        28.14177
327.49        28.05403
327.94        27.99311
328.39        27.94544
328.85        27.91309
329.30        27.92232
329.75        27.97067
330.20        28.05098
330.66        28.13132
331.11        28.20565
331.56        28.22344
332.01        28.16885
332.46        28.04191
332.92        27.85498
333.37        27.67129
333.82        27.50602
334.27        27.37088
334.72        27.24198
335.17        27.07407
335.63        26.86315
336.08        26.62915
336.53        26.45403
336.98        26.47011
337.43        26.69156
337.88        27.07771
338.34        27.45667
338.79        27.59715
339.24        27.42261
339.69        26.99796
340.14        26.52069
340.59        26.33954
341.05        26.52807
341.50        26.96895
341.95        27.46029
342.40        27.70781
342.85        27.64409
343.30        27.37581
343.75        26.99692
344.20        26.67379
344.66        26.47376
345.11         26.3114
345.56         26.2084
346.01        26.19559
346.46        26.25557
346.91        26.40496
347.36        26.50559
347.81        26.32683
348.26        25.85778
348.72        25.20506
349.17        24.57213
349.62         24.3777
350.07        24.70437
350.52        25.39227
350.97        26.21199
351.42        26.81368
351.87        27.08706
352.32        27.13382
352.77        26.99302
353.22         26.7333
353.67        26.40732
354.13        25.99987
354.58        25.59422
355.03        25.36582
355.48        25.34712
355.93        25.51168
356.38        25.73046
356.83        25.77947
357.28        25.60322
357.73        25.25904
358.18        24.86733
358.63        24.62217
359.08         24.5707
359.53        24.65504
359.98        24.76007
360.43        24.70952
360.88        24.46943
361.33        24.10109
361.78        23.73229
362.23        23.56572
362.68         23.6368
363.13        23.85982
363.58        24.10006
364.03        24.15207
364.48        23.96627
364.93        23.62158
365.38        23.19398
365.83        22.80293
366.28        22.50157
366.73        22.25604
367.18        22.09261
367.63        22.05481
368.08        22.13287
368.53        22.31159
368.98        22.50845
369.43        22.58746
369.88        22.51975
370.33        22.34258
370.78        22.11256
371.23        21.93564
371.68        21.84696
372.13        21.80681
372.58        21.81504
373.03        21.86947
373.48        21.95281
373.93        22.07111
374.38        22.15686
374.83        22.10079
375.28        21.89134
375.72          21.551
376.17        21.20266
376.62         21.0103
377.07        21.01358
377.52         21.1546
377.97        21.34569
378.42        21.44312
378.87        21.40324
379.32        21.27543
379.77         21.0929
380.22        20.90076
380.67        20.71822
381.11        20.52998
381.56        20.34981
382.01        20.21214
382.46        20.12591
382.91        20.09188
383.36        20.08425
383.81        20.05392
384.26        19.98959
384.71        19.90276
385.15        19.81218
385.60        19.76337
386.05        19.75198
386.50        19.75267
386.95         19.7432
387.40        19.68973
387.85        19.59171
388.29        19.47378
388.74        19.34911
389.19        19.19396
389.64        19.01141
390.09        18.79675
390.54        18.61935
390.98        18.59498
391.43        18.74343
391.88        19.01219
392.33        19.27002
392.78        19.32291
393.23        19.15126
393.67          18.821
394.12        18.48603
394.57        18.29791
395.02        18.29119
395.47        18.40943
395.91        18.59442
396.36         18.7163
396.81        18.73249
397.26        18.66759
397.71        18.55396
398.15         18.4199
398.60         18.3077
399.05        18.21561
399.50        18.11449
399.95        17.91195
400.39        17.68539
400.84        17.39768
401.29        17.15756
401.74        17.12369
402.18        17.33638
402.63        17.71856
403.08         18.1397
403.53        18.39077
403.97        18.41582
404.42        18.27145
404.87        18.03473
405.32        17.84594
405.76          17.753
406.21         17.7183
406.66        17.71829
407.11        17.72561
407.55        17.73265
408.00        17.75117
408.45        17.76752
408.90        17.73958
409.34        17.66147
409.79        17.54567
410.24        17.43701
410.68        17.40032
411.13        17.45055
411.58        17.57079
412.03        17.71803
412.47        17.81719
412.92        17.83205
413.37        17.78521
413.81        17.71899
414.26        17.71747
414.71        17.78688
415.15        17.89936
415.60         17.9922
416.05        17.98567
416.49        17.86263
416.94        17.66708
417.39        17.43909
417.83        17.24657
418.28        17.12573
418.73        17.04934
419.17        17.03171
419.62        17.08528
420.07        17.20077
420.51        17.37584
420.96        17.53744
421.41        17.55869
421.85        17.41316
422.30        17.16213
422.74        16.89725
423.19        16.78877
423.64        16.85171
424.08        17.04768
424.53         17.2782
424.98        17.40104
425.42        17.37738
425.87        17.24057
426.31        17.05628
426.76         16.9751
427.21        17.00257
427.65        16.98235
428.10        16.95384
428.54         17.0859
428.99         17.3735
429.44        17.73727
429.88        18.02483
430.33        18.05431
430.77        17.80241
431.22         17.3273
431.66        16.82839
432.11        16.69558
432.56        16.96008
433.00        17.37947
433.45        17.75698
433.89        18.08611
434.34        18.20272
434.78        17.75292
435.23        17.07467
435.67        16.98694
436.12        17.44414
436.57        17.70574
437.01        17.66064
437.46        17.62988
437.90        17.62926
438.35        17.56462
438.79        17.45819
439.24        17.39536
439.68        17.39897
440.13        17.37392
440.57        17.33826
441.02        17.55521
441.46        17.88315
441.91        17.70733
442.35        17.14794
442.80        16.89078
443.24        16.91871
443.69        16.96999
444.13        16.97803
444.58        16.83549
445.02        16.60676
445.47        16.65735
445.91        16.92375
446.36         16.9941
446.80        16.83898
447.24        16.69193
447.69        16.60723
448.13        16.56002
448.58        16.57026
449.02        16.63859
449.47        16.72576
449.91        16.76555
450.36        16.74447
450.80        16.67702
451.25        16.60195
451.69        16.56768
452.13        16.58882
452.58        16.63684
453.02        16.68946
453.47        16.71066
453.91        16.69429
454.36          16.661
454.80        16.61063
455.24        16.54026
455.69        16.46574
456.13        16.37896
456.58        16.33345
457.02        16.38346
457.46        16.53891
457.91        16.77256
458.35        17.00943
458.79        17.12544
459.24        17.10481
459.68        16.97002
460.13        16.81342
460.57         16.7375
461.01        16.78482
461.46        16.91631
461.90        17.07242
462.34        17.15243
462.79        17.12759
463.23        17.02224
463.68        16.90795
464.12        16.90729
464.56        17.04623
465.01        17.29226
465.45        17.51267
465.89        17.57929
466.34        17.48573
466.78         17.1827
467.22        16.83578
467.67        16.87966
468.11        17.27346
468.55        17.49112
468.99        17.46462
469.44        17.44109
469.88        17.47383
470.32        17.62776
470.77        17.84233
471.21         17.8883
471.65         17.7452
472.10        17.59229
472.54        17.48759
472.98        17.46555
473.42         17.5471
473.87        17.72692
474.31         17.9386
474.75        18.07212
475.20        18.10601
475.64        18.06166
476.08        17.99568
476.52        17.99543
476.97        18.08283
477.41        18.23391
477.85          18.393
478.29        18.50639
478.74        18.56198
479.18        18.48926
479.62        18.34993
480.06        18.54994
480.50        18.71961
480.95        18.89025
481.39        18.90546
481.83        18.91882
482.27        18.93051
482.72        18.78356
483.16        18.55764
483.60        18.64399
484.04        19.04615
484.48        19.19024
484.93        19.33481
485.37        19.79235
485.81        20.39704
486.25        20.65309
486.69        26.85382
487.14        21.45512
487.58        13.99859
488.02        17.40959
488.46        19.80406
488.90        19.93918
489.34         20.2209
489.79        20.03673
490.23        20.93744
490.67         21.5126
491.11         21.5258
491.55        21.53649
491.99        21.46622
492.43        21.33017
492.88        21.19505
493.32        21.17838
493.76        21.16802
494.20        21.34474
494.64        21.65419
495.08        22.05088
495.52        22.47475
495.96        22.84599
496.41        23.08587
496.85         23.2189
497.29        23.26124
497.73        22.98352
498.17        22.67046
498.61        22.89269
499.05         23.6505
499.49        23.82872
499.93        23.99237
500.37        24.17923
500.82        24.30135
501.26        24.56535
501.70        24.84414
502.14        24.94425
502.58        24.87014
503.02        24.86808
503.46        24.95811
503.90        24.99823
504.34        24.99759
504.78        25.03386
505.22        25.11241
505.66        25.21998
506.10        25.33029
506.54        25.39588
506.98        25.40984
507.42        25.39068
507.86        25.38534
508.30        25.46625
508.74          25.644
509.18        25.88784
509.62        26.14847
510.06        26.34527
510.50        26.45317
510.94        26.49945
511.38        26.50157
511.82        26.48736
512.26        26.47353
512.70        26.45099
513.14        26.44276
513.58        26.48837
514.02        26.58359
514.46        26.71157
514.90        26.83504
515.34        26.85925
515.78        26.74186
516.22        26.65661
516.66        26.64252
517.10        26.34502
517.54        25.77582
517.98         26.4379
518.42        26.17182
518.86          26.447
519.30        26.60421
519.74        26.83599
520.18        27.07393
520.62        27.18008
521.06        27.15511
521.50        27.01903
521.93        26.83482
522.37        26.71632
522.81        26.69475
523.25        26.73669
523.69        26.81205
524.13        26.87396
524.57        26.90322
525.01        26.91441
525.45        26.90338
525.89        26.86151
526.32        26.78709
526.76        26.68073
527.20        26.55309
527.64        26.43278
528.08        26.33372
528.52        26.22928
528.96        26.10903
529.40         26.0259
529.83         25.9952
530.27        25.74387
530.71        25.78104
531.15        25.69553
531.59        25.64134
532.03        25.59741
532.46         25.5977
532.90        25.69359
533.34        25.87226
533.78        26.10883
534.22         26.3177
534.66        26.37541
535.09        26.25779
535.53        26.01595
535.97         25.7308
536.41        25.53898
536.85        25.48256
537.28        25.52837
537.72        25.62853
538.16        25.70441
538.60        25.73207
539.04        25.71769
539.47        25.69473
539.91        25.77763
540.35        25.94867
540.79        26.08049
541.22        26.15386
541.66        26.24614
542.10        26.35211
542.54        26.41415
542.97        26.46509
543.41        26.59997
543.85        26.82349
544.29        27.11572
544.72        27.40297
545.16        27.58249
545.60        27.63316
546.04        27.58441
546.47        27.53573
546.91         27.6554
547.35         27.9649
547.79        28.41777
548.22        28.88056
548.66        29.12336
549.10         29.1156
549.53        28.96982
549.97        28.82463
550.41        28.82152
550.84        29.00851
551.28        29.35708
551.72        29.78425
552.15        30.12217
552.59        30.31522
553.03        30.43414
553.46        30.53195
553.90        30.57846
554.34        30.81886
554.77         31.0127
555.21         31.1773
555.65         31.3277
556.08        31.46991
556.52        31.22583
556.96        31.37468
557.39        31.40198
557.83        31.55006
558.27        31.76258
558.70        32.01719
559.14         32.2616
559.57        32.45836
560.01        32.63242
560.45        32.75534
560.88        32.78164
561.32        32.73693
561.75        32.62297
562.19        32.50793
562.63        32.44792
563.06        32.45944
563.50        32.54677
563.93        32.68378
564.37        32.83337
564.80        32.96884
565.24        33.11308
565.68        33.24904
566.11        33.35048
566.55        33.43941
566.98        33.51503
567.42        33.60691
567.85        33.75656
568.29        33.99068
568.72        34.19607
569.16        34.42559
569.60        34.82759
570.03        35.23758
570.47        35.36073
570.90        35.32925
571.34        34.71512
571.77        35.28431
572.21        35.27622
572.64         35.1888
573.08        34.74794
573.51        33.65596
573.95         35.2065
574.38        37.52506
574.82        36.50779
