SpectraSmart Spectrum 2.9.0.0
--------- Device Information -----------
Spectrum Name :  反射率_0
Saving Time :  2024/04/26 00:07:52
Spectro-Module Model Name : SE2030-DUVN
Spectro-Module Serial Number : OS361AC55029948
Wavelength Start : 200
Wavelength End : 1025
Wavelength Unit : Wavelength(nm)
Spectrum Unit : Reflectance(%)
-----------Spectrum Setting ------------
Integration Time : 20ms
Average : 10
Boxcar : 0
Background removal :  enabled
linearity correction :  enabled
SC :  disabled
Intensity correction :  disabled
DWT denoise :  enabled
savitzky-golay :  disabled
FFT :  disabled
Running average :  disabled
Kalman :  disabled
High pass :  disabled
---------------BEGIN--------------------
Wavelength(nm)             Reflectance(%)
200.29               0
200.75        78.47424
201.21        70.62756
201.67        61.17691
202.13        55.20593
202.58        53.39597
203.04        54.58222
203.50        57.39746
203.96        59.42344
204.42        59.81974
204.88        59.46376
205.34        58.94695
205.80        58.79449
206.26        59.24487
206.72        60.43903
207.18        62.43927
207.64        62.98583
208.10        59.49643
208.55        55.37159
209.01        53.39011
209.47         53.6849
209.93        55.43921
210.39        58.62492
210.85        61.58389
211.31        60.66665
211.77        55.12202
212.23        46.44878
212.69        38.36871
213.14        36.66927
213.60        42.14249
214.06        53.28742
214.52        66.04755
214.98        74.08858
215.44        75.66136
215.90        72.56249
216.36        67.51653
216.81        64.32605
217.27        64.06309
217.73        65.35606
218.19        66.12302
218.65        63.52866
219.11         56.4228
219.57        44.04411
220.02         27.7749
220.48        17.03531
220.94        17.69641
221.40        27.81373
221.86        38.86423
222.32        41.57598
222.77        36.55762
223.23        28.43542
223.69        21.72595
224.15        21.03451
224.61        25.86944
225.06        33.83343
225.52        41.79749
225.98        45.91473
226.44        45.44455
226.90        42.11956
227.36        37.86895
227.81        35.23109
228.27        35.13936
228.73         36.5344
229.19         38.7324
229.65        40.75378
230.10        42.17257
230.56        43.27844
231.02        44.16539
231.48        44.88479
231.93        45.47625
232.39        45.92074
232.85        46.15966
233.31        46.18695
233.77        45.99176
234.22        45.53759
234.68        44.98428
235.14        44.58335
235.60        44.43139
236.05        44.55303
236.51         44.6389
236.97         44.1291
237.43        42.90342
237.88        41.03978
238.34        39.04847
238.80        38.54203
239.26        40.32159
239.71        44.11206
240.17         48.7324
240.63        52.39564
241.08         54.4665
241.54        55.24371
242.00        55.20444
242.46        55.11714
242.91        55.38437
243.37        55.46943
243.83        56.87732
244.28        71.09102
244.74        104.7118
245.20        109.0549
245.66        100.8382
246.11        94.88043
246.57        88.38275
247.03        73.45041
247.48        20.52438
247.94      -0.5176563
248.40        43.76482
248.85        62.73016
249.31        71.34991
249.77        76.57856
250.22        81.30564
250.68        87.40186
251.14        94.46909
251.59        96.43741
252.05        88.89501
252.51        75.66243
252.96        63.15049
253.42        56.69792
253.88        55.50463
254.33        57.67386
254.79        62.59354
255.25        68.61108
255.70        74.24177
256.16        79.45426
256.62         82.6397
257.07        82.19689
257.53        79.07198
257.99        73.95521
258.44        68.67857
258.90        66.25149
259.35        65.90372
259.81        66.59405
260.27        66.53763
260.72        64.01719
261.18        59.74506
261.63        54.46969
262.09        49.73485
262.55        46.66294
263.00        45.15714
263.46        44.69002
263.91         44.3604
264.37        43.48001
264.83        41.89296
265.28        39.80111
265.74        37.76963
266.19        36.40235
266.65        35.91642
267.11        35.94578
267.56        36.03434
268.02        35.64774
268.47        34.66999
268.93        33.30013
269.38        31.76794
269.84        30.67609
270.30         30.1877
270.75        30.14233
271.21        30.24617
271.66        30.06657
272.12        29.48522
272.57        28.64305
273.03        27.79473
273.48        27.23552
273.94        27.05064
274.39        27.08675
274.85        27.14282
275.31        26.92188
275.76        26.35944
276.22        25.59376
276.67        24.78228
277.13        24.23871
277.58        23.97322
278.04        23.90514
278.49        23.84818
278.95        23.59562
279.40        23.08756
279.86        22.46392
280.31        21.80379
280.77        21.32843
281.22        21.04481
281.68        20.89535
282.13        20.82113
282.59        20.77159
283.04        20.71438
283.50        20.69915
283.95        20.65392
284.41         20.4844
284.86        20.17951
285.32        19.77007
285.77        19.40413
286.22        19.36512
286.68        19.66121
287.13        20.17809
287.59        20.65616
288.04        20.70169
288.50        20.27935
288.95        19.52206
289.41         18.7069
289.86        18.14997
290.32        17.97644
290.77        18.05559
291.22        18.29764
291.68        18.53059
292.13        18.70342
292.59        18.87817
293.04        19.07345
293.50        19.31323
293.95        19.59792
294.40        19.88356
294.86        20.17002
295.31        20.47837
295.77        20.81204
296.22        21.17406
296.68        21.52676
297.13        21.77531
297.58        21.92545
298.04        22.02378
298.49        22.16195
298.95        22.51737
299.40        23.10714
299.85        23.86212
300.31        24.66453
300.76        25.34015
301.21        25.81964
301.67        26.17741
302.12        26.41472
302.58        26.58477
303.03        26.70195
303.48        26.76168
303.94        26.87014
304.39         27.1592
304.84        27.64672
305.30        28.28626
305.75        28.90418
306.20        29.23668
306.66        29.25758
307.11        29.04494
307.57         28.7875
308.02        28.69912
308.47         28.8578
308.93        29.18246
309.38        29.58782
309.83        29.97012
310.29        30.27254
310.74        30.51905
311.19        30.69301
311.65        30.76532
312.10        30.74049
312.55          30.629
313.00        30.45972
313.46        30.29613
313.91        30.15586
314.36        30.04296
314.82        29.99149
315.27        30.03393
315.72        30.17188
316.18        30.38626
316.63        30.61135
317.08        30.71618
317.53        30.66533
317.99        30.48372
318.44        30.25096
318.89        30.09991
319.35        30.05816
319.80        30.09769
320.25        30.13566
320.70        30.03669
321.16        29.77518
321.61        29.39975
322.06        29.00712
322.51        28.74032
322.97        28.62158
323.42        28.61641
323.87        28.63256
324.32        28.51918
324.78        28.23878
325.23        27.84783
325.68        27.43318
326.13        27.13826
326.59         26.9985
327.04        26.98961
327.49        27.04389
327.94        27.05275
328.39        26.98225
328.85        26.85254
329.30        26.73831
329.75        26.72499
330.20        26.83374
330.66        27.01317
331.11        27.21132
331.56        27.30364
332.01         27.2545
332.46        27.08236
332.92        26.84936
333.37        26.70361
333.82        26.68214
334.27        26.76779
334.72         26.8618
335.17        26.79505
335.63        26.53172
336.08         26.1301
336.53         25.7512
336.98        25.65359
337.43        25.88577
337.88        26.36969
338.34        26.87936
338.79         27.0925
339.24        26.90376
339.69         26.4083
340.14        25.83403
340.59        25.58029
341.05        25.74079
341.50        26.18117
341.95        26.68711
342.40        26.94861
342.85        26.89314
343.30        26.63516
343.75        26.27415
344.20        25.98192
344.66        25.82421
345.11        25.70768
345.56        25.64434
346.01        25.65399
346.46        25.71555
346.91        25.84721
347.36        25.91498
347.81        25.69585
348.26         25.1815
348.72        24.47829
349.17        23.79074
349.62        23.53706
350.07        23.80718
350.52         24.4543
350.97        25.25059
351.42        25.84646
351.87        26.13088
352.32        26.19436
352.77        26.09666
353.22        25.94006
353.67        25.77073
354.13        25.55706
354.58        25.31048
355.03        25.09535
355.48         24.9289
355.93        24.82353
356.38        24.74635
356.83         24.6269
357.28        24.44793
357.73        24.22253
358.18        23.99541
358.63        23.83747
359.08        23.76179
359.53        23.74962
359.98        23.73151
360.43        23.60158
360.88        23.34344
361.33        22.98846
361.78          22.638
362.23        22.45626
362.68        22.47078
363.13        22.62034
363.58        22.78202
364.03        22.76414
364.48         22.5249
364.93        22.13331
365.38        21.68221
365.83        21.32108
366.28        21.09831
366.73        20.96363
367.18        20.89307
367.63         20.8487
368.08        20.80548
368.53        20.77969
368.98        20.73616
369.43        20.61125
369.88        20.40185
370.33        20.13016
370.78        19.84905
371.23        19.65505
371.68        19.57599
372.13        19.57722
372.58        19.64474
373.03        19.74923
373.48        19.86214
373.93        19.98693
374.38        20.06182
374.83        19.99336
375.28        19.77294
375.72        19.41689
376.17        19.04372
376.62        18.80993
377.07        18.75734
377.52        18.83901
377.97        18.97459
378.42        19.02946
378.87        18.96493
379.32        18.82705
379.77        18.65657
380.22        18.50893
380.67        18.40129
381.11        18.31392
381.56        18.23395
382.01        18.15344
382.46        18.06838
382.91        17.98311
383.36        17.90546
383.81        17.84307
384.26        17.79596
384.71        17.76236
385.15        17.71345
385.60        17.61967
386.05        17.46924
386.50         17.2646
386.95        17.05368
387.40        16.92204
387.85        16.89184
388.29        16.93822
388.74        16.99309
389.19         16.9405
389.64        16.76535
390.09        16.49182
390.54        16.22216
390.98        16.12765
391.43        16.24944
391.88        16.52048
392.33         16.7911
392.78        16.84257
393.23        16.65007
393.67        16.28914
394.12        15.93222
394.57         15.7621
395.02        15.81398
395.47        16.02098
395.91        16.28471
396.36        16.40734
396.81        16.33406
397.26        16.12127
397.71        15.85711
398.15        15.65432
398.60        15.56803
399.05        15.56234
399.50        15.57745
399.95        15.48842
400.39        15.34683
400.84        15.13416
401.29        14.94461
401.74        14.91403
402.18        15.08008
402.63          15.374
403.08        15.68969
403.53        15.85822
403.97        15.83784
404.42        15.68151
404.87        15.46486
405.32        15.32044
405.76        15.28912
406.21        15.33012
406.66        15.40983
407.11        15.48803
407.55        15.55309
408.00        15.61664
408.45        15.66328
408.90        15.65136
409.34        15.57419
409.79        15.44342
410.24        15.30804
410.68        15.23773
411.13         15.2504
411.58        15.33445
412.03         15.4465
412.47        15.51009
412.92        15.49233
413.37        15.41328
413.81        15.33073
414.26        15.34945
414.71        15.47709
415.15        15.68272
415.60        15.86616
416.05        15.88782
416.49        15.72064
416.94        15.42425
417.39        15.09824
417.83        14.91159
418.28        14.91865
418.73        15.05394
419.17        15.25482
419.62        15.42118
420.07        15.51985
420.51        15.58186
420.96        15.59079
421.41        15.51568
421.85        15.36103
422.30        15.15828
422.74        14.95815
423.19        14.87053
423.64        14.89917
424.08        15.02411
424.53        15.18401
424.98         15.2958
425.42        15.33546
425.87        15.31845
426.31        15.26061
426.76        15.23453
427.21        15.23205
427.65        15.12992
428.10        15.01448
428.54        15.11897
428.99        15.45474
429.44        15.91985
429.88        16.32353
430.33        16.41952
430.77        16.17051
431.22        15.66289
431.66        15.11494
432.11         14.9165
432.56        15.10635
433.00        15.48999
433.45         15.8848
433.89        16.17489
434.34        16.24436
434.78        15.98599
435.23        15.62921
435.67        15.65853
436.12        16.02286
436.57        16.16864
437.01        16.03666
437.46        15.93641
437.90        15.90289
438.35        15.85005
438.79        15.77872
439.24        15.73387
439.68        15.72869
440.13        15.69012
440.57        15.64892
441.02          15.858
441.46        16.19101
441.91         16.0934
442.35        15.65487
442.80        15.44642
443.24        15.46694
443.69        15.56641
444.13        15.65768
444.58        15.52485
445.02        15.22262
445.47         15.1484
445.91        15.27769
446.36        15.27404
446.80        15.12617
447.24        15.03482
447.69        15.01818
448.13        15.00205
448.58        14.99316
449.02        15.00886
449.47        15.03944
449.91        15.06674
450.36        15.08823
450.80        15.09865
451.25        15.11346
451.69        15.14765
452.13        15.20439
452.58        15.26513
453.02        15.31542
453.47        15.33003
453.91        15.30721
454.36        15.26248
454.80        15.19638
455.24        15.10936
455.69        15.01835
456.13        14.91872
456.58        14.85959
457.02        14.88918
457.46        15.01534
457.91        15.21099
458.35        15.41101
458.79        15.50539
459.24        15.48059
459.68        15.35796
460.13        15.21192
460.57        15.11963
461.01        15.12021
461.46        15.18192
461.90        15.27345
462.34        15.33629
462.79        15.34946
463.23        15.32351
463.68         15.2941
464.12        15.31981
464.56        15.41262
465.01        15.56219
465.45        15.67685
465.89        15.67854
466.34         15.5697
466.78        15.29456
467.22        14.99219
467.67        15.03711
468.11        15.38852
468.55        15.58488
468.99        15.56366
469.44        15.54028
469.88        15.56225
470.32        15.68474
470.77        15.86275
471.21        15.91029
471.65        15.80932
472.10        15.71307
472.54        15.65328
472.98        15.63053
473.42        15.65895
473.87        15.74565
474.31        15.85228
474.75         15.9116
475.20        15.91303
475.64        15.86604
476.08        15.81161
476.52        15.81256
476.97        15.88284
477.41        16.00707
477.85        16.13375
478.29        16.21171
478.74        16.22947
479.18        16.12249
479.62         15.9555
480.06        16.09733
480.50        16.23033
480.95         16.3829
481.39        16.39651
481.83        16.36783
482.27        16.28824
482.72        16.03189
483.16        15.71725
483.60        15.73042
484.04        16.09484
484.48        16.36383
484.93         16.6747
485.37        17.06368
485.81        17.46219
486.25        17.49533
486.69        23.25446
487.14        18.42654
487.58        12.28405
488.02        14.98047
488.46        17.11965
488.90        16.92086
489.34        16.96986
489.79        16.79095
490.23        17.70455
490.67         18.3048
491.11        18.30462
491.55        18.16023
491.99         17.8574
492.43        17.61727
492.88        17.52846
493.32        17.55311
493.76        17.57536
494.20        17.77176
494.64        18.08524
495.08        18.46284
495.52        18.84915
495.96        19.18374
496.41        19.39394
496.85        19.47342
497.29        19.45157
497.73        19.18911
498.17        18.93188
498.61        19.13624
499.05        19.79257
499.49        19.95391
499.93         20.0876
500.37        20.23172
500.82         20.3206
501.26        20.54052
501.70        20.78654
502.14        20.88821
502.58        20.84499
503.02        20.85826
503.46        20.94047
503.90        20.97416
504.34        20.95854
504.78        20.94417
505.22        20.93748
505.66        20.93745
506.10        20.94124
506.54        20.94149
506.98        20.94282
507.42        20.94959
507.86        20.99493
508.30        21.12931
508.74        21.35043
509.18        21.62981
509.62        21.90522
510.06        22.07512
510.50        22.11557
510.94        22.06535
511.38        21.96232
511.82        21.86842
512.26        21.81094
512.70        21.76903
513.14        21.77076
513.58        21.86068
514.02        22.02609
514.46        22.24713
514.90        22.44614
515.34        22.46315
515.78        22.24608
516.22        21.99728
516.66        21.81407
517.10         21.4127
517.54        20.82815
517.98        21.63298
518.42         21.4762
518.86        21.84515
519.30        22.01561
519.74        22.21731
520.18        22.39777
520.62        22.44222
521.06        22.36522
521.50        22.17724
521.93        21.94825
522.37        21.80752
522.81        21.78748
523.25        21.85217
523.69        21.96151
524.13        22.04973
524.57        22.09222
525.01        22.10947
525.45        22.09739
525.89        22.04824
526.32        21.96444
526.76         21.8467
527.20        21.71688
527.64        21.62142
528.08        21.57288
528.52        21.53779
528.96        21.49202
529.40        21.45402
529.83        21.42888
530.27        21.20053
530.71        21.18665
531.15        21.04576
531.59        20.91008
532.03        20.76514
532.46        20.66425
532.90        20.69383
533.34        20.85124
533.78        21.10342
534.22        21.34722
534.66        21.43019
535.09        21.31915
535.53        21.06857
535.97         20.7682
536.41        20.56765
536.85        20.51228
537.28         20.5654
537.72         20.6687
538.16        20.72675
538.60         20.7154
539.04        20.65273
539.47        20.59352
539.91        20.66915
540.35        20.87049
540.79        21.07731
541.22        21.24096
541.66        21.37386
542.10        21.45805
542.54        21.46011
542.97        21.42962
543.41        21.48024
543.85        21.62963
544.29        21.85838
544.72        22.09279
545.16        22.22683
545.60        22.24076
546.04        22.16462
546.47        22.10855
546.91        22.25512
547.35        22.62148
547.79        23.14669
548.22        23.66895
548.66        23.91664
549.10        23.85187
549.53         23.6003
549.97        23.32359
550.41        23.21104
550.84        23.32448
551.28        23.61572
551.72        24.00902
552.15        24.36476
552.59        24.62448
553.03        24.82656
553.46        24.97378
553.90        25.08936
554.34         25.1909
554.77        25.24078
555.21          25.253
555.65        25.33254
556.08        25.50174
556.52        25.42537
556.96        25.69014
557.39        25.80149
557.83        25.93667
558.27        26.07284
558.70        26.21357
559.14        26.34836
559.57        26.46249
560.01        26.56986
560.45        26.64478
560.88        26.64857
561.32        26.60223
561.75        26.50562
562.19        26.42364
562.63        26.41702
563.06        26.49471
563.50        26.64552
563.93        26.82261
564.37        26.96366
564.80        27.04269
565.24        27.08764
565.68        27.12224
566.11        27.18582
566.55        27.30736
566.98        27.46454
567.42        27.65089
567.85        27.84862
568.29        28.06591
568.72          28.231
569.16        28.39918
569.60        28.70928
570.03        29.02642
570.47        29.12081
570.90        29.11777
571.34         28.6277
571.77        29.05798
572.21        29.29622
572.64         29.2083
573.08        28.86676
573.51        27.96233
573.95        29.25597
574.38        31.13944
574.82        30.61613
