SpectraSmart Spectrum 2.9.0.0
--------- Device Information -----------
Spectrum Name :  反射率_0
Saving Time :  2024/04/25 23:55:37
Spectro-Module Model Name : SE2030-DUVN
Spectro-Module Serial Number : OS361AC55029948
Wavelength Start : 200
Wavelength End : 1025
Wavelength Unit : Wavelength(nm)
Spectrum Unit : Reflectance(%)
-----------Spectrum Setting ------------
Integration Time : 20ms
Average : 10
Boxcar : 0
Background removal :  enabled
linearity correction :  enabled
SC :  disabled
Intensity correction :  disabled
DWT denoise :  enabled
savitzky-golay :  disabled
FFT :  disabled
Running average :  disabled
Kalman :  disabled
High pass :  disabled
---------------BEGIN--------------------
Wavelength(nm)             Reflectance(%)
200.29               0
200.75        87.52898
201.21        80.39245
201.67        71.92173
202.13        66.24013
202.58        63.94254
203.04        64.32693
203.50        66.33669
203.96        68.10031
204.42        68.83825
204.88        68.94707
205.34        69.06452
205.80        70.00428
206.26        72.32606
206.72        77.27721
207.18         85.6059
207.64        88.37802
208.10        75.49786
208.55        60.36263
209.01        52.83054
209.47        52.08665
209.93        55.45191
210.39        62.32252
210.85        69.89622
211.31         71.6861
211.77        65.74079
212.23        54.35649
212.69        43.09558
213.14        40.62844
213.60        48.30753
214.06        63.55836
214.52        80.33311
214.98        89.32137
215.44         88.3521
215.90        80.69646
216.36        70.77752
216.81        64.72157
217.27        64.13594
217.73        66.77598
218.19        69.79807
218.65        69.60944
219.11          65.061
219.57        55.98804
220.02        44.21943
220.48        38.70712
220.94        43.86975
221.40        56.45746
221.86        67.58404
222.32        68.52605
222.77        60.60012
223.23        49.17086
223.69        39.18323
224.15        35.54694
224.61        37.84408
225.06        43.64025
225.52        49.90757
225.98        52.98458
226.44        52.13618
226.90        48.93609
227.36        45.22412
227.81        43.39598
228.27        44.24393
228.73        46.65769
229.19        49.58397
229.65        51.53803
230.10        52.15913
230.56        52.09083
231.02        51.88674
231.48        52.15067
231.93        52.91936
232.39        53.92028
232.85        54.86984
233.31        55.42886
233.77        55.46704
234.22        55.09196
234.68        54.34386
235.14        53.29704
235.60        52.10799
236.05        50.88972
236.51        49.74304
236.97        48.66221
237.43        47.65221
237.88        46.81099
238.34        46.34385
238.80        46.91039
239.26        48.72745
239.71        51.58872
240.17        54.82103
240.63        57.75952
241.08        60.09246
241.54        61.77713
242.00        62.68712
242.46        62.68166
242.91        61.70884
243.37         58.3334
243.83        50.47026
244.28        44.01065
244.74        71.79197
245.20        100.3913
245.66        105.8239
246.11        107.7464
246.57        110.9105
247.03        117.6774
247.48        128.3736
247.94         97.2663
248.40        79.89902
248.85        77.33774
249.31        77.70818
249.77         78.8495
250.22        80.58819
250.68        83.32175
251.14        86.77381
251.59        87.64597
252.05        83.68027
252.51         77.1216
252.96        70.23977
253.42        65.09306
253.88        61.27098
254.33        58.14492
254.79         57.4574
255.25        60.85545
255.70        67.17496
256.16        74.77586
256.62        80.43378
257.07        81.05582
257.53        77.63647
257.99        71.55089
258.44        65.44134
258.90        63.14869
259.35        63.72422
259.81        65.52848
260.27         66.2028
260.72        63.52135
261.18        58.37078
261.63        51.91982
262.09        46.09789
262.55        42.46276
263.00        40.93726
263.46         40.7502
263.91        40.81034
264.37        40.22557
264.83         38.8192
265.28        36.83997
265.74          34.926
266.19         33.7808
266.65        33.59149
267.11        33.93615
267.56         34.2394
268.02        33.82642
268.47        32.60126
268.93        30.82506
269.38        28.88973
269.84        27.68871
270.30        27.45982
270.75        27.94093
271.21        28.66547
271.66        28.94013
272.12        28.57316
272.57        27.78129
273.03        26.88833
273.48        26.30062
273.94        26.14179
274.39        26.21937
274.85        26.32789
275.31        26.17247
275.76        25.68551
276.22        25.01581
276.67          24.309
277.13        23.84954
277.58         23.6451
278.04        23.62267
278.49        23.60751
278.95        23.41314
279.40        22.97968
279.86        22.43025
280.31        21.84243
280.77        21.43391
281.22        21.20862
281.68        21.11958
282.13        21.08108
282.59        21.00383
283.04        20.85955
283.50        20.71111
283.95         20.5537
284.41        20.39642
284.86        20.23553
285.32        20.05868
285.77        19.91966
286.22        19.96058
286.68        20.16508
287.13        20.47092
287.59        20.69591
288.04        20.56324
288.50        20.06719
288.95        19.30082
289.41        18.50919
289.86        17.95963
290.32        17.76518
290.77        17.82418
291.22        18.04383
291.68        18.24331
292.13        18.37461
292.59        18.49033
293.04        18.64766
293.50        18.93606
293.95        19.35629
294.40        19.83749
294.86        20.29793
295.31        20.63286
295.77        20.82401
296.22         20.9165
296.68        20.95848
297.13        20.99739
297.58        21.07968
298.04        21.21112
298.49        21.42632
298.95        21.80964
299.40        22.35304
299.85        23.02204
300.31        23.72462
300.76        24.32648
301.21        24.76851
301.67        25.09868
302.12        25.31627
302.58          25.474
303.03        25.58156
303.48        25.63982
303.94        25.72564
304.39         25.9251
304.84        26.25505
305.30        26.68451
305.75        27.09931
306.20        27.32827
306.66        27.35766
307.11        27.23252
307.57         27.0721
308.02        26.98802
308.47        27.03694
308.93        27.17395
309.38        27.36263
309.83        27.57622
310.29        27.77963
310.74        27.96919
311.19        28.10766
311.65        28.13593
312.10        28.04601
312.55        27.86041
313.00          27.602
313.46        27.32207
313.91        27.04328
314.36        26.77702
314.82        26.57933
315.27        26.51802
315.72        26.60188
316.18        26.80514
316.63        27.04761
317.08        27.17347
317.53        27.13706
317.99        26.96541
318.44        26.74327
318.89        26.61318
319.35          26.603
319.80        26.67621
320.25        26.73623
320.70        26.62709
321.16        26.32102
321.61        25.87832
322.06        25.41523
322.51        25.10207
322.97        24.97112
323.42        24.98122
323.87        25.03456
324.32        24.96888
324.78        24.73895
325.23         24.3983
325.68        24.03159
326.13        23.77787
326.59        23.67144
327.04        23.68768
327.49         23.7505
327.94        23.73906
328.39        23.62034
328.85        23.41891
329.30         23.2361
329.75        23.20873
330.20        23.36666
330.66        23.64259
331.11        23.94062
331.56        24.06549
332.01        23.96387
332.46        23.67636
332.92        23.29973
333.37        23.03973
333.82        22.96231
334.27        23.03407
334.72        23.15482
335.17        23.14857
335.63        22.97034
336.08        22.68238
336.53        22.41657
336.98        22.38232
337.43        22.61874
337.88        23.05384
338.34        23.50399
338.79        23.72025
339.24        23.61384
339.69        23.25791
340.14        22.82891
340.59        22.63447
341.05        22.74605
341.50        23.06697
341.95        23.43262
342.40        23.60282
342.85        23.52426
343.30        23.28873
343.75        22.98387
344.20        22.76058
344.66        22.66883
345.11        22.62014
345.56        22.61174
346.01        22.63958
346.46        22.68133
346.91        22.76279
347.36        22.76795
347.81         22.5048
348.26        21.97527
348.72        21.27835
349.17        20.61612
349.62        20.40201
350.07        20.71849
350.52        21.41616
350.97        22.25473
351.42        22.86524
351.87        23.13419
352.32         23.1603
352.77        23.01049
353.22        22.80015
353.67        22.58353
354.13        22.32708
354.58        22.05762
355.03        21.86047
355.48        21.75495
355.93        21.74939
356.38        21.78158
356.83        21.73383
357.28        21.57779
357.73        21.33535
358.18        21.08606
358.63        20.95774
359.08        20.97382
359.53        21.09798
359.98        21.21671
360.43         21.1557
360.88        20.88703
361.33        20.46634
361.78        20.04364
362.23        19.86172
362.68        19.96283
363.13        20.25227
363.58        20.56423
364.03         20.6414
364.48        20.42364
364.93        20.00632
365.38        19.49448
365.83        19.05548
366.28        18.75436
366.73        18.53982
367.18         18.4175
367.63         18.3976
368.08        18.45996
368.53        18.60275
368.98        18.75028
369.43        18.77556
369.88        18.65536
370.33        18.42397
370.78        18.14765
371.23        17.94846
371.68        17.86638
372.13        17.86221
372.58         17.9206
373.03        18.01232
373.48        18.11034
373.93        18.22009
374.38        18.29593
374.83        18.26434
375.28        18.11823
375.72        17.87161
376.17        17.60565
376.62        17.41507
377.07        17.33269
377.52        17.32977
377.97        17.38579
378.42        17.46347
378.87        17.53584
379.32        17.60494
379.77        17.64465
380.22        17.61517
380.67        17.51368
381.11        17.35588
381.56        17.15955
382.01        16.96781
382.46        16.79981
382.91        16.64382
383.36        16.52096
383.81        16.46024
384.26        16.45892
384.71        16.51167
385.15        16.55106
385.60        16.48476
386.05        16.29246
386.50         15.9954
386.95        15.68128
387.40        15.50794
387.85        15.51352
388.29        15.64235
388.74        15.79542
389.19        15.82372
389.64        15.70515
390.09        15.48063
390.54        15.24466
390.98        15.15407
391.43        15.25067
391.88        15.46697
392.33        15.68943
392.78        15.75361
393.23        15.63806
393.67         15.4016
394.12        15.16222
394.57        15.02892
395.02        15.02717
395.47          15.111
395.91        15.24019
396.36        15.32361
396.81        15.33112
397.26        15.27957
397.71        15.18505
398.15        15.05426
398.60        14.92297
399.05        14.79907
399.50        14.67284
399.95        14.48781
400.39        14.30755
400.84        14.09404
401.29        13.92698
401.74        13.92044
402.18        14.10144
402.63        14.41131
403.08         14.7396
403.53        14.90884
403.97        14.87475
404.42        14.68564
404.87        14.42694
405.32        14.25176
405.76        14.20689
406.21        14.25025
406.66        14.32975
407.11        14.37482
407.55        14.37069
408.00        14.33915
408.45        14.29979
408.90        14.27592
409.34        14.27552
409.79        14.28329
410.24        14.29935
410.68        14.32847
411.13        14.37271
411.58        14.43536
412.03         14.4956
412.47         14.5188
412.92        14.48803
413.37        14.41207
413.81        14.33144
414.26        14.32403
414.71        14.39454
415.15        14.52615
415.60        14.64337
416.05        14.64239
416.49        14.50353
416.94        14.27364
417.39        14.02622
417.83        13.88783
418.28        13.89805
418.73        14.00042
419.17         14.1515
419.62        14.27919
420.07        14.35885
420.51        14.41628
420.96        14.41995
421.41        14.31491
421.85        14.10579
422.30        13.83559
422.74        13.58413
423.19        13.49727
423.64        13.58299
424.08        13.80834
424.53        14.08034
424.98        14.25508
425.42        14.28866
425.87        14.21457
426.31        14.08014
426.76        14.00639
427.21        14.00128
427.65        13.93342
428.10        13.86942
428.54        14.00357
428.99        14.33815
429.44        14.78454
429.88        15.16249
430.33        15.24945
430.77        15.00624
431.22        14.48312
431.66        13.91071
432.11        13.71573
432.56        13.93989
433.00        14.37877
433.45        14.82749
433.89        15.11725
434.34        15.12163
434.78        14.76722
435.23        14.31185
435.67        14.25122
436.12        14.54686
436.57        14.68038
437.01        14.58692
437.46         14.5259
437.90        14.52026
438.35        14.50068
438.79        14.46342
439.24        14.44346
439.68        14.45121
440.13        14.41211
440.57        14.36518
441.02        14.56771
441.46        14.90643
441.91        14.84978
442.35        14.45246
442.80        14.23938
443.24         14.1892
443.69        14.10214
444.13         13.9571
444.58        13.72832
445.02        13.48956
445.47         13.5218
445.91        13.75293
446.36        13.81709
446.80        13.67764
447.24        13.53192
447.69        13.43306
448.13        13.37122
448.58        13.36711
449.02        13.42033
449.47        13.48441
449.91        13.48369
450.36        13.40871
450.80        13.28054
451.25        13.16897
451.69        13.17107
452.13        13.30339
452.58        13.51462
453.02        13.73673
453.47        13.86207
453.91        13.86776
454.36         13.7951
454.80        13.67175
455.24        13.54534
455.69        13.44992
456.13        13.36471
456.58        13.33497
457.02        13.40696
457.46        13.58432
457.91        13.84464
458.35        14.11036
458.79        14.24797
459.24        14.23845
459.68        14.10602
460.13        13.94275
460.57        13.85711
461.01        13.89167
461.46        14.00404
461.90         14.1389
462.34        14.19882
462.79        14.15734
463.23        14.04119
463.68        13.91409
464.12         13.8815
464.56        13.97122
465.01         14.1556
465.45        14.33021
465.89        14.39409
466.34        14.34119
466.78        14.12915
467.22        13.88698
467.67        13.96319
468.11        14.32095
468.55        14.52469
468.99        14.51947
469.44        14.51595
469.88        14.55971
470.32         14.7018
470.77        14.88669
471.21        14.91746
471.65        14.77594
472.10        14.61694
472.54        14.49528
472.98        14.45148
473.42        14.50832
473.87         14.6611
474.31        14.84983
474.75        14.97278
475.20        15.00932
475.64        14.97639
476.08        14.93182
476.52        14.96605
476.97        15.09639
477.41        15.29512
477.85         15.4877
478.29         15.5855
478.74        15.57004
479.18         15.3967
479.62        15.15483
480.06         15.2338
480.50        15.34441
480.95        15.50459
481.39        15.55256
481.83           15.56
482.27        15.51276
482.72        15.29756
483.16        15.02749
483.60        15.07088
484.04         15.4449
484.48        15.72452
484.93        16.02798
485.37        16.39004
485.81        16.75703
486.25        16.86611
486.69        22.18309
487.14        17.84593
487.58        11.71568
488.02        14.34626
488.46         16.3526
488.90        16.53326
489.34        16.69704
489.79        16.51744
490.23        17.16659
490.67        17.57343
491.11        17.54071
491.55        17.48757
491.99        17.35332
492.43        17.17747
492.88        17.02378
493.32        16.97609
493.76        16.95568
494.20        17.12775
494.64        17.44824
495.08        17.86511
495.52        18.31013
495.96         18.7009
496.41        18.95716
496.85        19.07808
497.29        19.08596
497.73        18.83442
498.17        18.56621
498.61        18.73131
499.05        19.33201
499.49        19.46977
499.93        19.60846
500.37        19.77561
500.82        19.89744
501.26        20.14014
501.70        20.39596
502.14        20.50628
502.58        20.46324
503.02        20.45253
503.46        20.48894
503.90         20.4608
504.34        20.39566
504.78        20.38838
505.22        20.45136
505.66        20.56795
506.10        20.69721
506.54        20.76618
506.98         20.7601
507.42         20.7028
507.86        20.65482
508.30        20.71047
508.74        20.88365
509.18         21.1357
509.62        21.40077
510.06        21.57068
510.50        21.61898
510.94         21.5903
511.38        21.52092
511.82        21.46789
512.26        21.45465
512.70        21.45469
513.14        21.49453
513.58        21.61882
514.02        21.81272
514.46        22.05635
514.90        22.26363
515.34        22.26192
515.78         22.0005
516.22        21.68911
516.66        21.44709
517.10        21.02347
517.54        20.46106
517.98        21.32892
518.42        21.24378
518.86        21.66342
519.30        21.85077
519.74        22.04466
520.18        22.20381
520.62        22.23238
521.06        22.15066
521.50        21.96235
521.93        21.73139
522.37        21.57818
522.81        21.53465
523.25        21.57227
523.69         21.6573
524.13         21.7318
524.57        21.77313
525.01        21.79735
525.45         21.8005
525.89        21.77519
526.32         21.7212
526.76        21.63871
527.20        21.53895
527.64        21.45183
528.08        21.38885
528.52        21.32318
528.96        21.24742
529.40        21.20593
529.83        21.20932
530.27        21.03457
530.71        21.08259
531.15        20.99406
531.59        20.89373
532.03         20.7725
532.46        20.68597
532.90        20.72488
533.34        20.88778
533.78        21.13782
534.22        21.37437
534.66        21.44959
535.09          21.332
535.53         21.0786
535.97        20.77353
536.41        20.55659
536.85        20.47256
537.28        20.48696
537.72        20.55707
538.16        20.61198
538.60        20.63087
539.04         20.6243
539.47        20.62168
539.91        20.71663
540.35        20.89354
540.79         21.0436
541.22         21.1475
541.66        21.26329
542.10        21.38316
542.54        21.45969
542.97        21.51248
543.41        21.60904
543.85        21.75534
544.29        21.94423
544.72        22.12968
545.16        22.24855
545.60        22.29028
546.04        22.27184
546.47        22.27235
546.91        22.42645
547.35         22.7432
547.79        23.17954
548.22        23.61175
548.66        23.82668
549.10        23.79864
549.53        23.63368
549.97         23.4571
550.41        23.40188
550.84        23.51683
551.28        23.77217
551.72        24.11923
552.15        24.46409
552.59        24.75804
553.03        25.01701
553.46         25.2246
553.90        25.37874
554.34         25.4893
554.77        25.53113
555.21        25.51496
555.65        25.53974
556.08        25.63502
556.52        25.47104
556.96        25.66393
557.39        25.75997
557.83         25.9421
558.27         26.1723
558.70        26.42592
559.14        26.64614
559.57        26.80178
560.01        26.91734
560.45        26.97665
560.88        26.95778
561.32        26.89169
561.75        26.77574
562.19         26.6769
562.63        26.66507
563.06        26.75134
563.50        26.90697
563.93         27.0922
564.37        27.29098
564.80        27.45608
565.24        27.52801
565.68        27.53116
566.11         27.5785
566.55        27.70196
566.98        27.83379
567.42        27.97941
567.85        28.16293
568.29        28.39593
568.72        28.59102
569.16        28.78852
569.60        29.10806
570.03        29.41584
570.47        29.46771
570.90        29.40296
571.34         28.8768
571.77        29.40955
572.21        29.46762
572.64        29.55454
573.08        29.14657
573.51        28.38402
573.95        29.56411
574.38        31.26501
574.82        30.63889
