SpectraSmart Spectrum 2.9.0.0
--------- Device Information -----------
Spectrum Name :  反射率_0
Saving Time :  2024/04/26 00:54:59
Spectro-Module Model Name : SE2030-DUVN
Spectro-Module Serial Number : OS361AC55029948
Wavelength Start : 200
Wavelength End : 1025
Wavelength Unit : Wavelength(nm)
Spectrum Unit : Reflectance(%)
-----------Spectrum Setting ------------
Integration Time : 20ms
Average : 10
Boxcar : 0
Background removal :  enabled
linearity correction :  enabled
SC :  disabled
Intensity correction :  disabled
DWT denoise :  enabled
savitzky-golay :  disabled
FFT :  disabled
Running average :  disabled
Kalman :  disabled
High pass :  disabled
---------------BEGIN--------------------
Wavelength(nm)             Reflectance(%)
200.29               0
200.75        85.23093
201.21        78.20291
201.67        69.78902
202.13        63.80326
202.58        60.79382
203.04        60.19394
203.50        61.19222
203.96        62.33803
204.42        62.98463
204.88        63.39571
205.34        63.86794
205.80        64.85358
206.26        66.79625
206.72        70.68242
207.18        77.27652
207.64        80.45621
208.10        72.11058
208.55        61.23463
209.01        55.55644
209.47        54.98405
209.93        57.53171
210.39        62.65502
210.85        68.16544
211.31        69.03732
211.77        63.83984
212.23        54.53006
212.69        45.36201
213.14        42.91325
213.60        48.28407
214.06        59.77849
214.52        73.16048
214.98        81.86062
215.44        84.02763
215.90        81.48767
216.36        77.20628
216.81        75.24729
217.27         76.6036
217.73        79.71285
218.19        82.05314
218.65        80.31387
219.11        73.29085
219.57        60.18767
220.02        42.86553
220.48        32.05695
220.94        34.31068
221.40        47.08728
221.86        60.24556
222.32         62.9976
222.77        56.29875
223.23        45.81037
223.69         37.1608
224.15        36.08544
224.61        41.98837
225.06         51.9375
225.52        61.99924
225.98        67.09487
226.44        66.30361
226.90        61.80052
227.36        56.37416
227.81        53.77744
228.27        55.11101
228.73        58.78486
229.19        63.20459
229.65          66.076
230.10          66.833
230.56        66.52559
231.02        65.93389
231.48        65.90043
231.93         66.5101
232.39        67.41683
232.85        68.28783
233.31        68.75876
233.77        68.68798
234.22        68.21535
234.68        67.40407
235.14           66.38
235.60        65.30461
236.05        64.25952
236.51        63.24875
236.97          62.143
237.43        60.86694
237.88        59.44044
238.34        58.05443
238.80        57.63712
239.26        58.58187
239.71        60.77967
240.17        63.16269
240.63        64.34159
241.08        63.96248
241.54        62.39989
242.00        60.19232
242.46         57.7544
242.91        54.82686
243.37        49.26056
243.83        37.32738
244.28        21.23669
244.74        42.66917
245.20        80.52875
245.66        91.50537
246.11        94.40377
246.57        95.74867
247.03        96.14578
247.48         84.4488
247.94        51.50219
248.40        54.80679
248.85        59.91883
249.31        63.52983
249.77        67.06261
250.22         71.5725
250.68        78.62723
251.14        87.98761
251.59        92.75497
252.05        87.11275
252.51        74.61433
252.96        62.26001
253.42        56.42891
253.88        56.39777
254.33        59.68885
254.79        65.12081
255.25        70.43116
255.70        74.37151
256.16        77.61879
256.62         79.0733
257.07        77.51653
257.53        73.89197
257.99        68.73969
258.44        63.80215
258.90        61.94827
259.35        62.29955
259.81        63.69326
260.27        64.31185
260.72        62.42754
261.18        58.71947
261.63        53.93905
262.09        49.55642
262.55        46.60425
263.00        45.04536
263.46        44.45467
263.91        44.04128
264.37        43.23671
264.83        41.88353
265.28        40.11449
265.74        38.45852
266.19        37.43944
266.65         37.2268
267.11        37.48026
267.56        37.70259
268.02        37.31995
268.47        36.23499
268.93        34.66329
269.38        32.94289
269.84        31.87369
270.30        31.65488
270.75        32.05195
271.21        32.61874
271.66        32.68932
272.12        32.09865
272.57        31.07039
273.03        29.96167
273.48        29.21941
273.94        28.98575
274.39        29.06496
274.85        29.24231
275.31        29.19901
275.76        28.84746
276.22        28.32414
276.67        27.76207
277.13        27.44127
277.58        27.35031
278.04        27.41084
278.49        27.41624
278.95        27.15192
279.40        26.55939
279.86         25.7908
280.31         24.9667
280.77        24.37534
281.22        24.04017
281.68         23.9049
282.13        23.85494
282.59         23.7667
283.04        23.59072
283.50        23.38724
283.95        23.16623
284.41        22.96369
284.86        22.77433
285.32        22.58523
285.77         22.3885
286.22        22.23989
286.68        22.12662
287.13        22.02352
287.59         21.8727
288.04        21.57687
288.50        21.15323
288.95        20.62677
289.41        20.10176
289.86        19.63358
290.32        19.29341
290.77         19.0446
291.22         18.9074
291.68        18.87293
292.13        18.93093
292.59         19.0752
293.04         19.2762
293.50        19.49123
293.95        19.69198
294.40        19.86124
294.86        19.99108
295.31        20.08245
295.77        20.14375
296.22        20.18422
296.68        20.20177
297.13        20.16663
297.58         20.1036
298.04        20.04415
298.49        20.05941
298.95        20.28567
299.40         20.7267
299.85        21.32826
300.31         21.9677
300.76        22.46669
301.21        22.75965
301.67        22.91411
302.12        22.96173
302.58        22.99551
303.03        23.03276
303.48        23.05411
303.94         23.1115
304.39        23.25782
304.84         23.4985
305.30        23.81263
305.75        24.09826
306.20        24.20027
306.66        24.11384
307.11        23.88765
307.57        23.63663
308.02        23.47092
308.47        23.44562
308.93        23.51495
309.38        23.65927
309.83         23.8739
310.29        24.12195
310.74        24.39085
311.19        24.60519
311.65        24.64954
312.10        24.50676
312.55        24.21415
313.00        23.83852
313.46        23.50495
313.91        23.25385
314.36        23.07318
314.82         22.9747
315.27        22.96116
315.72        23.02415
316.18        23.15893
316.63        23.31722
317.08        23.39539
317.53        23.36352
317.99        23.23307
318.44        23.06215
318.89        22.95208
319.35        22.92149
319.80        22.94538
320.25        22.95543
320.70        22.84127
321.16        22.58355
321.61        22.22386
322.06        21.84324
322.51        21.55947
322.97        21.39318
323.42        21.31791
323.87        21.26438
324.32        21.11937
324.78        20.85575
325.23        20.51396
325.68        20.16132
326.13        19.90625
326.59        19.77532
327.04        19.75362
327.49        19.78262
327.94        19.76601
328.39        19.67923
328.85        19.54331
329.30        19.43796
329.75        19.47086
330.20        19.66151
330.66        19.94482
331.11        20.25218
331.56        20.43668
332.01        20.45304
332.46        20.32982
332.92        20.11276
333.37        19.90767
333.82        19.75675
334.27        19.65307
334.72        19.57056
335.17        19.46214
335.63        19.31975
336.08        19.16658
336.53        19.07137
336.98        19.13833
337.43        19.37705
337.88         19.7522
338.34        20.11396
338.79        20.26467
339.24        20.13754
339.69        19.78562
340.14        19.38585
340.59        19.24997
341.05        19.43847
341.50        19.84897
341.95        20.29492
342.40        20.50188
342.85        20.41137
343.30        20.12895
343.75        19.74948
344.20        19.44009
344.66        19.26505
345.11         19.1352
345.56        19.07617
346.01        19.12535
346.46        19.25841
346.91         19.4825
347.36        19.63157
347.81        19.43382
348.26        18.87381
348.72        18.07757
349.17         17.2821
349.62        16.96223
350.07        17.22561
350.52        17.90739
350.97        18.76712
351.42        19.43462
351.87        19.78787
352.32        19.92405
352.77        19.88861
353.22        19.75947
353.67        19.58193
354.13        19.33141
354.58        19.04526
355.03         18.8305
355.48        18.71247
355.93        18.68665
356.38        18.70253
356.83        18.66018
357.28        18.53178
357.73        18.34268
358.18        18.13099
358.63        17.95678
359.08        17.83894
359.53        17.76426
359.98         17.6968
360.43        17.58338
360.88        17.41621
361.33        17.20996
361.78        17.02575
362.23        16.96155
362.68        17.02301
363.13        17.16125
363.58        17.28156
364.03        17.23877
364.48        17.00471
364.93        16.63948
365.38        16.20925
365.83           15.82
366.28         15.5182
366.73        15.27671
367.18        15.12173
367.63        15.09294
368.08        15.17748
368.53        15.35633
368.98        15.54226
369.43        15.59448
369.88        15.48529
370.33        15.25759
370.78        14.97537
371.23        14.75563
371.68        14.64067
372.13        14.59154
372.58        14.61267
373.03        14.70819
373.48        14.85566
373.93        15.04961
374.38        15.21194
374.83        15.21918
375.28        15.05375
375.72        14.74346
376.17         14.3984
376.62        14.16205
377.07        14.07903
377.52        14.10321
377.97        14.19331
378.42        14.27775
378.87        14.32372
379.32        14.35422
379.77        14.35032
380.22        14.28052
380.67        14.14697
381.11        13.95602
381.56        13.74817
382.01        13.60518
382.46         13.5456
382.91        13.54431
383.36        13.56498
383.81        13.54342
384.26        13.46455
384.71        13.36068
385.15        13.23499
385.60         13.0959
386.05         12.9481
386.50        12.77916
386.95        12.64026
387.40         12.6209
387.85        12.72606
388.29        12.91845
388.74         13.0976
389.19        13.12298
389.64         12.9799
390.09        12.70685
390.54        12.40987
390.98         12.2706
391.43        12.33975
391.88        12.54709
392.33        12.77594
392.78        12.85331
393.23        12.75322
393.67         12.5388
394.12        12.31801
394.57        12.19329
395.02        12.19042
395.47        12.26662
395.91        12.38895
396.36        12.48396
396.81         12.5234
397.26        12.51586
397.71        12.47142
398.15        12.39053
398.60         12.3012
399.05        12.21301
399.50        12.10952
399.95        11.93195
400.39        11.73399
400.84        11.48966
401.29        11.28987
401.74        11.27508
402.18        11.47884
402.63        11.83607
403.08        12.21997
403.53        12.42706
403.97        12.40676
404.42        12.21713
404.87        11.95092
405.32        11.77468
405.76        11.73975
406.21        11.79393
406.66        11.88785
407.11         11.9563
407.55        11.98172
408.00        11.98607
408.45        11.97066
408.90        11.92585
409.34        11.85593
409.79        11.76213
410.24        11.67322
410.68        11.63131
411.13        11.64708
411.58        11.71693
412.03        11.81087
412.47        11.87484
412.92        11.88361
413.37        11.84623
413.81         11.8056
414.26        11.84341
414.71        11.96311
415.15        12.14189
415.60        12.29096
416.05        12.28895
416.49        12.11299
416.94        11.81621
417.39        11.49237
417.83        11.30186
418.28        11.29604
418.73        11.41486
419.17        11.59425
419.62        11.72633
420.07        11.78174
420.51        11.79615
420.96        11.76674
421.41        11.68536
421.85        11.56013
422.30         11.4056
422.74        11.26489
423.19         11.2316
423.64         11.3059
424.08        11.47213
424.53        11.65508
424.98        11.74182
425.42        11.70439
425.87        11.57187
426.31        11.39992
426.76        11.31363
427.21         11.3236
427.65        11.31881
428.10         11.3331
428.54        11.48493
428.99        11.76426
429.44        12.11147
429.88        12.39723
430.33        12.45478
430.77        12.26423
431.22        11.88082
431.66        11.46885
432.11        11.32581
432.56        11.47975
433.00        11.78499
433.45        12.09615
433.89        12.31437
434.34        12.34718
434.78        12.11644
435.23        11.80543
435.67        11.78674
436.12        12.02293
436.57        12.09718
437.01        11.96389
437.46        11.85164
437.90        11.78695
438.35        11.70846
438.79         11.6263
439.24        11.58919
439.68        11.60654
440.13         11.6154
440.57        11.62024
441.02        11.78343
441.46        12.00465
441.91        11.87033
442.35        11.46478
442.80        11.26015
443.24        11.24215
443.69        11.23528
444.13        11.18842
444.58        11.02718
445.02        10.79556
445.47        10.73753
445.91        10.81655
446.36        10.77925
446.80        10.61222
447.24        10.46271
447.69        10.36077
448.13        10.28011
448.58        10.23335
449.02        10.22441
449.47        10.23531
449.91        10.23446
450.36        10.21659
450.80        10.18635
451.25        10.16428
451.69         10.1731
452.13        10.21914
452.58          10.281
453.02        10.34711
453.47        10.39327
453.91        10.41662
454.36        10.42897
454.80         10.4242
455.24        10.39355
455.69        10.34687
456.13        10.28191
456.58        10.24338
457.02        10.28096
457.46        10.40452
457.91        10.59107
458.35        10.78533
458.79        10.88965
459.24        10.89035
459.68        10.80232
460.13        10.69693
460.57         10.6524
461.01         10.7013
461.46        10.81151
461.90         10.9332
462.34        10.97435
462.79        10.91531
463.23         10.7804
463.68        10.64371
464.12        10.62564
464.56        10.75409
465.01        10.98787
465.45         11.2153
465.89        11.31436
466.34        11.27224
466.78        11.07014
467.22        10.82525
467.67        10.83434
468.11        11.07683
468.55        11.20981
468.99        11.18992
469.44        11.17555
469.88        11.20066
470.32        11.30814
470.77        11.45516
471.21         11.4901
471.65        11.39579
472.10        11.28986
472.54        11.20887
472.98        11.18092
473.42        11.22232
473.87        11.32929
474.31        11.45896
474.75        11.53501
475.20        11.54458
475.64        11.50321
476.08        11.45669
476.52        11.47648
476.97         11.5764
477.41        11.73472
477.85        11.89748
478.29        12.00128
478.74        12.03004
479.18        11.94375
479.62        11.79776
480.06        11.87803
480.50        11.95383
480.95        12.04029
481.39         12.0271
481.83        11.99329
482.27        11.93847
482.72        11.77764
483.16        11.57751
483.60        11.61451
484.04        11.90636
484.48        12.05589
484.93        12.20708
485.37        12.61755
485.81         13.1723
486.25        13.22039
486.69        17.27582
487.14        13.69245
487.58        9.092544
488.02        11.08918
488.46        12.45613
488.90        12.45323
489.34        12.50815
489.79         12.4778
490.23         13.1778
490.67        13.61951
491.11         13.5812
491.55        13.36414
491.99        12.99735
492.43        12.73399
492.88        12.66429
493.32        12.72708
493.76         12.8193
494.20        13.03681
494.64        13.32316
495.08        13.64911
495.52        13.97081
495.96        14.23856
496.41        14.39883
496.85        14.44522
497.29        14.40627
497.73        14.19443
498.17         13.9967
498.61        14.14942
499.05        14.63994
499.49        14.75626
499.93        14.84142
500.37        14.92719
500.82        14.97354
501.26         15.1324
501.70        15.32729
502.14         15.4277
502.58         15.4197
503.02        15.43106
503.46        15.46765
503.90        15.45079
504.34        15.39487
504.78        15.36062
505.22         15.3584
505.66        15.37887
506.10        15.41145
506.54        15.43606
506.98         15.4495
507.42        15.45954
507.86        15.48752
508.30        15.56595
508.74         15.6941
509.18        15.85151
509.62        16.00529
510.06        16.10219
510.50        16.13162
510.94        16.12148
511.38        16.08363
511.82        16.03629
512.26        15.99388
512.70        15.94609
513.14        15.93743
513.58        16.04032
514.02        16.24674
514.46        16.52255
514.90        16.77258
515.34        16.81021
515.78        16.57497
516.22        16.28955
516.66        16.06458
517.10        15.60452
517.54        14.95049
517.98        15.79045
518.42        15.59679
518.86        15.96413
519.30        16.11492
519.74        16.30084
520.18        16.46904
520.62        16.50063
521.06        16.41236
521.50        16.21198
521.93        15.97653
522.37        15.84821
522.81        15.85972
523.25        15.97141
523.69        16.12686
524.13        16.23561
524.57          16.269
525.01        16.25386
525.45        16.20674
525.89        16.15438
526.32        16.10535
526.76        16.04697
527.20        15.97844
527.64        15.90872
528.08        15.84246
528.52        15.76906
528.96         15.6816
529.40        15.60807
529.83        15.56049
530.27        15.37824
530.71        15.37176
531.15        15.30385
531.59        15.26965
532.03        15.25452
532.46        15.27863
532.90        15.37647
533.34        15.53339
533.78        15.72743
534.22        15.89802
534.66        15.95869
535.09        15.89167
535.53        15.73353
535.97        15.53172
536.41        15.36674
536.85        15.26922
537.28        15.22261
537.72        15.22055
538.16        15.24917
538.60         15.2983
539.04        15.35902
539.47        15.42342
539.91        15.51598
540.35        15.61597
540.79        15.65985
541.22        15.65238
541.66        15.66511
542.10        15.70442
542.54        15.72687
542.97        15.75118
543.41        15.83457
543.85        15.97801
544.29        16.17454
544.72        16.37079
545.16        16.48815
545.60        16.51219
546.04        16.46221
546.47        16.41543
546.91        16.50493
547.35        16.74404
547.79        17.08944
548.22        17.43488
548.66        17.59649
549.10        17.55116
549.53        17.38906
549.97        17.21389
550.41        17.13623
550.84        17.19742
551.28        17.37254
551.72        17.63087
552.15        17.91307
552.59        18.18071
553.03        18.44156
553.46        18.66695
553.90        18.82827
554.34        18.92882
554.77         18.9536
555.21        18.92691
555.65        18.94818
556.08        19.04406
556.52         18.9619
556.96        19.14099
557.39        19.21586
557.83        19.31816
558.27         19.4302
558.70        19.55466
559.14        19.67898
559.57        19.78919
560.01         19.8959
560.45        19.96936
560.88        19.96499
561.32        19.89999
561.75         19.7798
562.19        19.67193
562.63        19.65013
563.06        19.72583
563.50        19.88033
563.93        20.06315
564.37        20.20116
564.80         20.2682
565.24        20.29476
565.68        20.30499
566.11         20.3374
566.55        20.41924
566.98        20.52996
567.42        20.67225
567.85        20.84538
568.29        21.05427
568.72        21.23361
569.16        21.40259
569.60        21.67968
570.03        21.97672
570.47        22.03488
570.90        21.92807
571.34        21.75602
571.77        22.02208
572.21         22.0543
572.64         22.0888
573.08        21.84796
573.51        21.41615
573.95          22.462
574.38         23.8389
574.82        23.33121
