SpectraSmart Spectrum 2.9.0.0
--------- Device Information -----------
Spectrum Name :  反射率_0
Saving Time :  2024/04/26 00:35:07
Spectro-Module Model Name : SE2030-DUVN
Spectro-Module Serial Number : OS361AC55029948
Wavelength Start : 200
Wavelength End : 1025
Wavelength Unit : Wavelength(nm)
Spectrum Unit : Reflectance(%)
-----------Spectrum Setting ------------
Integration Time : 20ms
Average : 10
Boxcar : 0
Background removal :  enabled
linearity correction :  enabled
SC :  disabled
Intensity correction :  disabled
DWT denoise :  enabled
savitzky-golay :  disabled
FFT :  disabled
Running average :  disabled
Kalman :  disabled
High pass :  disabled
---------------BEGIN--------------------
Wavelength(nm)             Reflectance(%)
200.29               0
200.75         81.2188
201.21        78.29823
201.67        74.43041
202.13        72.13187
202.58        71.76197
203.04        73.00139
203.50        74.69444
203.96        74.95561
204.42         73.5603
204.88        71.37692
205.34         69.5719
205.80        69.31553
206.26        71.09163
206.72        76.06761
207.18         86.1869
207.64        94.88374
208.10        88.43487
208.55        75.71796
209.01        67.70958
209.47        65.05669
209.93        65.48582
210.39        68.04961
210.85        70.82726
211.31        69.95034
211.77        64.57935
212.23         56.2922
212.69        48.89968
213.14        48.30023
213.60        55.19165
214.06        67.81792
214.52        81.65623
214.98        89.76624
215.44        90.39906
215.90        85.78297
216.36        79.04034
216.81        74.52219
217.27        73.56331
217.73        74.64339
218.19        75.78394
218.65        74.37672
219.11        69.44427
219.57        60.57344
220.02        49.09951
220.48        42.63912
220.94        45.33787
221.40        55.06254
221.86        64.28413
222.32        65.27149
222.77        58.94664
223.23        49.76055
223.69        42.02277
224.15        40.15038
224.61        43.61763
225.06        50.11477
225.52        56.64138
225.98        59.47138
226.44        57.93982
226.90        53.79186
227.36        48.84271
227.81        45.45074
228.27        44.54641
228.73        45.10404
229.19        46.74945
229.65        48.92648
230.10        51.11874
230.56         53.3625
231.02        55.21915
231.48        56.16986
231.93        56.23061
232.39        55.57795
232.85        54.59842
233.31        53.98752
233.77        53.88169
234.22        54.09198
234.68        54.24884
235.14        53.61963
235.60        52.10338
236.05        50.14775
236.51        48.20177
236.97        46.71445
237.43        45.82307
237.88        45.46786
238.34        45.83228
238.80        47.40002
239.26        50.20274
239.71        54.15282
240.17        58.28088
240.63        61.45422
241.08        63.32286
241.54         63.8423
242.00        63.67719
242.46        63.97604
242.91        65.54213
243.37        69.28047
243.83        80.42015
244.28        114.2829
244.74        147.6116
245.20        123.8966
245.66        104.5019
246.11        98.36279
246.57        98.94339
247.03        106.9908
247.48        131.8368
247.94        115.6489
248.40        87.96257
248.85        79.87565
249.31        78.25581
249.77        79.70283
250.22        83.44189
250.68        89.85095
251.14        98.70061
251.59        103.8458
252.05        99.56651
252.51        89.23329
252.96        77.92769
253.42         70.2496
253.88        65.80782
254.33        63.03535
254.79        63.06579
255.25        66.80122
255.70        72.81847
256.16        79.77544
256.62        84.58708
257.07        84.21579
257.53        79.74863
257.99        72.65335
258.44        65.52187
258.90        62.17743
259.35        61.82629
259.81        62.90894
260.27        63.28598
260.72        60.93604
261.18        56.56455
261.63         51.1074
262.09        46.19352
262.55        43.04713
263.00        41.59441
263.46        41.24204
263.91        41.07311
264.37         40.3723
264.83        38.98561
265.28        37.11063
265.74        35.31684
266.19         34.2082
266.65        33.96309
267.11        34.20181
267.56        34.43231
268.02        34.07623
268.47         33.0359
268.93        31.53636
269.38        29.86391
269.84         28.7243
270.30           28.31
270.75        28.42482
271.21         28.7386
271.66        28.76104
272.12        28.35027
272.57        27.66697
273.03        26.93955
273.48        26.42699
273.94        26.21789
274.39        26.16841
274.85        26.14509
275.31        25.95601
275.76        25.54785
276.22        25.02165
276.67        24.45081
277.13        24.02172
277.58        23.72785
278.04        23.53915
278.49         23.3456
278.95        23.04563
279.40        22.59772
279.86         22.0989
280.31        21.58242
280.77         21.2008
281.22        20.94432
281.68        20.78436
282.13         20.6791
282.59        20.60013
283.04        20.52308
283.50        20.48463
283.95        20.42355
284.41        20.26315
284.86        19.99283
285.32         19.6431
285.77        19.32948
286.22        19.28519
286.68        19.51209
287.13        19.90747
287.59        20.26241
288.04        20.26187
288.50        19.87691
288.95        19.21056
289.41        18.47465
289.86        17.88671
290.32        17.56293
290.77        17.42206
291.22        17.43428
291.68        17.51716
292.13        17.64218
292.59        17.83119
293.04        18.09121
293.50        18.42794
293.95        18.81897
294.40        19.22157
294.86        19.57751
295.31        19.81834
295.77        19.93807
296.22        19.96621
296.68        19.95234
297.13        19.94958
297.58        20.00282
298.04        20.11959
298.49        20.31758
298.95        20.65178
299.40        21.10776
299.85        21.65514
300.31        22.22651
300.76         22.7287
301.21        23.11353
301.67        23.42131
302.12        23.61963
302.58        23.71012
303.03         23.6971
303.48        23.59502
303.94        23.52736
304.39        23.65355
304.84         23.9974
305.30        24.49872
305.75        24.98137
306.20        25.17773
306.66        25.05787
307.11        24.70761
307.57        24.30564
308.02        24.05366
308.47        24.02965
308.93        24.16182
309.38        24.38435
309.83        24.62108
310.29        24.82248
310.74        25.00441
311.19        25.14097
311.65        25.18998
312.10        25.14573
312.55        25.01311
313.00        24.80911
313.46        24.57971
313.91        24.33985
314.36        24.10158
314.82        23.90354
315.27        23.78852
315.72        23.76553
316.18        23.82157
316.63        23.91002
317.08        23.93097
317.53          23.856
317.99        23.69986
318.44        23.52207
318.89        23.42153
319.35         23.4126
319.80        23.46786
320.25        23.50485
320.70        23.39132
321.16        23.10465
321.61        22.69405
322.06        22.25848
322.51        21.94478
322.97        21.78024
323.42        21.72835
323.87        21.71158
324.32        21.60138
324.78        21.36241
325.23        21.04004
325.68        20.69305
326.13        20.41616
326.59        20.23593
327.04        20.14099
327.49        20.09254
327.94        20.02956
328.39        19.93543
328.85        19.82046
329.30        19.74696
329.75        19.78922
330.20        19.95733
330.66        20.20144
331.11        20.45621
331.56         20.5791
332.01        20.53009
332.46        20.33132
332.92        20.05497
333.37        19.85563
333.82        19.78327
334.27         19.8181
334.72        19.87551
335.17        19.80714
335.63        19.57948
336.08        19.24405
336.53        18.93232
336.98        18.85168
337.43        19.03956
337.88        19.43045
338.34        19.83425
338.79        19.98461
339.24        19.79419
339.69        19.34347
340.14         18.8316
340.59        18.60591
341.05        18.74474
341.50        19.13443
341.95        19.58734
342.40        19.83099
342.85        19.79979
343.30        19.59231
343.75        19.29189
344.20        19.04289
344.66        18.89953
345.11        18.78045
345.56        18.70146
346.01        18.68678
346.46        18.72106
346.91        18.82212
347.36        18.86766
347.81        18.65414
348.26         18.1749
348.72        17.52904
349.17        16.90549
349.62         16.6973
350.07        16.98579
350.52        17.63159
350.97        18.40965
351.42        18.97548
351.87        19.22443
352.32        19.24853
352.77        19.11996
353.22        18.96072
353.67        18.82029
354.13        18.66059
354.58        18.48341
355.03         18.3336
355.48        18.22218
355.93        18.16755
356.38        18.13508
356.83        18.05284
357.28        17.90542
357.73        17.70405
358.18        17.50729
358.63        17.40874
359.08        17.42366
359.53        17.52644
359.98        17.62403
360.43        17.57334
360.88        17.35101
361.33        16.99958
361.78        16.64445
362.23        16.48951
362.68        16.57004
363.13        16.80862
363.58        17.06156
364.03        17.10563
364.48        16.89075
364.93        16.49907
365.38        16.03205
365.83        15.65136
366.28        15.41465
366.73        15.27189
367.18        15.20804
367.63        15.19964
368.08        15.22168
368.53        15.28201
368.98        15.33769
369.43        15.31246
369.88        15.19785
370.33        15.02101
370.78        14.82064
371.23        14.67106
371.68        14.59911
372.13        14.57464
372.58        14.62012
373.03        14.76841
373.48        15.00073
373.93        15.29817
374.38        15.55006
374.83        15.58798
375.28        15.38847
375.72        14.99483
376.17        14.56196
376.62        14.30442
377.07        14.28426
377.52        14.43642
377.97        14.66876
378.42        14.82856
378.87        14.86232
379.32        14.81394
379.77         14.7176
380.22        14.61892
380.67         14.5347
381.11        14.45174
381.56        14.35002
382.01        14.21267
382.46        14.04206
382.91        13.84876
383.36         13.6833
383.81         13.6185
384.26        13.66282
384.71         13.7934
385.15        13.92066
385.60        13.92071
386.05        13.76651
386.50         13.4881
386.95        13.18649
387.40        13.03953
387.85         13.0877
388.29        13.26755
388.74        13.46137
389.19        13.50602
389.64        13.37922
390.09        13.12995
390.54         12.8676
390.98        12.77231
391.43        12.89234
391.88        13.15343
392.33        13.42671
392.78         13.5266
393.23        13.42444
393.67        13.18167
394.12        12.92828
394.57        12.79604
395.02         12.8137
395.47        12.93434
395.91        13.08807
396.36         13.1353
396.81        13.04129
397.26         12.8445
397.71        12.62372
398.15        12.47865
398.60        12.44968
399.05        12.50482
399.50        12.56656
399.95        12.49203
400.39        12.31858
400.84        12.04355
401.29        11.78253
401.74        11.71967
402.18        11.90611
402.63        12.26073
403.08        12.64957
403.53        12.86037
403.97        12.83797
404.42        12.64625
404.87        12.37673
405.32        12.19034
405.76        12.13788
406.21        12.16895
406.66         12.2356
407.11        12.27457
407.55        12.27003
408.00        12.24476
408.45        12.20499
408.90        12.15054
409.34        12.08765
409.79        12.01214
410.24        11.94813
410.68        11.93175
411.13        11.97026
411.58         12.0606
412.03         12.1637
412.47        12.21112
412.92        12.17601
413.37        12.07265
413.81        11.96148
414.26        11.95092
414.71        12.05026
415.15        12.23089
415.60        12.38967
416.05        12.38021
416.49        12.17442
416.94        11.83511
417.39        11.46939
417.83        11.25956
418.28        11.26339
418.73        11.41175
419.17        11.63206
419.62        11.80579
420.07        11.89781
420.51        11.94415
420.96        11.93856
421.41        11.86715
421.85         11.7368
422.30        11.56465
422.74        11.39582
423.19         11.3263
423.64        11.35877
424.08        11.47904
424.53        11.61923
424.98        11.68033
425.42        11.63778
425.87        11.51495
426.31        11.35931
426.76        11.28264
427.21        11.28896
427.65        11.26942
428.10         11.2536
428.54        11.35337
428.99         11.5635
429.44         11.8336
429.88        12.04827
430.33        12.06067
430.77        11.85477
431.22        11.47581
431.66        11.08556
432.11        10.97668
432.56        11.17351
433.00         11.5348
433.45        11.89033
433.89        12.09031
434.34        12.03622
434.78        11.67762
435.23        11.24438
435.67         11.1541
436.12        11.37925
436.57        11.50593
437.01        11.46532
437.46        11.42895
437.90        11.40488
438.35        11.34891
438.79         11.2685
439.24        11.20821
439.68        11.18173
440.13        11.12564
440.57         11.0699
441.02        11.21112
441.46        11.46082
441.91        11.41288
442.35        11.10535
442.80        10.93885
443.24        10.89247
443.69        10.81226
444.13        10.68263
444.58        10.49027
445.02        10.29206
445.47        10.30339
445.91        10.46058
446.36        10.47227
446.80        10.31176
447.24        10.13548
447.69        10.00193
448.13          9.9303
448.58        9.941599
449.02        10.02452
449.47        10.12458
449.91        10.15334
450.36        10.09335
450.80        9.967033
451.25        9.838992
451.69        9.799884
452.13        9.870623
452.58        10.00965
453.02        10.16004
453.47        10.22754
453.91        10.19511
454.36        10.09692
454.80        9.973083
455.24        9.891811
455.69        9.879969
456.13        9.905673
456.58        9.966738
457.02        10.04581
457.46         10.1381
457.91        10.24562
458.35        10.34269
458.79        10.37642
459.24        10.34831
459.68         10.2601
460.13        10.17203
460.57         10.1473
461.01        10.21202
461.46         10.3383
461.90        10.48026
462.34        10.55005
462.79        10.52773
463.23        10.43377
463.68        10.32951
464.12        10.31578
464.56        10.41801
465.01        10.60292
465.45        10.77992
465.89        10.85411
466.34        10.81735
466.78        10.64655
467.22        10.44089
467.67        10.46513
468.11         10.6942
468.55        10.80264
468.99        10.76377
469.44        10.75405
469.88        10.81048
470.32        10.96592
470.77        11.16224
471.21        11.22501
471.65        11.13057
472.10        11.00326
472.54        10.89357
472.98        10.85297
473.42        10.90318
473.87        11.03104
474.31        11.18501
474.75        11.27596
475.20         11.2864
475.64        11.23658
476.08        11.17369
476.52        11.17042
476.97        11.24302
477.41        11.37129
477.85        11.50537
478.29        11.58795
478.74        11.60631
479.18        11.52244
479.62        11.39223
480.06        11.49569
480.50        11.60769
480.95         11.7361
481.39         11.7669
481.83        11.77107
482.27        11.74612
482.72        11.60704
483.16        11.41604
483.60        11.45132
484.04        11.72981
484.48        11.85131
484.93        11.99478
485.37        12.42525
485.81        12.95174
486.25        13.10255
486.69        16.94541
487.14        13.16191
487.58         9.09184
488.02        11.13375
488.46        12.53714
488.90         12.4854
489.34        12.52288
489.79        12.44818
490.23        13.09527
490.67        13.51107
491.11        13.48469
491.55        13.35184
491.99        13.11245
492.43         12.9264
492.88        12.86356
493.32        12.89858
493.76        12.94751
494.20        13.13489
494.64        13.41546
495.08        13.74902
495.52        14.08603
495.96         14.3707
496.41        14.54614
496.85        14.60952
497.29        14.59008
497.73        14.39707
498.17         14.2193
498.61        14.39873
499.05        14.92194
499.49        15.06118
499.93        15.16439
500.37        15.26253
500.82        15.32054
501.26        15.50354
501.70        15.73446
502.14        15.87673
502.58        15.90324
503.02        15.92548
503.46        15.94686
503.90        15.89404
504.34         15.7988
504.78         15.7498
505.22        15.76498
505.66        15.82815
506.10        15.91618
506.54        15.98688
506.98        16.02868
507.42        16.05397
507.86         16.0932
508.30         16.1931
508.74        16.35711
509.18        16.56178
509.62        16.76158
510.06         16.8839
510.50        16.91403
510.94        16.88333
511.38         16.8263
511.82        16.79711
512.26        16.81468
512.70        16.85697
513.14        16.93198
513.58        17.05164
514.02        17.19747
514.46        17.35929
514.90        17.48437
515.34        17.45221
515.78        17.21999
516.22        16.98826
516.66        16.84529
517.10        16.46155
517.54        15.86397
517.98        16.73461
518.42        16.56998
518.86        16.94173
519.30        17.08255
519.74        17.23629
520.18        17.37084
520.62        17.40384
521.06        17.35725
521.50        17.23175
521.93        17.06869
522.37        16.94961
522.81        16.89768
523.25        16.89508
523.69        16.93197
524.13        16.98981
524.57         17.0536
525.01        17.12364
525.45        17.17894
525.89        17.18452
526.32        17.13206
526.76        17.03422
527.20        16.90526
527.64        16.77722
528.08        16.66744
528.52        16.55441
528.96        16.44927
529.40        16.41259
529.83        16.45403
530.27        16.38863
530.71        16.50341
531.15        16.47832
531.59        16.40132
532.03        16.27867
532.46        16.16478
532.90         16.1536
533.34        16.25268
533.78        16.42468
534.22        16.60024
534.66        16.67811
535.09         16.6316
535.53        16.50244
535.97        16.32935
536.41        16.17648
536.85        16.07219
537.28        16.00424
537.72        15.97375
538.16        15.98227
538.60        16.02538
539.04        16.08858
539.47        16.16877
539.91        16.29922
540.35        16.45673
540.79        16.57239
541.22        16.63278
541.66        16.68439
542.10        16.72889
542.54        16.72869
542.97        16.72472
543.41        16.81184
543.85        16.99853
544.29        17.26521
544.72        17.53837
545.16        17.70846
545.60        17.75249
546.04        17.69999
546.47        17.64069
546.91        17.72696
547.35        17.97857
547.79        18.34745
548.22        18.72038
548.66        18.90285
549.10        18.86941
549.53        18.71497
549.97        18.55173
550.41        18.49977
550.84        18.60191
551.28        18.83036
551.72        19.13921
552.15        19.44373
552.59        19.70015
553.03        19.92325
553.46        20.10554
553.90        20.25128
554.34        20.37043
554.77        20.43945
555.21        20.45953
555.65        20.49709
556.08        20.57258
556.52        20.42595
556.96         20.5615
557.39        20.63137
557.83        20.78543
558.27        20.98911
558.70        21.21193
559.14        21.38882
559.57         21.4922
560.01        21.54963
560.45        21.56134
560.88        21.52939
561.32        21.48307
561.75        21.41218
562.19         21.3605
562.63        21.36458
563.06        21.42866
563.50        21.54874
563.93        21.69632
564.37        21.83291
564.80        21.93854
565.24        22.02959
565.68        22.10915
566.11        22.18575
566.55        22.27912
566.98        22.37725
567.42        22.49416
567.85        22.64695
568.29        22.84905
568.72        23.02645
569.16         23.1957
569.60        23.48032
570.03        23.75782
570.47        23.79188
570.90        23.67729
571.34        23.44838
571.77        23.77789
572.21        23.90346
572.64        24.06042
573.08        23.78522
573.51        23.20068
573.95        24.26405
574.38        25.73515
574.82         25.2936
