SpectraSmart Spectrum 2.9.0.0
--------- Device Information -----------
Spectrum Name :  反射率_0
Saving Time :  2024/04/25 22:49:28
Spectro-Module Model Name : SE2030-DUVN
Spectro-Module Serial Number : OS361AC55029948
Wavelength Start : 200
Wavelength End : 1025
Wavelength Unit : Wavelength(nm)
Spectrum Unit : Reflectance(%)
-----------Spectrum Setting ------------
Integration Time : 20ms
Average : 10
Boxcar : 0
Background removal :  enabled
linearity correction :  enabled
SC :  disabled
Intensity correction :  disabled
DWT denoise :  enabled
savitzky-golay :  disabled
FFT :  disabled
Running average :  disabled
Kalman :  disabled
High pass :  disabled
---------------BEGIN--------------------
Wavelength(nm)             Reflectance(%)
200.29               0
200.75        85.55567
201.21        80.75744
201.67        75.15028
202.13        71.86947
202.58        71.28671
203.04        72.98344
203.50        75.52988
203.96        76.45802
204.42        75.30463
204.88        73.03577
205.34        71.00832
205.80         70.6002
206.26        72.30498
206.72        77.21913
207.18        86.76469
207.64        92.84505
208.10        82.93286
208.55         68.6847
209.01         60.5933
209.47        58.44046
209.93        59.64708
210.39         63.2437
210.85        67.11047
211.31        66.75478
211.77        61.08372
212.23        52.00346
212.69         43.3239
213.14        40.95318
213.60        45.75153
214.06        55.98494
214.52        68.11697
214.98        76.64866
215.44        79.77974
215.90        79.00996
216.36        75.87656
216.81        72.44779
217.27        69.87282
217.73        67.63789
218.19        65.00117
218.65        60.75354
219.11        54.08733
219.57        44.09514
220.02        31.73822
220.48        24.10975
220.94        25.28969
221.40        33.88079
221.86        42.68571
222.32        43.98594
222.77        38.51019
223.23        30.26059
223.69        23.42953
224.15        22.33788
224.61          26.469
225.06        33.61288
225.52        40.68013
225.98        43.86498
226.44        42.49065
226.90        38.28465
227.36        33.28817
227.81        30.19869
228.27        29.95015
228.73        31.43114
229.19        33.81481
229.65        35.90549
230.10        37.22996
230.56        38.11361
231.02        38.74662
231.48        39.28101
231.93        39.77028
232.39        40.16718
232.85        40.33205
233.31        40.12748
233.77        39.53597
234.22        38.55667
234.68        37.54686
235.14        37.11759
235.60        37.43736
236.05         38.3784
236.51        39.35482
236.97        39.43807
237.43         38.4288
237.88        36.49183
238.34        34.19788
238.80        33.33921
239.26        34.85428
239.71        38.36815
240.17         42.8964
240.63        46.93428
241.08          49.875
241.54        52.01342
242.00        53.38597
242.46        54.20458
242.91        54.77121
243.37        54.29488
243.83        54.12152
244.28        70.42108
244.74        121.0334
245.20        133.6018
245.66        124.2856
246.11        117.5041
246.57        110.9341
247.03        95.73033
247.48        36.52069
247.94       -3.129856
248.40         42.6869
248.85         64.8519
249.31         75.2233
249.77        81.01569
250.22        85.59499
250.68        91.01737
251.14        97.12604
251.59        99.01149
252.05        92.91727
252.51        81.88005
252.96        70.62773
253.42         63.2001
253.88        58.98699
254.33         56.7545
254.79        57.44814
255.25        61.54964
255.70        67.63632
256.16        74.49591
256.62        79.20863
257.07        78.92332
257.53        74.72448
257.99        68.01768
258.44        61.38292
258.90        58.59595
259.35        58.79691
259.81         60.3321
260.27        61.04256
260.72        58.90122
261.18        54.60526
261.63        49.12458
262.09        44.06508
262.55        40.63701
263.00         38.8331
263.46        38.12311
263.91        37.64999
264.37        36.71941
264.83        35.18447
265.28        33.22402
265.74         31.4333
266.19        30.46876
266.65         30.4677
267.11        31.00466
267.56         31.5092
268.02        31.31074
268.47        30.31747
268.93        28.77788
269.38        27.02609
269.84        25.85628
270.30        25.48272
270.75        25.67729
271.21        26.06524
271.66        26.09233
272.12        25.60052
272.57        24.77975
273.03        23.88722
273.48        23.22444
273.94        22.89653
274.39        22.75924
274.85        22.66825
275.31        22.42103
275.76        21.96475
276.22        21.40068
276.67        20.82658
277.13        20.45207
277.58        20.27001
278.04        20.22785
278.49        20.17355
278.95        19.94065
279.40        19.48259
279.86        18.90849
280.31         18.3041
280.77        17.89333
281.22        17.68292
281.68        17.61974
282.13        17.60982
282.59        17.54107
283.04        17.38564
283.50        17.21001
283.95        17.02718
284.41        16.86308
284.86        16.72923
285.32        16.62034
285.77        16.57727
286.22        16.71842
286.68        17.02026
287.13        17.41202
287.59         17.7559
288.04        17.84958
288.50        17.67487
288.95        17.29077
289.41        16.82155
289.86        16.36185
290.32        16.01009
290.77        15.73937
291.22        15.60199
291.68        15.63698
292.13        15.84673
292.59        16.21239
293.04        16.69172
293.50         17.2108
293.95        17.72059
294.40        18.20187
294.86        18.61495
295.31        18.91969
295.77        19.11919
296.22        19.22951
296.68        19.29062
297.13        19.34519
297.58        19.43452
298.04        19.57127
298.49        19.78593
298.95         20.1489
299.40        20.65249
299.85        21.26894
300.31        21.91119
300.76        22.45565
301.21        22.84785
301.67         23.1296
302.12        23.31163
302.58        23.45919
303.03        23.58037
303.48        23.66943
303.94        23.77287
304.39        23.93272
304.84        24.15951
305.30        24.43655
305.75        24.69012
306.20        24.81123
306.66        24.79895
307.11        24.68178
307.57         24.5418
308.02        24.43715
308.47        24.41398
308.93        24.44962
309.38        24.53748
309.83         24.6948
310.29        24.89627
310.74        25.11867
311.19        25.30749
311.65        25.38073
312.10        25.31862
312.55        25.14641
313.00        24.87919
313.46         24.5552
313.91        24.19945
314.36        23.83237
314.82        23.52229
315.27        23.35806
315.72        23.35489
316.18        23.48196
316.63        23.66904
317.08        23.77502
317.53        23.75287
317.99         23.6257
318.44        23.44514
318.89        23.30009
319.35        23.20914
319.80        23.14837
320.25        23.06468
320.70        22.87802
321.16        22.58062
321.61        22.20954
322.06        21.83702
322.51        21.56559
322.97        21.40652
323.42        21.32991
323.87        21.26862
324.32        21.11302
324.78        20.83563
325.23        20.48009
325.68         20.0902
326.13        19.73706
326.59        19.44781
327.04        19.22139
327.49        19.06127
327.94        18.97389
328.39        18.95417
328.85        18.98914
329.30        19.08095
329.75        19.20139
330.20        19.32841
330.66        19.43959
331.11        19.51361
331.56        19.48132
332.01        19.32834
332.46        19.05926
332.92        18.73551
333.37         18.4885
333.82        18.36351
334.27        18.35661
334.72        18.39173
335.17        18.32854
335.63        18.13126
336.08         17.8358
336.53        17.56507
336.98        17.51685
337.43         17.7233
337.88        18.12462
338.34        18.51433
338.79        18.59987
339.24        18.29354
339.69        17.67997
340.14        17.01086
340.59        16.72442
341.05        16.91565
341.50        17.44323
341.95        18.03845
342.40        18.30685
342.85        18.15928
343.30        17.73023
343.75        17.17648
344.20        16.77262
344.66        16.61153
345.11        16.57035
345.56        16.60339
346.01        16.64189
346.46        16.64447
346.91        16.65911
347.36        16.59855
347.81        16.31016
348.26        15.80357
348.72         15.1635
349.17        14.55341
349.62        14.32967
350.07        14.56631
350.52        15.13624
350.97        15.85282
351.42        16.42699
351.87        16.76033
352.32        16.92496
352.77        16.93547
353.22        16.82435
353.67        16.62376
354.13        16.32362
354.58        15.99099
355.03        15.77411
355.48        15.70747
355.93        15.77644
356.38        15.88828
356.83        15.87782
357.28        15.70792
357.73        15.42429
358.18        15.12827
358.63        14.98039
359.08         15.0121
359.53        15.16741
359.98         15.3342
360.43          15.342
360.88        15.15619
361.33         14.8352
361.78        14.48939
362.23        14.29573
362.68        14.29384
363.13        14.41615
363.58        14.56926
364.03        14.61022
364.48          14.501
364.93        14.29654
365.38        14.03999
365.83        13.79615
366.28        13.59642
366.73        13.42025
367.18        13.28697
367.63        13.23312
368.08        13.25311
368.53        13.32951
368.98        13.41625
369.43        13.43483
369.88        13.36968
370.33        13.25437
370.78        13.09872
371.23        12.92508
371.68        12.75372
372.13        12.57008
372.58        12.44821
373.03        12.51052
373.48        12.76151
373.93        13.15546
374.38        13.53403
374.83        13.65389
375.28        13.47001
375.72        13.04651
376.17        12.56083
376.62        12.26495
377.07        12.23241
377.52        12.38298
377.97        12.61604
378.42        12.76673
378.87        12.78189
379.32        12.72046
379.77        12.61766
380.22         12.5179
380.67        12.43878
381.11        12.35928
381.56        12.27911
382.01        12.21462
382.46        12.16576
382.91        12.12965
383.36        12.09981
383.81        12.05898
384.26        12.00448
384.71        11.94966
385.15        11.88019
385.60        11.77981
386.05        11.64714
386.50        11.48054
386.95        11.33557
387.40         11.3069
387.85        11.40469
388.29        11.59234
388.74        11.77199
389.19        11.81222
389.64        11.69899
390.09        11.46846
390.54        11.22249
390.98        11.13262
391.43        11.24444
391.88        11.48992
392.33        11.74794
392.78        11.84128
393.23        11.74339
393.67        11.51522
394.12        11.27653
394.57        11.14984
395.02        11.16277
395.47        11.27108
395.91        11.41633
396.36         11.4806
396.81        11.43141
397.26        11.29873
397.71        11.14089
398.15        11.02914
398.60        10.99827
399.05        11.02724
399.50        11.05689
399.95        10.97457
400.39        10.81538
400.84        10.57171
401.29        10.34666
401.74         10.3047
402.18        10.48978
402.63         10.8308
403.08        11.19514
403.53         11.3717
403.97        11.30976
404.42        11.07381
404.87        10.77244
405.32        10.59496
405.76        10.59588
406.21        10.71317
406.66        10.87276
407.11        10.97497
407.55         10.9953
408.00        10.96359
408.45        10.90281
408.90        10.84555
409.34        10.80677
409.79        10.77145
410.24        10.74122
410.68        10.72089
411.13         10.7133
411.58        10.72731
412.03        10.75037
412.47         10.7598
412.92        10.74322
413.37        10.69992
413.81        10.66271
414.26        10.69714
414.71        10.80148
415.15        10.95943
415.60        11.08615
416.05        11.06454
416.49        10.87478
416.94        10.57074
417.39        10.24499
417.83        10.05704
418.28        10.05823
418.73        10.18633
419.17        10.38417
419.62        10.55463
420.07        10.66598
420.51        10.74604
420.96        10.77141
421.41        10.69917
421.85        10.53381
422.30        10.30842
422.74        10.08706
423.19        9.987831
423.64        10.01958
424.08        10.15787
424.53         10.3367
424.98        10.45676
425.42        10.48526
425.87         10.4434
426.31        10.35518
426.76        10.29532
427.21        10.26388
427.65        10.16856
428.10        10.06472
428.54        10.10133
428.99        10.28701
429.44         10.5641
429.88        10.81027
430.33        10.86069
430.77        10.69319
431.22        10.36052
431.66        10.01437
432.11        9.927361
432.56        10.12514
433.00        10.47475
433.45        10.82565
433.89        11.05096
434.34        11.05626
434.78         10.7859
435.23         10.4336
435.67        10.36442
436.12        10.55224
436.57        10.62208
437.01        10.52443
437.46        10.44183
437.90        10.39065
438.35        10.32319
438.79        10.25035
439.24        10.21843
439.68        10.23527
440.13        10.23974
440.57        10.23478
441.02        10.36266
441.46        10.53506
441.91        10.39372
442.35        10.01105
442.80        9.796354
443.24        9.736458
443.69        9.682091
444.13        9.603036
444.58        9.460005
445.02        9.293553
445.47        9.305863
445.91        9.447384
446.36        9.466916
446.80        9.342233
447.24        9.208876
447.69        9.110028
448.13          9.0483
448.58        9.041183
449.02        9.084054
449.47        9.142212
449.91        9.158447
450.36        9.121666
450.80        9.043889
451.25        8.968201
451.69        8.952128
452.13        9.008462
452.58        9.106285
453.02        9.206138
453.47        9.238981
453.91        9.195701
454.36        9.104636
454.80        8.994513
455.24        8.915646
455.69        8.890335
456.13        8.892694
456.58        8.935056
457.02        9.022118
457.46        9.150373
457.91        9.313079
458.35        9.462803
458.79        9.512625
459.24        9.458365
459.68        9.314938
460.13        9.166655
460.57        9.114531
461.01        9.192611
461.46        9.360518
461.90        9.554098
462.34        9.656514
462.79        9.640107
463.23         9.53387
463.68        9.409308
464.12        9.383701
464.56        9.487465
465.01        9.678838
465.45        9.863083
465.89        9.936791
466.34        9.890444
466.78         9.71193
467.22        9.498857
467.67        9.502469
468.11        9.702378
468.55        9.796887
468.99        9.764586
469.44        9.769318
469.88        9.843322
470.32        10.01812
470.77         10.2233
471.21        10.27095
471.65        10.13677
472.10        9.944723
472.54        9.773387
472.98        9.723678
473.42        9.825148
473.87        10.04747
474.31         10.3061
474.75        10.45998
475.20        10.47904
475.64        10.39898
476.08        10.29323
476.52        10.27591
476.97        10.37243
477.41        10.54766
477.85         10.7308
478.29        10.82976
478.74         10.8232
479.18        10.69154
479.62        10.50827
480.06        10.56115
480.50        10.65246
480.95        10.78289
481.39        10.83557
481.83        10.85664
482.27        10.83792
482.72        10.70662
483.16        10.53178
483.60        10.57833
484.04        10.85755
484.48        11.02874
484.93        11.22685
485.37         11.5921
485.81        11.96074
486.25        12.19151
486.69        15.63293
487.14        12.32468
487.58        8.348296
488.02        10.32671
488.46        11.69469
488.90        11.75143
489.34        11.85178
489.79        11.87438
490.23        12.60529
490.67        13.07346
491.11        13.07312
491.55        12.95387
491.99        12.71757
492.43        12.51101
492.88        12.40892
493.32        12.39488
493.76        12.40569
494.20         12.5866
494.64        12.89858
495.08         13.2943
495.52         13.7058
495.96        14.04687
496.41        14.25207
496.85        14.32597
497.29        14.30395
497.73        14.11014
498.17        13.93492
498.61        14.10865
499.05        14.62147
499.49        14.76646
499.93        14.88612
500.37        15.01287
500.82        15.10397
501.26        15.30854
501.70        15.54807
502.14         15.6885
502.58        15.71606
503.02        15.76308
503.46        15.83443
503.90        15.84795
504.34        15.81139
504.78        15.77628
505.22        15.75406
505.66        15.74275
506.10        15.74305
506.54        15.75331
506.98        15.77673
507.42        15.81499
507.86        15.88922
508.30        16.03064
508.74         16.2343
509.18        16.47929
509.62        16.71411
510.06          16.856
510.50        16.88707
510.94        16.83872
511.38         16.7496
511.82        16.68255
512.26        16.66169
512.70        16.66699
513.14        16.70927
513.58        16.80398
514.02        16.93417
514.46        17.08868
514.90        17.21799
515.34        17.20506
515.78        17.00526
516.22        16.81785
516.66        16.71574
517.10        16.34459
517.54        15.72685
517.98        16.55393
518.42        16.34065
518.86        16.69849
519.30        16.86609
519.74        17.07807
520.18        17.27791
520.62        17.34422
521.06        17.28865
521.50        17.12126
521.93        16.90742
522.37        16.76802
522.81        16.73479
523.25        16.77763
523.69        16.85841
524.13        16.91496
524.57        16.92638
525.01         16.9116
525.45        16.88165
525.89        16.85234
526.32        16.82711
526.76        16.79786
527.20         16.7553
527.64        16.69562
528.08        16.62117
528.52        16.51907
528.96        16.39946
529.40        16.32121
529.83        16.29984
530.27        16.15753
530.71        16.18997
531.15         16.1012
531.59        15.98359
532.03        15.83772
532.46         15.7217
532.90        15.73239
533.34         15.8725
533.78        16.10291
534.22        16.32794
534.66        16.40715
535.09        16.30951
535.53        16.08742
535.97        15.81666
536.41        15.62191
536.85        15.54367
537.28        15.55044
537.72        15.60594
538.16        15.64991
538.60        15.66344
539.04        15.65552
539.47        15.65217
539.91        15.72773
540.35        15.87184
540.79        16.00361
541.22        16.09838
541.66        16.18413
542.10        16.25455
542.54        16.27686
542.97        16.29113
543.41        16.38903
543.85        16.57875
544.29        16.84099
544.72         17.1004
545.16        17.24604
545.60         17.2578
546.04        17.16829
546.47        17.07939
546.91        17.16122
547.35        17.43656
547.79        17.85172
548.22        18.27899
548.66        18.50057
549.10        18.48413
549.53        18.32921
549.97        18.15892
550.41        18.11187
550.84        18.23556
551.28        18.49726
551.72        18.84065
552.15        19.16388
552.59        19.42017
553.03        19.63157
553.46        19.80485
553.90        19.96464
554.34        20.12399
554.77        20.25101
555.21        20.33331
555.65        20.41484
556.08        20.50912
556.52         20.3637
556.96         20.4876
557.39        20.54425
557.83        20.68683
558.27        20.87701
558.70         21.0873
559.14        21.25726
559.57        21.36095
560.01        21.42893
560.45        21.45375
560.88        21.42394
561.32        21.36776
561.75        21.27814
562.19        21.21525
562.63        21.24128
563.06        21.36189
563.50        21.56164
563.93        21.78697
564.37        21.95995
564.80        22.05154
565.24        22.09142
565.68         22.1045
566.11        22.13246
566.55        22.20572
566.98        22.30475
567.42        22.43373
567.85        22.59283
568.29        22.78892
568.72        22.95582
569.16        23.12597
569.60        23.40759
570.03        23.69584
570.47        23.77989
570.90        23.74883
571.34        23.39933
571.77        23.74056
572.21        23.79522
572.64        23.75865
573.08        23.45489
573.51        22.95018
573.95        24.04751
574.38         25.4753
574.82         25.1422
