SpectraSmart Spectrum 2.9.0.0
--------- Device Information -----------
Spectrum Name :  反射率_0
Saving Time :  2024/04/26 22:56:45
Spectro-Module Model Name : SE2030-DUVN
Spectro-Module Serial Number : OS361AC55029948
Wavelength Start : 200
Wavelength End : 1025
Wavelength Unit : Wavelength(nm)
Spectrum Unit : Reflectance(%)
-----------Spectrum Setting ------------
Integration Time : 20ms
Average : 10
Boxcar : 0
Background removal :  enabled
linearity correction :  enabled
SC :  disabled
Intensity correction :  disabled
DWT denoise :  enabled
savitzky-golay :  disabled
FFT :  disabled
Running average :  disabled
Kalman :  disabled
High pass :  disabled
---------------BEGIN--------------------
Wavelength(nm)             Reflectance(%)
200.29               0
200.75        30.12098
201.21        33.35528
201.67        36.27393
202.13        37.59736
202.58        37.24147
203.04        35.92901
203.50        33.98995
203.96        32.53076
204.42        32.44204
204.88        33.22728
205.34        34.88332
205.80        37.25051
206.26        39.57315
206.72        41.52415
207.18        42.20424
207.64        40.57532
208.10        36.49081
208.55        29.70078
209.01        20.10064
209.47         14.0784
209.93        15.99468
210.39        21.84662
210.85        27.90626
211.31        33.44449
211.77        40.27386
212.23        52.97124
212.69        82.11826
213.14        128.4702
213.60        121.9793
214.06         85.3842
214.52        61.59542
214.98        51.09473
215.44        46.51627
215.90        43.67406
216.36        42.19216
216.81        41.90773
217.27        43.11515
217.73        47.64474
218.19        53.48063
218.65        51.72595
219.11        42.15625
219.57        31.34166
220.02        26.07838
220.48        30.18407
220.94        43.66071
221.40        68.60988
221.86        104.0943
222.32        126.2348
222.77        115.3676
223.23        87.91193
223.69        61.50766
224.15        45.86087
224.61        39.14684
225.06        36.58622
225.52         36.8562
225.98        38.93406
226.44        42.14616
226.90        46.79119
227.36        51.40211
227.81        53.14285
228.27        51.68176
228.73        47.90475
229.19        43.88922
229.65        42.09601
230.10        42.67825
230.56        44.87639
231.02        47.23164
231.48        47.43966
231.93        45.23205
232.39        41.96532
232.85        39.04791
233.31        38.27927
233.77        39.77736
234.22        42.74055
234.68        46.24372
235.14        49.00567
235.60        50.53237
236.05        51.24195
236.51        51.04003
236.97        49.82229
237.43         47.7854
237.88        45.03942
238.34        42.31553
238.80        41.02625
239.26        41.70685
239.71        44.73618
240.17        49.97139
240.63        56.25269
241.08        62.49636
241.54        68.07276
242.00        73.11455
242.46        79.04958
242.91        87.65686
243.37        99.19628
243.83        113.6539
244.28        124.7305
244.74        122.7703
245.20         108.449
245.66        92.60885
246.11        83.89483
246.57        82.48184
247.03        85.72145
247.48        89.02928
247.94        85.18806
248.40        75.91098
248.85        65.96623
249.31        58.52039
249.77        54.60283
250.22        53.24119
250.68        53.29454
251.14        54.26781
251.59        54.82073
252.05        54.57663
252.51        54.79635
252.96        54.28345
253.42        52.13368
253.88        48.82337
254.33          44.581
254.79        42.36915
255.25        44.67863
255.70        50.90157
256.16        59.81798
256.62        67.24436
257.07         67.0407
257.53        61.03301
257.99        53.32985
258.44        47.26114
258.90        45.52197
259.35         46.8878
259.81        50.02032
260.27        53.11592
260.72        53.99704
261.18        52.78881
261.63        50.34544
262.09        48.03584
262.55        46.82755
263.00        46.62325
263.46        47.03156
263.91        47.28295
264.37        46.68506
264.83        45.21241
265.28        43.25521
265.74        41.48607
266.19        40.45245
266.65        40.26996
267.11        40.60522
267.56        41.12366
268.02         41.3073
268.47        40.99277
268.93        40.36799
269.38        39.53735
269.84         38.7088
270.30        37.94642
270.75        37.17354
271.21        36.44463
271.66        35.80205
272.12        35.25585
272.57        34.79675
273.03         34.3727
273.48        33.87114
273.94        33.31279
274.39        32.69736
274.85        32.12238
275.31        31.60338
275.76        31.12363
276.22         30.6929
276.67        30.27401
277.13        29.89593
277.58        29.51232
278.04        29.14965
278.49        28.72959
278.95        28.24527
279.40        27.66041
279.86        27.05436
280.31        26.44427
280.77        25.94424
281.22        25.53863
281.68        25.24751
282.13        25.00405
282.59        24.78861
283.04        24.56068
283.50        24.33567
283.95        24.12869
284.41        23.97889
284.86        23.88395
285.32        23.84328
285.77         23.7878
286.22        23.67455
286.68        23.50012
287.13        23.25699
287.59        23.01522
288.04        22.84111
288.50          22.769
288.95        22.75393
289.41        22.75169
289.86        22.64066
290.32        22.43428
290.77        22.16184
291.22        21.91642
291.68        21.82196
292.13        21.89467
292.59        22.10833
293.04        22.39252
293.50        22.65532
293.95        22.86132
294.40        23.04124
294.86         23.2399
295.31        23.52011
295.77        23.89887
296.22        24.33907
296.68        24.79915
297.13        25.20768
297.58        25.55116
298.04        25.85118
298.49        26.14048
298.95        26.48433
299.40        26.88832
299.85        27.33328
300.31        27.77639
300.76         28.1452
301.21         28.4294
301.67        28.66767
302.12        28.88412
302.58        29.16595
303.03        29.50196
303.48        29.87055
303.94        30.24219
304.39        30.54913
304.84        30.78007
305.30           30.96
305.75        31.07249
306.20         31.1414
306.66         31.1866
307.11        31.19946
307.57        31.19499
308.02        31.15547
308.47        31.09435
308.93        31.02279
309.38        30.96432
309.83        30.99426
310.29        31.11471
310.74        31.29395
311.19        31.44701
311.65        31.43119
312.10        31.21855
312.55        30.86173
313.00        30.46616
313.46        30.19019
313.91        30.05884
314.36        30.02726
314.82        30.02982
315.27        29.96749
315.72        29.80616
316.18        29.59206
316.63        29.33856
317.08        29.07602
317.53         28.8192
317.99         28.5505
318.44        28.29624
318.89        28.09418
319.35        27.94931
319.80        27.85174
320.25        27.76332
320.70        27.61951
321.16        27.40196
321.61        27.13682
322.06        26.84829
322.51        26.58232
322.97         26.3516
323.42        26.14451
323.87        25.96043
324.32        25.80336
324.78        25.65826
325.23        25.53914
325.68        25.40012
326.13        25.17367
326.59        24.85015
327.04        24.45889
327.49        24.06266
327.94        23.76157
328.39        23.57494
328.85        23.46922
329.30        23.40437
329.75        23.26274
330.20        23.01837
330.66        22.70576
331.11        22.40426
331.56        22.21986
332.01        22.17774
332.46        22.23737
332.92        22.32418
333.37        22.35048
333.82        22.26719
334.27        22.10167
334.72        21.89246
335.17        21.70197
335.63        21.55528
336.08        21.45521
336.53        21.37847
336.98        21.29576
337.43        21.19951
337.88        21.09034
338.34        21.01571
338.79        21.07292
339.24        21.25896
339.69        21.53784
340.14        21.77734
340.59        21.76961
341.05        21.48791
341.50        21.00621
341.95         20.4852
342.40        20.17087
342.85        20.12496
343.30         20.2713
343.75        20.51144
344.20         20.6819
344.66        20.72634
345.11        20.69034
345.56        20.60079
346.01         20.4987
346.46        20.40739
346.91        20.31354
347.36        20.22134
347.81         20.1468
348.26        20.09496
348.72        20.06698
349.17        20.07196
349.62        20.12889
350.07        20.23167
350.52        20.36953
350.97        20.48748
351.42        20.50024
351.87        20.39248
352.32        20.18958
352.77        19.96055
353.22        19.80873
353.67        19.75676
354.13        19.77931
354.58        19.81787
355.03        19.77934
355.48        19.64284
355.93         19.4434
356.38        19.24026
356.83        19.11896
357.28        19.09422
357.73         19.1316
358.18        19.17884
358.63         19.1541
359.08        19.03654
359.53        18.85746
359.98        18.65274
360.43        18.47249
360.88        18.33223
361.33        18.21574
361.78        18.11546
362.23        18.02217
362.68        17.93105
363.13        17.84636
363.58        17.76329
364.03        17.67153
364.48          17.566
364.93        17.44465
365.38        17.31065
365.83         17.1718
366.28        17.03505
366.73        16.90696
367.18        16.78433
367.63        16.66019
368.08        16.53592
368.53        16.41233
368.98        16.31223
369.43        16.27124
369.88        16.28905
370.33        16.34884
370.78        16.40211
371.23        16.37035
371.68        16.23466
372.13        16.01892
372.58        15.77086
373.03        15.56794
373.48        15.43472
373.93        15.35178
374.38        15.29546
374.83        15.22721
375.28        15.13268
375.72        15.01827
376.17        14.90605
376.62          14.806
377.07         14.7225
377.52        14.65484
377.97        14.58388
378.42         14.4839
378.87        14.35521
379.32        14.20529
379.77        14.08045
380.22        14.04749
380.67        14.11139
381.11        14.25446
381.56        14.39545
382.01        14.40805
382.46        14.26724
382.91        14.02282
383.36        13.76205
383.81        13.60684
384.26         13.5797
384.71         13.6384
385.15        13.73301
385.60        13.78445
386.05        13.76436
386.50        13.70338
386.95         13.6156
387.40        13.52135
387.85        13.43381
388.29        13.33679
388.74        13.26152
389.19        13.22414
389.64        13.22288
390.09        13.24953
390.54        13.27807
390.98        13.26034
391.43        13.19478
391.88        13.09538
392.33        12.98466
392.78        12.89512
393.23        12.83451
393.67        12.78625
394.12        12.75456
394.57        12.71957
395.02        12.67599
395.47        12.62628
395.91        12.57692
396.36        12.52933
396.81        12.49425
397.26        12.47276
397.71        12.45683
398.15        12.44237
398.60        12.44294
399.05        12.40661
399.50        12.35638
399.95        12.41796
400.39        12.55255
400.84        12.52827
401.29        12.35595
401.74        12.25056
402.18        12.22633
402.63        12.15955
403.08        12.06023
403.53         11.9979
403.97        11.97774
404.42        11.98283
404.87        11.99829
405.32        11.99708
405.76        11.96936
406.21         11.9278
406.66        11.88536
407.11         11.8649
407.55        11.87421
408.00        11.89925
408.45        11.92354
408.90        11.91358
409.34        11.86193
409.79        11.78369
410.24        11.70266
410.68        11.64709
411.13        11.62643
411.58        11.62964
412.03        11.64178
412.47        11.63853
412.92        11.60892
413.37        11.56626
413.81        11.51873
414.26        11.48621
414.71        11.46884
415.15         11.4618
415.60        11.45915
416.05        11.45991
416.49        11.46331
416.94        11.47035
417.39        11.47549
417.83        11.46893
418.28        11.44796
418.73        11.41154
419.17        11.37478
419.62        11.36295
420.07        11.37976
420.51        11.41531
420.96        11.44561
421.41        11.43089
421.85        11.36301
422.30        11.25631
422.74        11.13766
423.19         11.0979
423.64        11.12752
424.08        11.14174
424.53        11.12696
424.98        11.14867
425.42         11.2087
425.87        11.24051
426.31        11.23424
426.76         11.2574
427.21        11.27677
427.65        11.13809
428.10        10.91856
428.54        10.85354
428.99        10.96314
429.44        11.16702
429.88        11.37167
430.33        11.38833
430.77        11.23444
431.22        11.15796
431.66         11.1714
432.11        11.11307
432.56        11.00286
433.00        10.93731
433.45        10.89635
433.89        10.87872
434.34        10.91504
434.78        10.70204
435.23        10.85605
435.67        10.87425
436.12        10.90958
436.57        10.86851
437.01        10.77098
437.46        10.71889
437.90        10.71873
438.35        10.71283
438.79        10.69673
439.24        10.69966
439.68        10.72029
440.13        10.75015
440.57        10.78333
441.02        10.81871
441.46        10.84978
441.91        10.84628
442.35        10.80775
442.80         10.8402
443.24        10.89849
443.69        10.80222
444.13        10.59122
444.58        10.49841
445.02        10.53674
445.47        10.58867
445.91        10.62778
446.36        10.66299
446.80         10.6809
447.24        10.68277
447.69        10.66863
448.13        10.63326
448.58        10.58281
449.02        10.51634
449.47        10.45603
449.91        10.43311
450.36        10.45436
450.80        10.50878
451.25        10.57062
451.69          10.593
452.13        10.56682
452.58        10.50417
453.02        10.42908
453.47        10.38288
453.91        10.37583
454.36        10.39573
454.80        10.41991
455.24         10.4107
455.69        10.36423
456.13        10.28931
456.58        10.21755
457.02        10.17706
457.46        10.17976
457.91        10.21293
458.35        10.25217
458.79        10.26072
459.24        10.23909
459.68        10.19165
460.13        10.14938
460.57        10.13062
461.01        10.14884
461.46        10.18533
461.90        10.23252
462.34        10.26801
462.79        10.28038
463.23        10.28077
463.68        10.26244
464.12        10.22188
464.56         10.1618
465.01        10.09883
465.45          10.035
465.89        10.00115
466.34        10.00042
466.78        10.02291
467.22        10.06103
467.67        10.09067
468.11        10.10896
468.55        10.11633
468.99         10.1174
469.44        10.11903
469.88        10.12382
470.32        10.12882
470.77        10.13206
471.21        10.13389
471.65        10.13314
472.10        10.13237
472.54        10.13171
472.98        10.13574
473.42        10.14417
473.87        10.15761
474.31        10.16535
474.75        10.16138
475.20        10.14779
475.64        10.12498
476.08        10.10167
476.52        10.08484
476.97        10.07862
477.41        10.08737
477.85        10.11423
478.29        10.14867
478.74        10.19593
479.18         10.2778
479.62        10.37943
480.06        10.46039
480.50        10.51475
480.95        10.54599
481.39        10.54638
481.83        10.60868
482.27        10.58023
482.72        10.58941
483.16        10.60783
483.60        10.63473
484.04        10.65234
484.48        10.76545
484.93        11.00031
485.37        10.95122
485.81        10.90234
486.25        11.35595
486.69        10.88653
487.14        10.88361
487.58        11.59608
488.02        11.40211
488.46        11.26745
488.90        11.32224
489.34        11.20743
489.79        11.39817
490.23        11.60919
490.67        11.77326
491.11        11.83756
491.55        11.80921
491.99        11.74514
492.43        11.76492
492.88        11.88958
493.32        12.04404
493.76        12.19527
494.20        12.33202
494.64        12.44536
495.08        12.51932
495.52        12.56753
495.96        12.67963
496.41        12.84292
496.85        12.89221
497.29        12.84446
497.73        12.99816
498.17        13.16135
498.61         13.2746
499.05        13.27819
499.49        13.31416
499.93        13.36309
500.37        13.48886
500.82        13.65848
501.26        13.78143
501.70        13.84431
502.14        13.90221
502.58        13.96976
503.02        14.04149
503.46        14.12106
503.90        14.21082
504.34        14.29419
504.78        14.34394
505.22        14.35616
505.66         14.3399
506.10        14.32218
506.54        14.34591
506.98        14.41975
507.42        14.53039
507.86        14.65067
508.30        14.73488
508.74        14.77169
509.18        14.77728
509.62         14.7715
510.06        14.78714
510.50        14.83368
510.94        14.89683
511.38        14.97185
511.82        15.05197
512.26        15.13063
512.70        15.21106
513.14        15.27719
513.58        15.30212
514.02        15.28362
514.46        15.22998
514.90         15.1697
515.34        15.15002
515.78        15.18181
516.22        15.25117
516.66        15.33284
517.10        15.38462
517.54        15.39442
517.98        15.37558
518.42        15.34134
518.86        15.31326
519.30        15.29824
519.74        15.28694
520.18        15.27735
520.62        15.26735
521.06        15.25549
521.50        15.24634
521.93        15.23499
522.37        15.20563
522.81        15.16018
523.25        15.10248
523.69        15.04842
524.13        15.02322
524.57        15.02915
525.01        15.05511
525.45        15.08202
525.89         15.0789
526.32        15.03662
526.76        14.97097
527.20        14.89105
527.64        14.81233
528.08        14.74318
528.52        14.67987
528.96        14.63148
529.40        14.61228
529.83        14.62073
530.27        14.65065
530.71        14.68178
531.15        14.68223
531.59        14.64358
532.03        14.57396
532.46        14.48291
532.90         14.3981
533.34        14.32588
533.78        14.25276
534.22        14.18096
534.66        14.12959
535.09        14.08986
535.53        14.03419
535.97        13.96434
536.41        13.91803
536.85         13.8976
537.28        13.87656
537.72        13.87075
538.16        13.91611
538.60        14.01131
539.04        14.14294
539.47        14.26647
539.91        14.32318
540.35        14.30243
540.79         14.2276
541.22        14.14702
541.66        14.14347
542.10        14.23379
542.54        14.39011
542.97        14.57432
543.41        14.73165
543.85        14.84234
544.29        14.92638
544.72        14.99058
545.16        15.05599
545.60        15.12894
546.04        15.20401
546.47        15.29292
546.91        15.41506
547.35         15.5693
547.79        15.74539
548.22        15.92245
548.66        16.07433
549.10        16.20789
549.53        16.30255
549.97        16.37761
550.41        16.44817
550.84        16.54019
551.28        16.67752
551.72        16.83829
552.15        17.00794
552.59        17.19895
553.03        17.16106
553.46          17.412
553.90        17.50519
554.34        17.59307
554.77        17.67621
555.21        17.76165
555.65        17.84539
556.08        17.92192
556.52        17.98494
556.96        18.03833
557.39        18.13692
557.83        18.26782
558.27        18.32043
558.70        18.30607
559.14        18.35419
559.57        18.45564
560.01        18.52108
560.45        18.54749
560.88        18.58863
561.32        18.65603
561.75        18.71571
562.19        18.77308
562.63        18.83311
563.06        18.89252
563.50        18.95292
563.93        19.00048
564.37         19.0616
564.80        19.14415
565.24        19.19671
565.68        19.17937
566.11        19.44764
566.55        19.30502
566.98        19.33451
567.42        19.37438
567.85        19.47628
568.29        19.64943
568.72        19.88563
569.16        20.17314
569.60         20.3694
570.03         20.5344
570.47        20.68909
570.90        20.87426
571.34        20.85226
571.77         21.1393
572.21        21.29059
572.64        21.41536
573.08        21.63652
573.51        21.62653
573.95        21.75543
574.38         21.9437
574.82        21.98016
