SpectraSmart Spectrum 2.9.0.0
--------- Device Information -----------
Spectrum Name :  反射率_0
Saving Time :  2024/04/26 23:05:23
Spectro-Module Model Name : SE2030-DUVN
Spectro-Module Serial Number : OS361AC55029948
Wavelength Start : 200
Wavelength End : 1025
Wavelength Unit : Wavelength(nm)
Spectrum Unit : Reflectance(%)
-----------Spectrum Setting ------------
Integration Time : 20ms
Average : 10
Boxcar : 0
Background removal :  enabled
linearity correction :  enabled
SC :  disabled
Intensity correction :  disabled
DWT denoise :  enabled
savitzky-golay :  disabled
FFT :  disabled
Running average :  disabled
Kalman :  disabled
High pass :  disabled
---------------BEGIN--------------------
Wavelength(nm)             Reflectance(%)
200.29               0
200.75        45.40628
201.21        41.42052
201.67        38.43129
202.13        37.32716
202.58        38.01035
203.04        40.56374
203.50          45.354
203.96        51.91526
204.42        59.10766
204.88        66.40781
205.34        71.57794
205.80        71.95734
206.26        67.68684
206.72        60.19702
207.18        52.83054
207.64        47.95601
208.10        45.40138
208.55        45.01941
209.01        45.98771
209.47         46.3962
209.93        45.64659
210.39        44.82808
210.85        45.42519
211.31        49.24752
211.77        58.18034
212.23        78.17206
212.69        126.9018
213.14        205.0837
213.60        195.4576
214.06        135.4808
214.52        96.65009
214.98         79.9257
215.44        73.44872
215.90        70.36062
216.36         69.6546
216.81        70.86489
217.27        74.09753
217.73         81.8348
218.19        92.23151
218.65        93.69804
219.11        84.12792
219.57        71.65311
220.02         64.3875
220.48         67.0229
220.94        79.26736
221.40        102.7841
221.86        137.8009
222.32        163.9413
222.77        160.7604
223.23        140.6931
223.69        118.5608
224.15        103.1865
224.61        94.15771
225.06        88.09157
225.52        84.85194
225.98        83.97065
226.44        84.97182
226.90        87.89155
227.36         91.8781
227.81        95.08757
228.27        97.00694
228.73        97.68503
229.19        98.01008
229.65         99.2737
230.10        101.5167
230.56        104.3905
231.02        106.6889
231.48        106.6117
231.93        104.0269
232.39        100.3211
232.85        96.81528
233.31        95.25427
233.77        95.75996
234.22         97.6058
234.68        100.0187
235.14        101.8716
235.60        102.6997
236.05        102.9263
236.51        102.1724
236.97        100.0566
237.43        96.70551
237.88        92.38746
238.34        88.00672
238.80        85.32173
239.26        84.89962
239.71        87.12495
240.17        91.53497
240.63        96.83107
241.08        102.0459
241.54        106.6896
242.00        111.0601
242.46        116.5081
242.91        124.8934
243.37        135.7552
243.83        150.1746
244.28        165.4785
244.74        172.2782
245.20        167.5561
245.66        155.7808
246.11        141.3621
246.57        125.8795
247.03        108.9893
247.48        90.97176
247.94        75.82169
248.40        67.04262
248.85        63.01359
249.31        62.20466
249.77        62.88451
250.22        64.42753
250.68        67.20992
251.14         71.2037
251.59        75.01072
252.05         77.2617
252.51        78.07325
252.96         77.0135
253.42        74.61363
253.88        71.48534
254.33        67.83327
254.79        65.84135
255.25        66.89821
255.70        70.66389
256.16        76.54835
256.62        82.14915
257.07        83.64399
257.53        81.83314
257.99        78.68495
258.44          75.951
258.90        75.70562
259.35        77.01995
259.81        79.41559
260.27        81.58975
260.72        82.00931
261.18         80.9948
261.63        78.94717
262.09        77.21753
262.55        76.57417
263.00        76.83953
263.46        77.80299
263.91         78.5128
264.37        78.22134
264.83        76.86824
265.28        74.84026
265.74        73.06345
266.19        72.26629
266.65        72.61687
267.11        73.66484
267.56         74.8496
268.02        75.30357
268.47        74.78207
268.93        73.63181
269.38         72.1561
269.84        70.90832
270.30        70.02733
270.75        69.30882
271.21        68.73044
271.66        68.18006
272.12        67.61418
272.57        67.04749
273.03        66.39836
273.48        65.47839
273.94        64.35326
274.39        63.03687
274.85        61.75824
275.31        60.62555
275.76        59.64429
276.22        58.85637
276.67        58.15805
277.13         57.5717
277.58        56.98027
278.04        56.39624
278.49        55.74863
278.95        55.11491
279.40         54.4146
279.86        53.75846
280.31        52.94384
280.77        51.86682
281.22        50.50179
281.68        49.03676
282.13        47.70248
282.59        46.96311
283.04        46.78851
283.50        47.04265
283.95        47.38374
284.41        47.30427
284.86        46.67531
285.32        45.71962
285.77         44.6481
286.22        43.84954
286.68        43.40604
287.13        43.13796
287.59        42.96252
288.04        42.69112
288.50        42.31053
288.95        41.86054
289.41        41.38847
289.86        40.85154
290.32        40.30949
290.77        39.73138
291.22        39.20701
291.68        38.85577
292.13        38.67374
292.59        38.64921
293.04        38.68942
293.50        38.67409
293.95         38.5647
294.40        38.40769
294.86         38.2779
295.31        38.28008
295.77        38.44593
296.22        38.71844
296.68        39.04996
297.13        39.34441
297.58        39.58305
298.04        39.80132
298.49        40.00771
298.95        40.23844
299.40         40.4921
299.85         40.7467
300.31        41.01649
300.76        41.31228
301.21        41.62529
301.67        41.95623
302.12        42.22404
302.58        42.37421
303.03        42.37355
303.48        42.28184
303.94        42.16866
304.39        42.09283
304.84        42.09179
305.30        42.15247
305.75        42.24712
306.20        42.39399
306.66         42.5903
307.11        42.81252
307.57        43.01665
308.02        43.07571
308.47        42.98856
308.93        42.79671
309.38        42.57606
309.83        42.50391
310.29        42.60973
310.74        42.83064
311.19         43.0562
311.65        43.10009
312.10        42.91296
312.55        42.55893
313.00        42.15023
313.46        41.85029
313.91        41.68698
314.36        41.62453
314.82        41.58498
315.27        41.45675
315.72        41.21071
316.18        40.90079
316.63        40.59155
317.08         40.3968
317.53        40.33527
317.99        40.35433
318.44        40.38921
318.89        40.32581
319.35        40.13225
319.80        39.84708
320.25        39.51455
320.70        39.20487
321.16         38.9446
321.61        38.73102
322.06        38.55193
322.51        38.39286
322.97         38.2393
323.42        38.09338
323.87        37.97528
324.32        37.92107
324.78        37.91536
325.23        37.96999
325.68        37.97395
326.13         37.7576
326.59        37.30063
327.04        36.67543
327.49        36.06188
327.94        35.74551
328.39          35.785
328.85        36.08805
329.30        36.51377
329.75        36.72226
330.20        36.60589
330.66        36.25242
331.11        35.81684
331.56        35.52652
332.01        35.45059
332.46        35.50212
332.92        35.59271
333.37        35.63513
333.82        35.56742
334.27        35.44347
334.72        35.26973
335.17        35.04327
335.63        34.77932
336.08        34.49677
336.53        34.25008
336.98        34.14774
337.43        34.20954
337.88        34.39856
338.34        34.64475
338.79        34.85704
339.24        34.97799
339.69         35.0327
340.14        35.00528
340.59        34.88147
341.05        34.68538
341.50        34.41675
341.95        34.16071
342.40        34.04913
342.85        34.10749
343.30        34.30349
343.75        34.54185
344.20        34.66183
344.66        34.62113
345.11        34.45722
345.56        34.25161
346.01        34.13571
346.46        34.14871
346.91        34.26129
347.36        34.39533
347.81        34.43349
348.26         34.3536
348.72        34.19065
349.17        34.04977
349.62        34.10912
350.07        34.39206
350.52        34.83538
350.97        35.26262
351.42        35.39418
351.87        35.17448
352.32        34.69857
352.77        34.16283
353.22        33.85723
353.67        33.84624
354.13        34.04369
354.58         34.3004
355.03        34.36664
355.48         34.1759
355.93        33.81596
356.38        33.41938
356.83        33.17734
357.28        33.13149
357.73        33.21118
358.18        33.31334
358.63        33.27894
359.08        33.06758
359.53        32.73871
359.98        32.37676
360.43        32.09982
360.88        31.93608
361.33        31.84586
361.78        31.77289
362.23        31.63291
362.68        31.40731
363.13        31.12951
363.58        30.84866
364.03        30.63435
364.48        30.50141
364.93        30.42408
365.38        30.36028
365.83        30.24647
366.28        30.06561
366.73        29.83668
367.18        29.59513
367.63        29.39468
368.08        29.24721
368.53        29.13617
368.98        29.02637
369.43        28.86185
369.88        28.63221
370.33        28.35895
370.78        28.08402
371.23        27.87696
371.68        27.75725
372.13        27.70213
372.58        27.67637
373.03        27.62333
373.48        27.52139
373.93        27.38214
374.38        27.21848
374.83        27.05303
375.28        26.89508
375.72        26.73343
376.17        26.57523
376.62        26.39935
377.07        26.20868
377.52        26.01562
377.97         25.8465
378.42        25.74438
378.87        25.71264
379.32        25.72462
379.77        25.75189
380.22        25.75312
380.67        25.71105
381.11        25.64408
381.56        25.52199
382.01        25.32902
382.46         25.0843
382.91         24.8134
383.36        24.57318
383.81        24.43799
384.26        24.41461
384.71        24.47453
385.15        24.57865
385.60         24.6599
386.05        24.68564
386.50        24.66497
386.95        24.58986
387.40        24.45339
387.85        24.26952
388.29        24.03984
388.74        23.82044
389.19        23.62935
389.64        23.47394
390.09        23.34394
390.54        23.25352
390.98        23.21658
391.43        23.24064
391.88        23.31338
392.33        23.38393
392.78        23.37911
393.23         23.2928
393.67        23.13935
394.12        22.99819
394.57        22.94352
395.02         22.9887
395.47        23.09692
395.91        23.22773
396.36        23.29871
396.81        23.29531
397.26        23.24691
397.71        23.15968
398.15        23.05698
398.60        22.97959
399.05        22.82754
399.50        22.65199
399.95          22.694
400.39        22.88534
400.84        22.81051
401.29        22.48999
401.74        22.31038
402.18        22.29634
402.63        22.21614
403.08        22.09195
403.53        22.05779
403.97        22.11705
404.42        22.23215
404.87        22.34871
405.32        22.37809
405.76        22.29828
406.21        22.14754
406.66        21.98379
407.11        21.90061
407.55        21.92619
408.00        22.02246
408.45        22.14079
408.90         22.1841
409.34        22.12131
409.79        21.98755
410.24        21.83339
410.68          21.721
411.13        21.67265
411.58        21.67081
412.03        21.67913
412.47        21.64067
412.92        21.53844
413.37        21.40193
413.81        21.28215
414.26        21.26936
414.71          21.367
415.15        21.55241
415.60        21.74966
416.05        21.84564
416.49        21.80843
416.94        21.67095
417.39        21.49826
417.83         21.3906
418.28        21.37432
418.73        21.41372
419.17        21.48165
419.62        21.53417
420.07         21.5553
420.51        21.56133
420.96        21.54929
421.41        21.50584
421.85        21.42878
422.30        21.31289
422.74        21.18626
423.19        21.18903
423.64        21.29556
424.08        21.35844
424.53        21.34877
424.98        21.38041
425.42        21.45926
425.87        21.45669
426.31        21.38931
426.76        21.44093
427.21        21.55703
427.65        21.42606
428.10        21.13719
428.54         21.0521
428.99        21.19738
429.44        21.45778
429.88        21.70761
430.33        21.66504
430.77        21.38179
431.22        21.30117
431.66        21.43253
432.11         21.4411
432.56        21.34541
433.00        21.37844
433.45        21.46481
433.89        21.44346
434.34        21.39944
434.78        20.95283
435.23        21.31948
435.67        21.37889
436.12        21.43552
436.57        21.39791
437.01         21.2898
437.46        21.23238
437.90        21.22562
438.35        21.18095
438.79        21.09955
439.24        21.05511
439.68        21.05139
440.13        21.06899
440.57        21.09823
441.02        21.14295
441.46        21.19283
441.91        21.18967
442.35         21.1339
442.80        21.23792
443.24        21.41175
443.69        21.29588
444.13        20.95584
444.58        20.82718
445.02        20.93436
445.47        21.05259
445.91        21.13832
446.36        21.22616
446.80        21.29364
447.24        21.33278
447.69        21.35139
448.13         21.3526
448.58        21.34643
449.02        21.33059
449.47        21.31212
449.91        21.29183
450.36        21.27872
450.80        21.26834
451.25        21.27544
451.69         21.3064
452.13        21.36095
452.58        21.42925
453.02        21.48753
453.47        21.50138
453.91        21.46436
454.36        21.39416
454.80        21.30221
455.24        21.20731
455.69        21.12756
456.13        21.04508
456.58        20.99784
457.02        21.00823
457.46        21.08394
457.91        21.21557
458.35        21.33773
458.79        21.35298
459.24        21.26329
459.68        21.08747
460.13        20.92115
460.57         20.8565
461.01        20.92906
461.46        21.09059
461.90         21.2935
462.34        21.44027
462.79         21.4908
463.23        21.47888
463.68        21.41574
464.12        21.33529
464.56        21.25081
465.01        21.17824
465.45        21.09608
465.89        21.03477
466.34         20.9969
466.78        20.97509
467.22         20.9772
467.67        20.99287
468.11        21.03017
468.55        21.08103
468.99        21.13341
469.44        21.16612
469.88        21.17679
470.32         21.1681
470.77        21.15734
471.21         21.1777
471.65        21.23222
472.10        21.31046
472.54        21.38844
472.98         21.4361
473.42        21.44604
473.87        21.43748
474.31        21.40822
474.75        21.37484
475.20         21.3505
475.64        21.32363
476.08        21.31152
476.52        21.32985
476.97        21.37835
477.41        21.46069
477.85         21.5606
478.29        21.61794
478.74         21.6398
479.18        21.69196
479.62        21.76254
480.06        21.79726
480.50        21.80177
480.95        21.78118
481.39        21.73574
481.83        21.87705
482.27        21.88437
482.72        22.00791
483.16        22.14867
483.60        22.24291
484.04         22.2586
484.48        22.37673
484.93        22.62587
485.37        22.39432
485.81        22.40533
486.25        22.72681
486.69        22.25107
487.14        22.53129
487.58        23.20921
488.02        23.21669
488.46        22.82956
488.90        23.18757
489.34        23.01833
489.79        23.38602
490.23        23.70598
490.67        23.78644
491.11        23.63797
491.55        23.55468
491.99        23.59727
492.43        23.62775
492.88        23.66505
493.32        23.79003
493.76        23.98352
494.20        24.18663
494.64        24.39075
495.08        24.57064
495.52        24.70793
495.96        24.91184
496.41        25.13754
496.85         25.0651
497.29        24.78096
497.73        24.95217
498.17        25.22389
498.61        25.44918
499.05        25.48254
499.49        25.55035
499.93        25.59944
500.37        25.76767
500.82        26.00644
501.26        26.16653
501.70        26.23125
502.14        26.29774
502.58        26.38694
503.02        26.48013
503.46        26.58119
503.90        26.69648
504.34        26.80383
504.78        26.86415
505.22        26.86932
505.66        26.83927
506.10        26.82237
506.54        26.81699
506.98        26.82098
507.42        26.97196
507.86        27.28298
508.30        27.00173
508.74        27.34546
509.18        27.34016
509.62        27.36363
510.06        27.40491
510.50        27.47702
510.94        27.55577
511.38        27.62776
511.82        27.70769
512.26        27.79185
512.70          27.879
513.14        27.94597
513.58        27.98941
514.02        28.01316
514.46        27.95496
514.90        27.82913
515.34        28.00898
515.78         27.9488
516.22        28.07503
516.66        28.18439
517.10        28.22749
517.54        28.18787
517.98        28.09639
518.42        27.98844
518.86        27.90557
519.30        27.86462
519.74        27.84854
520.18        27.85685
520.62        27.88835
521.06        27.93734
521.50        28.00917
521.93        28.07587
522.37        28.08006
522.81        28.01738
523.25        27.89982
523.69        27.77951
524.13        27.74019
524.57        27.79473
525.01        27.91388
525.45         28.0375
525.89        28.06756
526.32        27.97873
526.76        27.81365
527.20        27.61939
527.64        27.47127
528.08        27.39255
528.52        27.35871
528.96        27.35447
529.40        27.35699
529.83        27.35317
530.27        27.35239
530.71         27.3435
531.15        27.30894
531.59        27.24782
532.03        27.16426
532.46         27.0665
532.90        26.98975
533.34         26.9381
533.78        26.88827
534.22        26.84199
534.66        26.83347
535.09        26.84035
535.53        26.80056
535.97         26.7132
536.41        26.64661
536.85        26.60651
537.28        26.55207
537.72        26.50534
538.16        26.52237
538.60        26.60638
539.04        26.73769
539.47        26.87457
539.91        26.96988
540.35        27.00701
540.79         27.0053
541.22        26.98921
541.66        27.00756
542.10        27.07067
542.54        27.16289
542.97        27.27224
543.41        27.39215
543.85         27.5131
544.29        27.64321
544.72        27.76843
545.16         27.8841
545.60        27.98625
546.04        28.08025
546.47        28.18786
546.91        28.34125
547.35        28.53965
547.79        28.76763
548.22        28.99561
548.66        29.17248
549.10        29.32188
549.53        29.44798
549.97         29.5594
550.41        29.60371
550.84        29.62181
551.28        29.69472
551.72        29.81789
552.15        30.00668
552.59        30.29396
553.03        30.23201
553.46         30.7006
553.90        30.84823
554.34         30.9271
554.77        31.01121
555.21        31.03765
555.65        31.13241
556.08        31.26427
556.52        31.40711
556.96        31.53037
557.39        31.67574
557.83        31.81217
558.27        31.76747
558.70        31.60335
559.14        31.60716
559.57        31.77716
560.01        31.93751
560.45        32.05015
560.88        32.15879
561.32        32.26862
561.75        32.33497
562.19        32.38392
562.63        32.44947
563.06        32.53366
563.50        32.63149
563.93        32.70639
564.37        32.78625
564.80        32.88137
565.24        32.91075
565.68        32.82351
566.11        33.25235
566.55        33.00731
566.98        33.07431
567.42        33.15048
567.85        33.28176
568.29        33.47535
568.72        33.73776
569.16        34.07238
569.60        34.24238
570.03        34.34995
570.47         34.4927
570.90        34.73926
571.34        34.43892
571.77        34.73864
572.21        34.94065
572.64        34.86381
573.08         35.1275
573.51        35.13368
573.95        35.25282
574.38        35.42316
574.82        35.46836
