SpectraSmart Spectrum 2.9.0.0
--------- Device Information -----------
Spectrum Name :  反射率_0
Saving Time :  2024/04/26 23:00:15
Spectro-Module Model Name : SE2030-DUVN
Spectro-Module Serial Number : OS361AC55029948
Wavelength Start : 200
Wavelength End : 1025
Wavelength Unit : Wavelength(nm)
Spectrum Unit : Reflectance(%)
-----------Spectrum Setting ------------
Integration Time : 20ms
Average : 10
Boxcar : 0
Background removal :  enabled
linearity correction :  enabled
SC :  disabled
Intensity correction :  disabled
DWT denoise :  enabled
savitzky-golay :  disabled
FFT :  disabled
Running average :  disabled
Kalman :  disabled
High pass :  disabled
---------------BEGIN--------------------
Wavelength(nm)             Reflectance(%)
200.29               0
200.75        20.54854
201.21        19.89655
201.67        19.31601
202.13        18.59847
202.58        17.52642
203.04        16.18048
203.50        14.84459
203.96        14.46527
204.42         15.6552
204.88        18.35058
205.34        21.23926
205.80        21.91878
206.26        20.03159
206.72        16.69448
207.18        13.53676
207.64        11.81669
208.10        11.47111
208.55         12.1476
209.01        13.54205
209.47        14.44293
209.93        14.22296
210.39        13.93887
210.85        13.85135
211.31        14.15028
211.77        15.12382
212.23        17.13002
212.69        24.27707
213.14        48.82701
213.60        68.88277
214.06        67.99267
214.52        60.66624
214.98        53.23037
215.44        45.29566
215.90            35.5
216.36        25.60371
216.81        18.79535
217.27        16.37877
217.73        18.08803
218.19         23.4377
218.65        27.28353
219.11        26.58381
219.57        24.10951
220.02        22.80791
220.48        24.76916
220.94        30.27798
221.40        39.88819
221.86         53.3899
222.32        62.41788
222.77        59.31829
223.23        49.85709
223.69        40.29514
224.15        34.09169
224.61         30.8238
225.06        29.02859
225.52        28.37873
225.98        28.55854
226.44        29.37978
226.90        30.94235
227.36        32.88087
227.81        34.39252
228.27        35.26584
228.73        35.48632
229.19        35.56238
229.65        36.21053
230.10        37.46284
230.56        39.10823
231.02        40.43035
231.48        40.31602
231.93        38.69268
232.39        36.35379
232.85          34.166
233.31        33.25742
233.77        33.70552
234.22        35.10118
234.68        36.81894
235.14        38.00648
235.60        38.36443
236.05        38.14867
236.51        37.45171
236.97          36.495
237.43        35.48349
237.88        34.39397
238.34        33.42462
238.80        33.08564
239.26         33.5364
239.71        35.02026
240.17        37.31728
240.63        39.70218
241.08        41.69081
241.54        43.12009
242.00        44.26929
242.46        46.09962
242.91        49.54411
243.37         54.2112
243.83        61.22868
244.28        70.81173
244.74         79.1268
245.20         83.5031
245.66        81.86916
246.11        73.32126
246.57        59.96745
247.03        42.86048
247.48        26.60601
247.94        20.69502
248.40        25.20457
248.85         33.5379
249.31         41.7029
249.77        47.49905
250.22        51.25756
250.68        54.32145
251.14         56.1299
251.59        54.74638
252.05        50.33234
252.51        44.60717
252.96        39.29813
253.42        36.03345
253.88        34.60398
254.33        34.08299
254.79        35.07537
255.25        37.80352
255.70        41.87885
256.16        47.12718
256.62        51.27175
257.07        50.93328
257.53        47.38834
257.99        42.88984
258.44         39.4284
258.90        38.85539
259.35        40.26196
259.81        42.77767
260.27        45.15223
260.72        45.84806
261.18        44.98718
261.63        43.19297
262.09        41.38145
262.55        40.10995
263.00         39.3637
263.46        38.96072
263.91        38.58171
264.37        38.05555
264.83         37.3374
265.28        36.52495
265.74        35.84053
266.19        35.31065
266.65        34.98287
267.11        34.72655
267.56         34.5003
268.02        34.24654
268.47        33.93945
268.93        33.62912
269.38         33.2166
269.84          32.596
270.30        31.76441
270.75        30.75709
271.21        29.81336
271.66        29.24815
272.12        29.11098
272.57        29.28526
273.03        29.49237
273.48        29.27988
273.94        28.59769
274.39        27.58045
274.85        26.54895
275.31        25.83611
275.76        25.48474
276.22        25.39033
276.67        25.35626
277.13        25.16981
277.58        24.74973
278.04        24.20638
278.49        23.60657
278.95        23.13403
279.40        22.78543
279.86        22.54831
280.31        22.31002
280.77        21.99607
281.22        21.56846
281.68        21.10922
282.13        20.67407
282.59        20.39333
283.04        20.25811
283.50        20.23315
283.95        20.23483
284.41        20.14016
284.86        19.92361
285.32        19.64954
285.77        19.37367
286.22        19.21646
286.68        19.19719
287.13        19.24704
287.59        19.32958
288.04        19.35593
288.50        19.32038
288.95        19.23611
289.41        19.12691
289.86        18.97855
290.32        18.82454
290.77        18.65525
291.22         18.5255
291.68        18.50803
292.13        18.60844
292.59        18.82563
293.04        19.10252
293.50        19.35963
293.95        19.57383
294.40        19.77383
294.86        20.01778
295.31        20.39247
295.77        20.91456
296.22        21.53662
296.68        22.19855
297.13        22.80109
297.58        23.31958
298.04        23.78183
298.49        24.21583
298.95        24.67999
299.40        25.18341
299.85        25.70744
300.31        26.22861
300.76        26.70988
301.21        27.14067
301.67        27.53995
302.12        27.91172
302.58        28.30728
303.03        28.71282
303.48        29.13588
303.94        29.54177
304.39        29.85407
304.84        30.07519
305.30        30.23326
305.75        30.38329
306.20        30.65694
306.66        31.07402
307.11        31.57774
307.57        32.06337
308.02        32.32977
308.47        32.35844
308.93        32.22597
309.38        32.05583
309.83        32.08166
310.29        32.34675
310.74        32.76319
311.19        33.20213
311.65        33.44816
312.10        33.43705
312.55        33.24312
313.00        32.95778
313.46        32.71507
313.91        32.54683
314.36         32.4192
314.82        32.30541
315.27        32.17716
315.72        32.02032
316.18        31.86188
316.63        31.69814
317.08        31.52974
317.53        31.35469
317.99        31.16105
318.44        30.95171
318.89        30.72636
319.35        30.48642
319.80        30.23364
320.25        29.97012
320.70         29.6976
321.16        29.41903
321.61        29.15169
322.06        28.89461
322.51         28.6479
322.97        28.40918
323.42          28.176
323.87        27.97212
324.32        27.84133
324.78         27.7724
325.23        27.76416
325.68        27.72238
326.13        27.50061
326.59        27.07416
327.04        26.50274
327.49        25.91123
327.94        25.49533
328.39        25.29757
328.85         25.2546
329.30        25.28955
329.75        25.21137
330.20        24.96455
330.66        24.60563
331.11        24.22199
331.56        23.93067
332.01        23.76563
332.46        23.67774
332.92        23.61436
333.37        23.53259
333.82        23.39484
334.27        23.22457
334.72        23.02786
335.17        22.80764
335.63        22.57337
336.08        22.34283
336.53        22.12823
336.98        21.96045
337.43        21.84765
337.88        21.77365
338.34        21.74816
338.79        21.80549
339.24        21.92682
339.69        22.09772
340.14        22.22655
340.59        22.17118
341.05        21.91766
341.50        21.51006
341.95        21.07351
342.40        20.80208
342.85        20.74078
343.30        20.83143
343.75        20.98221
344.20        21.03986
344.66        20.96234
345.11        20.79991
345.56        20.60143
346.01        20.44207
346.46        20.35098
346.91        20.30232
347.36        20.28483
347.81        20.28852
348.26         20.3028
348.72        20.32853
349.17        20.35899
349.62        20.39088
350.07        20.41843
350.52        20.44217
350.97        20.43196
351.42        20.34413
351.87        20.18113
352.32        19.96312
352.77        19.75508
353.22        19.65207
353.67        19.66674
354.13        19.76686
354.58        19.88413
355.03        19.90804
355.48        19.80829
355.93        19.62423
356.38        19.40017
356.83        19.20131
357.28          19.049
357.73        18.92112
358.18        18.81623
358.63        18.73598
359.08        18.67432
359.53        18.63128
359.98        18.58615
360.43        18.50237
360.88        18.37123
361.33        18.20175
361.78        18.00889
362.23        17.82088
362.68        17.65307
363.13        17.50509
363.58         17.3786
364.03        17.27343
364.48        17.18708
364.93        17.11716
365.38        17.06738
365.83        17.04207
366.28        17.03602
366.73        17.04265
367.18        17.03337
367.63        16.96736
368.08         16.8373
368.53        16.65318
368.98        16.45367
369.43        16.30026
369.88        16.20998
370.33          16.173
370.78        16.14908
371.23         16.0701
371.68        15.92113
372.13        15.72075
372.58        15.52781
373.03        15.43439
373.48        15.45528
373.93        15.55825
374.38        15.66309
374.83        15.64369
375.28        15.47533
375.72        15.19948
376.17        14.91037
376.62        14.72816
377.07        14.68358
377.52        14.74028
377.97        14.84032
378.42        14.89145
378.87        14.86436
379.32        14.78172
379.77        14.68837
380.22        14.64925
380.67         14.6741
381.11        14.74377
381.56        14.78916
382.01        14.71376
382.46        14.50685
382.91        14.21701
383.36        13.93284
383.81        13.77189
384.26        13.75273
384.71        13.83606
385.15        13.95868
385.60        14.01827
386.05        13.98195
386.50        13.88451
386.95        13.75988
387.40        13.66125
387.85        13.60521
388.29        13.56117
388.74        13.53834
389.19        13.52245
389.64        13.50662
390.09         13.4943
390.54        13.47377
390.98        13.42016
391.43        13.34081
391.88        13.24342
392.33         13.1457
392.78        13.07288
393.23        13.03038
393.67        13.00476
394.12        13.00024
394.57        12.99641
395.02          12.987
395.47        12.97095
395.91        12.95425
396.36        12.93788
396.81        12.92984
397.26        12.92996
397.71        12.92263
398.15        12.89418
398.60        12.85978
399.05        12.77115
399.50        12.66612
399.95        12.69172
400.39        12.81201
400.84        12.78815
401.29        12.61933
401.74        12.50413
402.18        12.45221
402.63        12.34229
403.08        12.20378
403.53        12.13662
403.97        12.15017
404.42        12.21741
404.87        12.29582
405.32        12.31457
405.76        12.25621
406.21        12.14967
406.66        12.03802
407.11        11.99076
407.55        12.02599
408.00        12.11287
408.45        12.21418
408.90        12.25788
409.34        12.22121
409.79         12.1328
410.24        12.02178
410.68         11.9227
411.13         11.8513
411.58        11.79456
412.03        11.75286
412.47        11.73139
412.92        11.72466
413.37        11.73558
413.81        11.75203
414.26        11.76393
414.71        11.76399
415.15        11.75651
415.60        11.73915
416.05        11.71918
416.49        11.70207
416.94         11.6864
417.39        11.67706
417.83        11.68082
418.28        11.69685
418.73        11.72012
419.17        11.74924
419.62        11.78138
420.07        11.81205
420.51        11.83708
420.96        11.84544
421.41        11.81881
421.85        11.75377
422.30        11.65754
422.74        11.54646
423.19        11.49729
423.64        11.49802
424.08        11.46943
424.53        11.40925
424.98         11.4038
425.42        11.46004
425.87        11.50126
426.31        11.51275
426.76        11.55628
427.21        11.59322
427.65        11.46916
428.10        11.25115
428.54        11.16166
428.99         11.2242
429.44        11.36699
429.88        11.51964
430.33         11.5287
430.77        11.41361
431.22        11.40827
431.66        11.51049
432.11        11.51415
432.56        11.42385
433.00        11.39414
433.45        11.39049
433.89        11.27674
434.34        11.14304
434.78        10.92634
435.23        11.22838
435.67        11.30397
436.12        11.30075
436.57        11.25607
437.01        11.19299
437.46        11.15685
437.90        11.15082
438.35        11.12811
438.79         11.0891
439.24        11.07215
439.68        11.07898
440.13        11.10109
440.57        11.12469
441.02        11.13724
441.46        11.13437
441.91        11.09162
442.35        11.03016
442.80          11.088
443.24        11.22096
443.69        11.23056
444.13        11.12746
444.58        11.10775
445.02        11.17499
445.47        11.22153
445.91        11.23619
446.36        11.25735
446.80        11.27979
447.24        11.29056
447.69        11.29673
448.13        11.30418
448.58        11.31676
449.02        11.33495
449.47        11.34638
449.91        11.32551
450.36        11.27432
450.80         11.2001
451.25        11.13588
451.69         11.1263
452.13        11.17796
452.58        11.27164
453.02        11.36887
453.47        11.41005
453.91        11.37967
454.36        11.29834
454.80        11.18913
455.24        11.08839
455.69        11.01493
456.13        10.95204
456.58        10.91068
457.02        10.88852
457.46        10.88744
457.91        10.90724
458.35        10.92651
458.79        10.91046
459.24        10.86357
459.68        10.78921
460.13        10.72184
460.57        10.68489
461.01        10.69412
461.46        10.73047
461.90        10.78889
462.34        10.84982
462.79        10.89999
463.23        10.94704
463.68        10.97564
464.12        10.96865
464.56        10.92381
465.01        10.86192
465.45        10.78818
465.89         10.7403
466.34        10.72495
466.78        10.73189
467.22        10.75741
467.67        10.78374
468.11        10.80946
468.55        10.83196
468.99        10.85306
469.44        10.87395
469.88        10.89473
470.32        10.91462
470.77        10.92562
471.21        10.91924
471.65        10.89492
472.10        10.85838
472.54        10.82647
472.98        10.83006
473.42        10.87331
473.87        10.94938
474.31        11.02618
474.75        11.06504
475.20        11.06139
475.64        11.02457
476.08        10.98274
476.52        10.97353
476.97         11.0064
477.41        11.07379
477.85        11.16069
478.29        11.22561
478.74        11.26791
479.18        11.32555
479.62        11.39353
480.06        11.44583
480.50        11.48305
480.95        11.49995
481.39        11.49649
481.83         11.5891
482.27        11.61093
482.72        11.69581
483.16        11.78351
483.60        11.84664
484.04        11.86997
484.48        11.91765
484.93         12.0461
485.37        12.05629
485.81         12.2153
486.25        12.55421
486.69        11.84525
487.14         11.9571
487.58        12.96556
488.02        12.92597
488.46        12.69335
488.90        12.73285
489.34        12.66813
489.79        12.91996
490.23         13.1704
490.67        13.39816
491.11        13.52587
491.55          13.493
491.99        13.37407
492.43        13.38182
492.88        13.54553
493.32        13.73204
493.76        13.90397
494.20        14.07569
494.64        14.23823
495.08        14.35692
495.52        14.44275
495.96        14.61217
496.41        14.83875
496.85        14.88787
497.29        14.79553
497.73        14.96847
498.17        15.19112
498.61        15.36559
499.05        15.40427
499.49        15.45329
499.93        15.48595
500.37        15.58538
500.82        15.73459
501.26        15.86281
501.70         15.9632
502.14        16.08825
502.58        16.23897
503.02         16.3838
503.46        16.51702
503.90        16.64559
504.34        16.75489
504.78        16.82141
505.22        16.84282
505.66        16.82674
506.10        16.79819
506.54        16.79789
506.98        16.83757
507.42        16.90905
507.86        16.99647
508.30        17.07103
508.74        17.12414
509.18        17.16459
509.62        17.20261
510.06        17.25461
510.50        17.32418
510.94        17.40302
511.38        17.48232
511.82        17.54951
512.26        17.60086
512.70        17.64115
513.14        17.67451
513.58        17.70747
514.02        17.74206
514.46        17.77439
514.90        17.80486
515.34        17.83484
515.78        17.86284
516.22        17.88828
516.66        17.90427
517.10        17.89954
517.54        17.87315
517.98        17.83015
518.42        17.78108
518.86        17.74237
519.30        17.71994
519.74        17.71156
520.18        17.71234
520.62         17.7129
521.06        17.71118
521.50        17.71059
521.93        17.71602
522.37        17.72872
522.81        17.74908
523.25        17.76891
523.69        17.78277
524.13        17.78491
524.57        17.77055
525.01        17.73923
525.45        17.68449
525.89        17.59685
526.32        17.47814
526.76        17.34248
527.20        17.20406
527.64        17.08492
528.08        16.99299
528.52         16.9234
528.96         16.8771
529.40        16.85347
529.83        16.84713
530.27        16.85671
530.71        16.86381
531.15        16.84131
531.59        16.78388
532.03        16.69733
532.46        16.59922
532.90        16.53074
533.34        16.49896
533.78        16.48598
534.22        16.47596
534.66        16.46408
535.09         16.4331
535.53        16.35288
535.97        16.24937
536.41         16.2044
536.85        16.22818
537.28        16.28321
537.72        16.34869
538.16        16.40366
538.60         16.4379
539.04        16.45652
539.47        16.47095
539.91        16.50929
540.35        16.57419
540.79        16.65989
541.22        16.74888
541.66        16.82005
542.10        16.86781
542.54        16.90087
542.97        16.94046
543.41        17.02595
543.85        17.16109
544.29        17.33319
544.72        17.51089
545.16        17.65977
545.60        17.76802
546.04        17.84974
546.47        17.92997
546.91        18.04508
547.35        18.20199
547.79        18.38903
548.22        18.58246
548.66        18.74322
549.10        18.88639
549.53        19.01565
549.97        19.14992
550.41        19.27442
550.84        19.41297
551.28        19.60728
551.72        19.82368
552.15        20.02441
552.59        20.22094
553.03        20.13439
553.46        20.38385
553.90        20.44106
554.34        20.48633
554.77        20.60593
555.21        20.65775
555.65        20.76498
556.08        20.87323
556.52        20.97582
556.96         21.0633
557.39        21.18095
557.83         21.3113
558.27        21.33003
558.70        21.26214
559.14        21.27718
559.57        21.37088
560.01        21.43533
560.45        21.46441
560.88        21.51584
561.32         21.5999
561.75        21.67778
562.19        21.75413
562.63        21.83144
563.06        21.90481
563.50        21.97701
563.93        22.02952
564.37        22.08998
564.80        22.16858
565.24        22.20758
565.68        22.16955
566.11        22.47814
566.55        22.32902
566.98        22.39092
567.42        22.46428
567.85        22.58802
568.29        22.76869
568.72         23.0039
569.16        23.27975
569.60        23.45392
570.03        23.60677
570.47        23.71787
570.90        23.82158
571.34        23.86446
571.77         24.0239
572.21        24.14062
572.64        24.25379
573.08        24.41054
573.51        24.61421
573.95          24.739
574.38        24.80711
574.82        24.93025
