SpectraSmart Spectrum 2.9.0.0
--------- Device Information -----------
Spectrum Name :  反射率_0
Saving Time :  2024/04/26 23:03:18
Spectro-Module Model Name : SE2030-DUVN
Spectro-Module Serial Number : OS361AC55029948
Wavelength Start : 200
Wavelength End : 1025
Wavelength Unit : Wavelength(nm)
Spectrum Unit : Reflectance(%)
-----------Spectrum Setting ------------
Integration Time : 20ms
Average : 10
Boxcar : 0
Background removal :  enabled
linearity correction :  enabled
SC :  disabled
Intensity correction :  disabled
DWT denoise :  enabled
savitzky-golay :  disabled
FFT :  disabled
Running average :  disabled
Kalman :  disabled
High pass :  disabled
---------------BEGIN--------------------
Wavelength(nm)             Reflectance(%)
200.29               0
200.75        29.53246
201.21        29.28705
201.67        29.34855
202.13        29.46776
202.58        29.47113
203.04        29.89171
203.50        30.59504
203.96        30.80061
204.42        30.08165
204.88        28.26304
205.34        26.25856
205.80        25.97423
206.26        27.47295
206.72        29.73676
207.18         31.3331
207.64        30.86061
208.10        28.13511
208.55        23.25525
209.01        15.95998
209.47        10.68194
209.93        10.99598
210.39        14.32599
210.85         18.1515
211.31         21.8517
211.77        26.68244
212.23        36.28778
212.69        59.05505
213.14        96.63925
213.60        93.33033
214.06        64.37553
214.52        45.83224
214.98        39.21199
215.44        38.35477
215.90        39.83037
216.36        41.51355
216.81        40.06479
217.27         34.5679
217.73        25.46589
218.19        13.26727
218.65        5.919146
219.11        8.729777
219.57        15.93247
220.02        23.73926
220.48        32.45023
220.94        43.81607
221.40         60.7889
221.86        82.97913
222.32        95.86054
222.77        87.81065
223.23        69.18564
223.69        51.57575
224.15        41.36302
224.61        37.17772
225.06         35.8981
225.52        36.52241
225.98        38.10373
226.44        40.24075
226.90        43.29154
227.36        46.31399
227.81        47.48394
228.27         46.6346
228.73        44.23291
229.19         41.8681
229.65        41.46318
230.10         43.0951
230.56        46.18754
231.02        49.21373
231.48        49.75116
231.93        47.50392
232.39        43.80037
232.85        40.33073
233.31        39.26358
233.77        40.75871
234.22        44.00641
234.68        47.68613
235.14        49.82973
235.60        49.83044
236.05        48.23457
236.51        45.69878
236.97        43.72924
237.43         43.0216
237.88        43.16254
238.34         43.7629
238.80         44.3477
239.26        44.74078
239.71        45.59248
240.17        46.55065
240.63        46.96917
241.08         46.6595
241.54        45.11533
242.00        44.08751
242.46        47.32496
242.91        57.58086
243.37        77.47447
243.83        107.7391
244.28        134.3181
244.74        136.4946
245.20        113.2786
245.66        83.30991
246.11        63.91436
246.57        55.89678
247.03        54.31387
247.48        54.87065
247.94        51.30897
248.40        44.50703
248.85         38.2299
249.31        34.28234
249.77        33.26614
250.22         34.7241
250.68        38.22864
251.14        43.49245
251.59        48.40184
252.05         51.0873
252.51        52.15145
252.96        51.45308
253.42        49.50908
253.88         46.9794
254.33        43.88082
254.79        42.31688
255.25        43.88704
255.70        48.23782
256.16        54.68145
256.62        60.52144
257.07        61.56001
257.53        58.76604
257.99        54.60733
258.44        51.18927
258.90        50.55085
259.35        51.79736
259.81        54.16056
260.27        56.35016
260.72        56.82074
261.18        55.77504
261.63        53.78001
262.09        51.94535
262.55        50.95747
263.00        50.72361
263.46        51.00267
263.91        51.17447
264.37        50.75674
264.83        49.69334
265.28        48.22525
265.74        46.89677
266.19        46.07825
266.65        45.87322
267.11        46.02922
267.56        46.24886
268.02        46.07403
268.47        45.39796
268.93        44.41598
269.38        43.31887
269.84        42.44971
270.30         41.8714
270.75        41.44008
271.21        41.09767
271.66        40.70595
272.12        40.22004
272.57        39.67664
273.03        39.02982
273.48        38.18792
273.94        37.22341
274.39        36.15127
274.85        35.17631
275.31        34.44801
275.76        33.95827
276.22        33.67658
276.67        33.46167
277.13        33.19493
277.58        32.79271
278.04        32.32756
278.49        31.77975
278.95        31.23953
279.40        30.68557
279.86        30.16297
280.31        29.63561
280.77        29.15943
281.22        28.70168
281.68        28.30796
282.13        27.95162
282.59        27.67459
283.04        27.44056
283.50        27.25299
283.95        27.06995
284.41        26.84462
284.86         26.5698
285.32        26.28927
285.77        26.01899
286.22        25.83783
286.68        25.75518
287.13        25.71073
287.59        25.69563
288.04         25.6522
288.50        25.58412
288.95        25.48439
289.41        25.35527
289.86        25.13663
290.32        24.86834
290.77        24.56361
291.22        24.30777
291.68        24.21347
292.13         24.2937
292.59        24.52975
293.04         24.8664
293.50        25.23304
293.95        25.58948
294.40        25.95072
294.86         26.3242
295.31        26.71581
295.77        27.13395
296.22        27.56263
296.68        27.99555
297.13        28.41459
297.58        28.82533
298.04        29.23515
298.49        29.66867
298.95        30.17877
299.40        30.75736
299.85        31.38164
300.31        31.99381
300.76        32.49695
301.21        32.87255
301.67        33.16103
302.12        33.38936
302.58         33.6573
303.03        33.96375
303.48        34.30307
303.94        34.65285
304.39        34.94666
304.84        35.18158
305.30        35.38055
305.75        35.55112
306.20        35.75896
306.66         36.0139
307.11        36.27313
307.57        36.48698
308.02        36.53394
308.47        36.41433
308.93        36.18523
309.38        35.91988
309.83        35.77452
310.29        35.78524
310.74        35.90396
311.19        36.05884
311.65         36.1255
312.10        36.06147
312.55        35.89879
313.00        35.70092
313.46          35.562
313.91        35.48736
314.36        35.45205
314.82        35.38438
315.27        35.18556
315.72        34.83922
316.18        34.40008
316.63        33.94909
317.08        33.62031
317.53        33.44371
317.99        33.37403
318.44         33.3499
318.89         33.2589
319.35        33.06519
319.80        32.79726
320.25        32.49431
320.70        32.21954
321.16        31.98967
321.61        31.79638
322.06        31.60115
322.51        31.34861
322.97        31.02597
323.42        30.65708
323.87        30.30793
324.32        30.08665
324.78        29.99938
325.23        30.02658
325.68        30.04801
326.13        29.87099
326.59        29.45242
327.04        28.86688
327.49        28.24212
327.94         27.7784
328.39         27.5228
328.85        27.40555
329.30        27.36552
329.75        27.24025
330.20        26.98125
330.66        26.63762
331.11        26.27966
331.56        25.99073
332.01        25.79679
332.46        25.66289
332.92        25.54161
333.37        25.40312
333.82        25.21821
334.27        25.00498
334.72        24.79137
335.17        24.61635
335.63        24.49016
336.08        24.41828
336.53        24.36392
336.98         24.2781
337.43        24.14623
337.88        23.96803
338.34        23.79882
338.79        23.75694
339.24         23.8521
339.69        24.05611
340.14        24.23907
340.59        24.19308
341.05        23.89235
341.50        23.40529
341.95        22.90892
342.40        22.67438
342.85        22.75599
343.30        23.06057
343.75        23.43122
344.20        23.61174
344.66        23.52966
345.11        23.26517
345.56        22.91438
346.01        22.62792
346.46          22.464
346.91        22.38384
347.36        22.35735
347.81        22.34432
348.26        22.32685
348.72        22.31511
349.17        22.33002
349.62         22.4089
350.07        22.54576
350.52         22.7204
350.97         22.8442
351.42        22.78271
351.87        22.52435
352.32        22.12617
352.77        21.72045
353.22        21.50123
353.67        21.50734
354.13         21.6794
354.58         21.9164
355.03        22.04885
355.48        22.02238
355.93        21.89005
356.38        21.70495
356.83        21.54756
357.28        21.44004
357.73        21.34502
358.18        21.25116
358.63        21.14848
359.08        21.03315
359.53        20.92325
359.98         20.8038
360.43        20.64201
360.88        20.43803
361.33        20.20191
361.78        19.97905
362.23          19.845
362.68        19.81377
363.13        19.86019
363.58         19.9277
364.03        19.92722
364.48        19.83465
364.93        19.67246
365.38         19.4833
365.83         19.3399
366.28        19.26257
366.73        19.22811
367.18        19.20089
367.63        19.12622
368.08        18.99217
368.53        18.82096
368.98        18.64412
369.43        18.50829
369.88        18.42533
370.33        18.37851
370.78        18.34462
371.23        18.28718
371.68        18.19499
372.13        18.08053
372.58        17.95831
373.03        17.84992
373.48        17.76214
373.93        17.68742
374.38        17.61924
374.83        17.54887
375.28        17.47357
375.72        17.39274
376.17        17.32113
376.62        17.25721
377.07        17.20251
377.52         17.1567
377.97        17.11533
378.42        17.07487
378.87        17.03074
379.32        16.97453
379.77        16.91556
380.22        16.86729
380.67        16.82753
381.11        16.80037
381.56        16.73902
382.01        16.58602
382.46        16.34612
382.91        16.05461
383.36        15.78949
383.81        15.65378
384.26        15.66068
384.71        15.77728
385.15        15.93575
385.60        16.02446
386.05          16.007
386.50        15.91329
386.95        15.78877
387.40        15.70656
387.85        15.68424
388.29        15.68441
388.74        15.69434
389.19        15.66328
389.64        15.58217
390.09        15.46675
390.54        15.34192
390.98        15.24273
391.43        15.18903
391.88        15.16618
392.33        15.14931
392.78        15.10316
393.23        15.02196
393.67        14.91163
394.12        14.80986
394.57        14.74054
395.02        14.70766
395.47        14.69633
395.91        14.68942
396.36         14.6501
396.81        14.58057
397.26        14.49749
397.71        14.41272
398.15        14.35163
398.60         14.3347
399.05        14.28928
399.50        14.22987
399.95        14.28277
400.39        14.40038
400.84         14.3303
401.29        14.08726
401.74        13.91935
402.18        13.84673
402.63        13.72165
403.08         13.5839
403.53        13.55617
403.97        13.64338
404.42        13.81102
404.87        13.97504
405.32        13.99775
405.76        13.85199
406.21        13.59079
406.66         13.3103
407.11        13.16158
407.55        13.18409
408.00        13.32686
408.45        13.51741
408.90        13.61646
409.34        13.57915
409.79         13.4555
410.24        13.30239
410.68        13.19466
411.13        13.15531
411.58        13.15165
412.03        13.16293
412.47        13.16024
412.92        13.12779
413.37        13.08665
413.81        13.03525
414.26        12.97613
414.71         12.9081
415.15        12.83149
415.60        12.75867
416.05        12.72561
416.49        12.74117
416.94         12.7933
417.39        12.85635
417.83         12.8884
418.28        12.87671
418.73        12.82975
419.17         12.7675
419.62        12.72379
420.07        12.70838
420.51        12.70827
420.96        12.70743
421.41        12.67965
421.85        12.61588
422.30        12.52345
422.74        12.41865
423.19        12.38014
423.64        12.39362
424.08         12.3758
424.53        12.31303
424.98        12.28142
425.42        12.28797
425.87        12.25477
426.31        12.19801
426.76        12.23227
427.21        12.32447
427.65        12.29495
428.10        12.16829
428.54        12.11163
428.99        12.13751
429.44        12.19445
429.88          12.246
430.33        12.18887
430.77        12.05938
431.22        12.08441
431.66        12.24357
432.11        12.29059
432.56        12.21841
433.00        12.20024
433.45        12.20093
433.89        12.07698
434.34        11.92573
434.78        11.67696
435.23        11.97243
435.67        12.01555
436.12        11.96565
436.57        11.86566
437.01        11.74755
437.46        11.67068
437.90        11.64333
438.35        11.61568
438.79        11.58109
439.24        11.56841
439.68        11.57532
440.13        11.59254
440.57        11.61219
441.02        11.63272
441.46        11.64871
441.91        11.62817
442.35          11.577
442.80        11.61809
443.24        11.70344
443.69        11.63577
444.13          11.448
444.58        11.37533
445.02        11.42899
445.47        11.48734
445.91        11.52797
446.36        11.57175
446.80         11.6061
447.24        11.62451
447.69        11.62833
448.13        11.61433
448.58        11.58742
449.02        11.54896
449.47        11.50557
449.91        11.46286
450.36        11.42775
450.80        11.39854
451.25        11.38327
451.69        11.38668
452.13        11.40756
452.58        11.43981
453.02        11.46946
453.47        11.47598
453.91         11.4545
454.36        11.41393
454.80        11.35805
455.24        11.29295
455.69        11.22828
456.13        11.15533
456.58         11.1003
457.02        11.08255
457.46        11.10862
457.91        11.17193
458.35        11.23263
458.79        11.22839
459.24        11.15985
459.68        11.03951
460.13        10.92857
460.57        10.88855
461.01        10.94077
461.46        11.05429
461.90         11.1926
462.34        11.28256
462.79        11.29823
463.23        11.26554
463.68         11.2035
464.12        11.15266
464.56        11.12444
465.01        11.11647
465.45        11.10861
465.89        11.10713
466.34        11.11025
466.78        11.11847
467.22        11.13097
467.67        11.13293
468.11        11.12832
468.55        11.11516
468.99        11.10167
469.44        11.10081
469.88        11.11532
470.32        11.14011
470.77         11.1691
471.21        11.19441
471.65        11.21206
472.10        11.22822
472.54        11.23909
472.98        11.24395
473.42        11.24443
473.87        11.24343
474.31         11.2446
474.75        11.26536
475.20        11.30965
475.64        11.36738
476.08        11.42712
476.52         11.4644
476.97        11.47504
477.41        11.47259
477.85        11.47305
478.29        11.48564
478.74        11.52494
479.18        11.61205
479.62        11.72524
480.06        11.81059
480.50        11.86037
480.95        11.88335
481.39        11.87994
481.83        11.96483
482.27        11.96713
482.72        12.03017
483.16        12.10309
483.60         12.1551
484.04        12.17539
484.48        12.26349
484.93        12.45396
485.37        12.41326
485.81        12.55019
486.25         12.8408
486.69        12.72211
487.14         12.7765
487.58        13.50804
488.02        13.18745
488.46        12.92416
488.90        13.00469
489.34        12.97095
489.79        13.17728
490.23        13.31259
490.67        13.55692
491.11        13.82266
491.55        13.88067
491.99         13.7822
492.43         13.7996
492.88        13.95808
493.32        14.09666
493.76        14.19508
494.20        14.30731
494.64        14.43429
495.08        14.53442
495.52        14.61546
495.96        14.78444
496.41        15.01123
496.85        15.06658
497.29        14.97982
497.73        15.14978
498.17        15.35663
498.61        15.50135
499.05        15.51267
499.49        15.56752
499.93        15.64266
500.37          15.812
500.82        16.03134
501.26        16.18454
501.70        16.25519
502.14        16.31124
502.58        16.38164
503.02        16.47948
503.46        16.61077
503.90        16.76865
504.34        16.91933
504.78        17.00665
505.22        17.01954
505.66        16.97975
506.10        16.92239
506.54        16.90269
506.98        16.93806
507.42        17.01257
507.86        17.11433
508.30        17.22263
508.74        17.32578
509.18         17.4281
509.62        17.52063
510.06        17.58899
510.50         17.6305
510.94        17.64588
511.38        17.64581
511.82        17.65034
512.26        17.66649
512.70        17.69222
513.14        17.72308
513.58        17.74956
514.02        17.77024
514.46        17.78997
514.90        17.81437
515.34        17.85151
515.78        17.90126
516.22         17.9567
516.66        18.01062
517.10        18.05305
517.54        18.07946
517.98        18.09216
518.42        18.08898
518.86        18.06722
519.30        18.02959
519.74        17.97931
520.18        17.92786
520.62        17.89203
521.06        17.87689
521.50        17.88054
521.93        17.89561
522.37        17.90163
522.81        17.89523
523.25        17.87809
523.69        17.85863
524.13        17.85092
524.57        17.85508
525.01        17.86362
525.45        17.86066
525.89         17.8218
526.32        17.74281
526.76        17.64047
527.20        17.53192
527.64         17.4445
528.08        17.38671
528.52        17.34964
528.96        17.33026
529.40        17.32335
529.83        17.32224
530.27        17.32727
530.71        17.32374
531.15        17.28973
531.59        17.22271
532.03        17.12991
532.46        17.02551
532.90        16.94532
533.34        16.89609
533.78        16.86065
534.22        16.83391
534.66        16.82718
535.09        16.82442
535.53        16.79005
535.97        16.73008
536.41        16.69727
536.85        16.69661
537.28        16.69804
537.72        16.70721
538.16        16.74635
538.60        16.81411
539.04        16.90217
539.47         16.9909
539.91         17.0612
540.35        17.10555
540.79        17.13257
541.22        17.15409
541.66        17.19584
542.10        17.26205
542.54        17.34481
542.97         17.4375
543.41        17.53643
543.85        17.63711
544.29        17.74584
544.72        17.85357
545.16        17.95863
545.60        18.05857
546.04        18.15511
546.47        18.26696
546.91        18.42079
547.35        18.61546
547.79           18.84
548.22        19.06041
548.66        19.22198
549.10        19.33829
549.53        19.41658
549.97        19.48757
550.41        19.55683
550.84        19.65671
551.28        19.82724
551.72        20.02999
552.15        20.21925
552.59        20.40717
553.03        20.30974
553.46        20.55319
553.90         20.6289
554.34        20.72187
554.77        20.82275
555.21        20.93811
555.65        21.06144
556.08         21.1805
556.52        21.28723
556.96        21.36953
557.39        21.46634
557.83        21.56132
558.27        21.53522
558.70        21.42774
559.14        21.43232
559.57        21.54742
560.01        21.65385
560.45        21.73341
560.88        21.82548
561.32        21.93457
561.75        22.02914
562.19        22.10822
562.63        22.16625
563.06        22.20094
563.50        22.21637
563.93         22.2198
564.37         22.2804
564.80         22.4134
565.24        22.54783
565.68        22.60688
566.11        22.96302
566.55        22.78482
566.98        22.77666
567.42        22.77294
567.85        22.87238
568.29         23.0963
568.72        23.42086
569.16        23.80087
569.60        24.05696
570.03        24.25857
570.47        24.36808
570.90        24.42636
571.34        24.52519
571.77        24.67909
572.21        24.81933
572.64        24.89501
573.08        25.19338
573.51        25.20741
573.95        25.31439
574.38         25.4125
574.82        25.60506
