SpectraSmart Spectrum 2.9.0.0
--------- Device Information -----------
Spectrum Name :  反射率_0
Saving Time :  2024/04/26 23:04:11
Spectro-Module Model Name : SE2030-DUVN
Spectro-Module Serial Number : OS361AC55029948
Wavelength Start : 200
Wavelength End : 1025
Wavelength Unit : Wavelength(nm)
Spectrum Unit : Reflectance(%)
-----------Spectrum Setting ------------
Integration Time : 20ms
Average : 10
Boxcar : 0
Background removal :  enabled
linearity correction :  enabled
SC :  disabled
Intensity correction :  disabled
DWT denoise :  enabled
savitzky-golay :  disabled
FFT :  disabled
Running average :  disabled
Kalman :  disabled
High pass :  disabled
---------------BEGIN--------------------
Wavelength(nm)             Reflectance(%)
200.29               0
200.75        46.23572
201.21        44.90787
201.67        43.65252
202.13        42.72612
202.58        42.07452
203.04        41.86908
203.50        42.62144
203.96        45.21966
204.42        49.99342
204.88        56.70701
205.34        63.51229
205.80        67.39127
206.26         67.4817
206.72        64.40503
207.18        60.75557
207.64        58.93202
208.10        59.15545
208.55        61.82043
209.01        65.22657
209.47         64.1414
209.93        58.28953
210.39        52.29261
210.85        49.32044
211.31        51.14122
211.77        58.91974
212.23        77.72441
212.69        127.1011
213.14        218.9711
213.60        231.2485
214.06        179.5071
214.52        138.1547
214.98        113.8819
215.44        96.57372
215.90         79.1056
216.36        64.24607
216.81        58.20881
217.27        63.45471
217.73        82.56129
218.19        112.1207
218.65        124.8219
219.11        109.6492
219.57        84.41333
220.02        66.97211
220.48         66.0029
220.94        80.06812
221.40        110.0228
221.86        154.2438
222.32        182.2514
222.77        168.9917
223.23         135.324
223.69        103.9491
224.15        87.43869
224.61         82.8695
225.06        83.41643
225.52        86.47954
225.98         89.4633
226.44        91.83439
226.90        94.78412
227.36        97.68154
227.81        98.96919
228.27        98.62233
228.73        96.72302
229.19        94.92732
229.65        95.39397
230.10        98.09975
230.56        102.4409
231.02        106.4187
231.48        106.8801
231.93        103.4926
232.39        98.19104
232.85        93.06587
233.31         90.8251
233.77        91.69837
234.22         94.5931
234.68        98.27824
235.14        100.9046
235.60        101.8047
236.05        101.6405
236.51        100.3034
236.97        97.97881
237.43        94.97517
237.88        91.22739
238.34        87.53416
238.80        85.51192
239.26        85.69948
239.71        88.86985
240.17        93.93755
240.63        97.93789
241.08        99.04184
241.54        96.36745
242.00        93.05527
242.46        96.04537
242.91        110.0389
243.37         138.073
243.83        179.8901
244.28        212.0263
244.74        203.9865
245.20        159.4823
245.66        110.1298
246.11        82.16631
246.57        75.15491
247.03        80.31601
247.48        90.23103
247.94        92.57787
248.40        86.36299
248.85        78.23541
249.31        71.42426
249.77        66.52755
250.22        62.77161
250.68        58.59804
251.14        54.38469
251.59        52.93461
252.05        55.82059
252.51        62.01305
252.96        67.81384
253.42        70.20438
253.88         69.5247
254.33        66.83107
254.79        65.17554
255.25        66.93011
255.70        71.78542
256.16        78.75421
256.62        84.71738
257.07        85.01044
257.53        81.05949
257.99        75.79175
258.44        71.49364
258.90        70.44999
259.35         71.5382
259.81        73.93125
260.27        76.24058
260.72         76.8246
261.18        75.92118
261.63        74.02694
262.09        72.26927
262.55        71.20315
263.00        70.72935
263.46        70.71638
263.91        70.61391
264.37        70.16231
264.83        69.28336
265.28        68.13007
265.74        67.14744
266.19        66.48073
266.65        66.24149
267.11        66.20229
267.56        66.22391
268.02        66.11285
268.47        65.78647
268.93        65.36165
269.38        64.76347
269.84        63.95975
270.30        62.96416
270.75        61.78253
271.21        60.67683
271.66        59.96469
272.12        59.69438
272.57        59.71437
273.03        59.73863
273.48        59.27285
273.94        58.29088
274.39        56.93514
274.85         55.5321
275.31        54.33438
275.76        53.39041
276.22         52.6701
276.67        52.07076
277.13        51.60604
277.58        51.15477
278.04        50.73806
278.49        50.23898
278.95        49.64397
279.40        48.87775
279.86        48.07475
280.31        47.13082
280.77        46.06477
281.22        44.87069
281.68        43.67536
282.13         42.6233
282.59        42.04351
283.04        41.89138
283.50        42.06829
283.95        42.30632
284.41        42.21101
284.86        41.67573
285.32        40.86934
285.77        39.94037
286.22        39.18248
286.68        38.66356
287.13        38.25225
287.59        37.90444
288.04        37.49649
288.50        37.03334
288.95        36.53639
289.41        36.05303
289.86        35.55163
290.32        35.08007
290.77        34.61419
291.22        34.19841
291.68        33.88545
292.13        33.66536
292.59        33.53793
293.04        33.47647
293.50        33.46484
293.95        33.48377
294.40        33.54729
294.86        33.64713
295.31        33.75822
295.77        33.88964
296.22        34.03675
296.68        34.23908
297.13        34.53851
297.58        34.94721
298.04        35.45117
298.49        36.00039
298.95        36.53559
299.40        37.02543
299.85        37.48086
300.31        37.92894
300.76        38.40127
301.21        38.90238
301.67        39.42265
302.12        39.90274
302.58        40.32255
303.03        40.64766
303.48        40.91823
303.94        41.16997
304.39        41.41168
304.84         41.6677
305.30        41.94093
305.75        42.20985
306.20         42.5042
306.66        42.82809
307.11        43.15031
307.57        43.44675
308.02        43.62242
308.47         43.6764
308.93        43.64046
309.38        43.55445
309.83        43.53833
310.29        43.61691
310.74        43.75571
311.19        43.88191
311.65        43.86958
312.10          43.689
312.55         43.3821
313.00        43.05482
313.46        42.86288
313.91        42.81853
314.36        42.88046
314.82        42.93535
315.27        42.81307
315.72        42.47573
316.18        42.00246
316.63        41.49191
317.08        41.11245
317.53        40.90534
317.99        40.80721
318.44        40.76874
318.89        40.69683
319.35        40.55482
319.80        40.37265
320.25        40.14747
320.70        39.87273
321.16        39.55502
321.61        39.20758
322.06        38.85768
322.51         38.5618
322.97        38.32983
323.42        38.14951
323.87        38.01506
324.32        37.91882
324.78         37.8323
325.23        37.77834
325.68        37.67712
326.13        37.41029
326.59        36.96704
327.04        36.40113
327.49        35.83648
327.94        35.47315
328.39        35.35017
328.85        35.39482
329.30        35.52986
329.75          35.538
330.20        35.35025
330.66         35.0213
331.11        34.63513
331.56         34.3003
332.01        34.05364
332.46        33.84873
332.92        33.65364
333.37        33.47475
333.82         33.2905
334.27        33.13204
334.72        32.98375
335.17        32.80556
335.63        32.59521
336.08        32.37798
336.53        32.21275
336.98        32.21305
337.43        32.39189
337.88        32.69547
338.34        33.02323
338.79        33.24179
339.24        33.28211
339.69        33.17899
340.14        32.95248
340.59        32.64613
341.05        32.30955
341.50        31.94676
341.95        31.61682
342.40        31.40466
342.85        31.32895
343.30         31.3692
343.75        31.49119
344.20        31.62951
344.66         31.7543
345.11        31.87024
345.56        31.94757
346.01        31.94757
346.46        31.87277
346.91        31.73542
347.36        31.58531
347.81        31.50834
348.26        31.52081
348.72        31.59319
349.17        31.68855
349.62        31.75919
350.07        31.78344
350.52        31.78017
350.97        31.72074
351.42        31.56186
351.87        31.31013
352.32        30.98226
352.77        30.65974
353.22        30.46165
353.67        30.40608
354.13        30.46174
354.58        30.54108
355.03        30.49544
355.48        30.29122
355.93        29.97948
356.38        29.64966
356.83        29.43448
357.28        29.36044
357.73        29.37688
358.18        29.41609
358.63        29.37311
359.08        29.21486
359.53        28.97371
359.98         28.6867
360.43          28.405
360.88        28.14239
361.33        27.88235
361.78        27.60816
362.23        27.29781
362.68        26.95745
363.13        26.61308
363.58        26.29182
364.03        26.02642
364.48        25.82396
364.93        25.66899
365.38        25.55581
365.83        25.47661
366.28        25.41778
366.73        25.37222
367.18          25.308
367.63        25.17797
368.08        24.97404
368.53        24.71061
368.98        24.42131
369.43        24.16121
369.88        23.95022
370.33        23.78027
370.78        23.64021
371.23        23.50912
371.68        23.37979
372.13        23.25728
372.58        23.15038
373.03        23.07071
373.48        23.01287
373.93        22.96244
374.38        22.88982
374.83        22.75431
375.28        22.54933
375.72         22.2861
376.17        22.01018
376.62        21.75963
377.07        21.55209
377.52        21.38638
377.97         21.2527
378.42        21.13637
378.87        21.03171
379.32        20.93398
379.77        20.86444
380.22        20.85275
380.67        20.89385
381.11         20.9826
381.56         21.0354
382.01        20.93752
382.46        20.67944
382.91        20.31452
383.36        19.95972
383.81        19.77591
384.26        19.78681
384.71          19.939
385.15        20.14342
385.60        20.24997
386.05        20.21238
386.50        20.08035
386.95        19.90148
387.40         19.7516
387.85         19.6554
388.29        19.56936
388.74        19.51359
389.19        19.47367
389.64        19.44128
390.09        19.42242
390.54        19.39175
390.98        19.30027
391.43        19.15733
391.88        18.97822
392.33        18.80704
392.78        18.70636
393.23        18.68504
393.67        18.71368
394.12         18.7719
394.57        18.79253
395.02        18.76051
395.47        18.68677
395.91        18.60743
396.36        18.57199
396.81        18.60375
397.26        18.68763
397.71         18.7737
398.15        18.80291
398.60        18.78841
399.05        18.67145
399.50        18.52837
399.95        18.60574
400.39        18.85778
400.84         18.9233
401.29         18.7748
401.74        18.66692
402.18        18.60496
402.63        18.41922
403.08         18.1774
403.53         18.0653
403.97        18.10737
404.42        18.25431
404.87        18.42813
405.32        18.50057
405.76        18.43861
406.21        18.29096
406.66        18.13248
407.11        18.08228
407.55        18.17036
408.00        18.34637
408.45        18.54032
408.90        18.61947
409.34        18.54608
409.79        18.37605
410.24        18.17453
410.68        18.02448
411.13         17.9557
411.58        17.93865
412.03        17.96266
412.47        18.01224
412.92        18.06594
413.37        18.13258
413.81        18.19039
414.26        18.22322
414.71        18.22262
415.15        18.19578
415.60        18.14944
416.05        18.11802
416.49         18.1161
416.94        18.13629
417.39        18.17307
417.83        18.21412
418.28        18.25362
418.73        18.29063
419.17        18.33238
419.62        18.38991
420.07        18.46074
420.51        18.53289
420.96        18.58377
421.41        18.57695
421.85         18.5037
422.30        18.37433
422.74        18.21928
423.19        18.16416
423.64        18.19231
424.08        18.17873
424.53        18.11069
424.98        18.10642
425.42        18.17539
425.87        18.20216
426.31        18.18967
426.76        18.27458
427.21          18.404
427.65        18.31918
428.10        18.08977
428.54        18.01676
428.99        18.12638
429.44        18.32198
429.88        18.51892
430.33        18.51325
430.77        18.34809
431.22         18.3859
431.66        18.60849
432.11        18.67219
432.56        18.57599
433.00         18.5554
433.45        18.55545
433.89        18.41372
434.34        18.24846
434.78        17.83883
435.23        18.19735
435.67        18.24941
436.12        18.24697
436.57        18.18062
437.01        18.07906
437.46        18.02933
437.90        18.03316
438.35         18.0144
438.79        17.97254
439.24        17.96996
439.68        18.00606
440.13        18.06244
440.57        18.12045
441.02        18.15632
441.46        18.15847
441.91        18.11795
442.35        18.04773
442.80         18.0779
443.24        18.16878
443.69        18.16113
444.13        18.06337
444.58        18.04101
445.02        18.09619
445.47        18.13965
445.91        18.16539
446.36        18.21231
446.80        18.27222
447.24        18.33086
447.69        18.37791
448.13        18.39087
448.58        18.37012
449.02        18.32121
449.47        18.25671
449.91        18.18727
450.36        18.12581
450.80        18.06865
451.25        18.02765
451.69        18.00729
452.13         18.0101
452.58        18.03225
453.02        18.06244
453.47        18.08433
453.91        18.09188
454.36        18.08982
454.80        18.07662
455.24        18.05062
455.69         18.0188
456.13        17.96903
456.58        17.92663
457.02        17.90199
457.46        17.90451
457.91        17.92959
458.35        17.94598
458.79        17.90847
459.24        17.82767
459.68        17.71214
460.13        17.61506
460.57        17.57116
461.01        17.60293
461.46        17.67982
461.90        17.79309
462.34        17.91348
462.79          18.017
463.23        18.11196
463.68        18.16454
464.12        18.13319
464.56        18.01604
465.01         17.8576
465.45        17.67861
465.89         17.5545
466.34        17.49807
466.78        17.48572
467.22        17.51517
467.67         17.5627
468.11        17.62616
468.55        17.70462
468.99        17.77791
469.44        17.81138
469.88        17.79978
470.32        17.74588
470.77        17.68174
471.21        17.66633
471.65        17.70975
472.10        17.79765
472.54        17.88837
472.98        17.92212
473.42        17.88678
473.87        17.80993
474.31        17.71788
474.75        17.66705
475.20         17.6751
475.64        17.71745
476.08        17.77666
476.52        17.81669
476.97        17.82826
477.41        17.83228
477.85        17.84502
478.29        17.86534
478.74        17.91071
479.18        18.01584
479.62         18.1509
480.06        18.23935
480.50        18.27424
480.95        18.27082
481.39        18.22696
481.83        18.31577
482.27        18.27064
482.72        18.30095
483.16        18.34157
483.60        18.37141
484.04        18.35985
484.48        18.48975
484.93        18.76495
485.37        18.62493
485.81        18.31014
486.25        18.95229
486.69        18.57922
487.14         18.7882
487.58        19.46795
488.02        19.24477
488.46        19.14931
488.90        19.09921
489.34        19.21214
489.79        19.33146
490.23        19.34946
490.67         19.4688
491.11        19.63817
491.55        19.67095
491.99         19.6026
492.43        19.63776
492.88        19.79283
493.32        19.95312
493.76        20.09105
494.20        20.22816
494.64        20.36219
495.08        20.44676
495.52        20.49466
495.96        20.65684
496.41        20.89356
496.85        20.89884
497.29        20.71995
497.73        20.88242
498.17        21.09613
498.61        21.29702
499.05        21.36236
499.49          21.426
499.93        21.44466
500.37        21.57298
500.82        21.77288
501.26        21.90393
501.70        21.95403
502.14        22.01062
502.58        22.09657
503.02        22.20338
503.46        22.33288
503.90        22.48402
504.34        22.62554
504.78        22.70551
505.22         22.7138
505.66        22.66857
506.10        22.60262
506.54        22.56929
506.98        22.58482
507.42        22.63395
507.86        22.70685
508.30        22.78534
508.74        22.86089
509.18        22.94181
509.62        23.01775
510.06        23.07136
510.50        23.10068
510.94        23.10613
511.38        23.11137
511.82        23.15631
512.26        23.24867
512.70        23.37901
513.14        23.51327
513.58        23.59554
514.02        23.61315
514.46        23.58034
514.90        23.53714
515.34        23.54907
515.78        23.62833
516.22        23.75118
516.66        23.87139
517.10         23.9158
517.54        23.86849
517.98        23.75715
518.42        23.62143
518.86        23.52351
519.30        23.48299
519.74        23.48085
520.18        23.50095
520.62        23.51736
521.06        23.52052
521.50        23.52147
521.93         23.5203
522.37        23.50655
522.81        23.48352
523.25        23.44885
523.69         23.4128
524.13        23.39474
524.57        23.39527
525.01         23.4052
525.45        23.40989
525.89        23.38507
526.32        23.32346
526.76        23.24257
527.20        23.14687
527.64        23.04563
528.08        22.94583
528.52        22.84431
528.96         22.7591
529.40        22.71756
529.83        22.72004
530.27        22.75989
530.71        22.79926
531.15        22.77902
531.59        22.68808
532.03        22.54363
532.46        22.38415
532.90        22.28744
533.34        22.26605
533.78        22.28407
534.22        22.30748
534.66        22.31114
535.09        22.26689
535.53        22.14317
535.97        21.97521
536.41        21.87386
536.85        21.85674
537.28        21.87248
537.72        21.91261
538.16        21.97998
538.60        22.06492
539.04        22.16614
539.47        22.26481
539.91        22.34591
540.35        22.40165
540.79        22.43621
541.22        22.46342
541.66        22.51567
542.10        22.59697
542.54        22.69828
542.97        22.80401
543.41        22.89924
543.85        22.97644
544.29        23.04493
544.72        23.10801
545.16        23.18502
545.60        23.27802
546.04        23.38825
546.47        23.51788
546.91        23.66534
547.35        23.82599
547.79        23.99809
548.22        24.17842
548.66        24.35737
549.10        24.55926
549.53        24.77126
549.97        24.98083
550.41        25.11221
550.84        25.18655
551.28        25.28081
551.72        25.39261
552.15        25.53383
552.59         25.7327
553.03        25.63443
553.46        26.00461
553.90        26.08364
554.34        26.07713
554.77        26.31312
555.21         26.2666
555.65        26.41024
556.08        26.57135
556.52        26.73903
556.96        26.87125
557.39        26.98892
557.83        27.06919
558.27        26.96793
558.70        26.75788
559.14        26.71481
559.57        26.84528
560.01        26.99115
560.45        27.11195
560.88        27.23076
561.32        27.34726
561.75        27.42828
562.19        27.48944
562.63        27.55606
563.06         27.6305
563.50        27.68824
563.93        27.71495
564.37        27.80815
564.80        27.95901
565.24        27.98953
565.68        27.86439
566.11        28.22343
566.55        28.06055
566.98        28.14388
567.42        28.21947
567.85         28.3844
568.29        28.63385
568.72        28.89972
569.16        29.17946
569.60        29.37599
570.03        29.59004
570.47        29.73886
570.90        29.85946
571.34        29.92627
571.77        30.10263
572.21        30.25534
572.64        30.37675
573.08        30.51846
573.51        30.47959
573.95        30.57369
574.38        30.76261
574.82        31.01149
