SpectraSmart Spectrum 2.9.0.0
--------- Device Information -----------
Spectrum Name :  反射率_0
Saving Time :  2024/04/26 22:53:55
Spectro-Module Model Name : SE2030-DUVN
Spectro-Module Serial Number : OS361AC55029948
Wavelength Start : 200
Wavelength End : 1025
Wavelength Unit : Wavelength(nm)
Spectrum Unit : Reflectance(%)
-----------Spectrum Setting ------------
Integration Time : 20ms
Average : 10
Boxcar : 0
Background removal :  enabled
linearity correction :  enabled
SC :  disabled
Intensity correction :  disabled
DWT denoise :  enabled
savitzky-golay :  disabled
FFT :  disabled
Running average :  disabled
Kalman :  disabled
High pass :  disabled
---------------BEGIN--------------------
Wavelength(nm)             Reflectance(%)
200.29               0
200.75        64.14063
201.21        59.48633
201.67        56.25735
202.13        55.41705
202.58        56.89913
203.04        61.01508
203.50        68.02869
203.96        76.54395
204.42        84.76281
204.88        92.15414
205.34        97.19208
205.80        98.84303
206.26        97.22655
206.72        92.42122
207.18        87.31692
207.64        84.32287
208.10        83.55193
208.55        85.91856
209.01        89.23583
209.47        87.37197
209.93        80.16137
210.39        72.53786
210.85         69.0715
211.31        72.74853
211.77        85.66376
212.23         116.982
212.69        195.0887
213.14        319.8521
213.60        304.0529
214.06        208.0456
214.52        145.9559
214.98        119.1826
215.44        108.8412
215.90        103.9462
216.36        103.1648
216.81        106.4021
217.27        113.9934
217.73        130.4076
218.19         152.855
218.65        159.7096
219.11        144.8752
219.57        122.8054
220.02        108.8429
220.48        111.8027
220.94        130.8717
221.40        168.1704
221.86        223.5597
222.32        263.4185
222.77        255.6416
223.23        221.6745
223.69        185.3564
224.15        160.4384
224.61        145.9996
225.06        136.3195
225.52        131.5334
225.98        131.3137
226.44        134.7415
226.90        141.6914
227.36        149.8265
227.81        154.5727
228.27        155.1118
228.73        152.5087
229.19        149.5807
229.65        149.8841
230.10        153.5395
230.56         159.405
231.02         164.889
231.48        166.0213
231.93        162.2831
232.39         156.251
232.85        150.3008
233.31        147.5051
233.77        148.1621
234.22        150.9445
234.68        154.7468
235.14        157.9107
235.60        159.7472
236.05        161.0248
236.51        160.9362
236.97         158.491
237.43        153.6485
237.88         146.675
238.34        139.3946
238.80           135.3
239.26        135.5445
239.71        140.9659
240.17        149.7971
240.63        157.0935
241.08        159.6716
241.54        156.5446
242.00        151.6496
242.46        153.7084
242.91        168.6764
243.37         198.868
243.83        244.7783
244.28        283.3611
244.74        280.8248
245.20        238.5778
245.66        187.3774
246.11        153.3103
246.57         136.808
247.03        130.1091
247.48        126.2971
247.94        116.8583
248.40         103.819
248.85        92.40765
249.31        85.22922
249.77        82.55722
250.22        83.50253
250.68        87.27305
251.14         93.5095
251.59        99.57824
252.05        103.2546
252.51        105.6032
252.96        106.2922
253.42        106.2468
253.88        105.8515
254.33        104.3052
254.79        104.6782
255.25        109.3472
255.70        117.6501
256.16        128.7541
256.62        137.7517
257.07        137.2574
257.53        130.0119
257.99        120.9329
258.44        113.8217
258.90        112.3401
259.35        114.7076
259.81        119.5178
260.27        124.5481
260.72        127.1076
261.18        127.3473
261.63        125.7988
262.09        124.1908
262.55        123.3336
263.00        123.0677
263.46         123.335
263.91        123.0966
264.37        121.8264
264.83        119.4981
265.28         116.517
265.74         113.977
266.19        112.5719
266.65        112.5107
267.11        113.2592
267.56        114.2415
268.02        114.5939
268.47         114.022
268.93        112.8817
269.38        111.3225
269.84        109.7177
270.30        108.1879
270.75        106.5973
271.21         105.153
271.66        104.0483
272.12        103.3026
272.57        102.7855
273.03        102.2571
273.48        101.2425
273.94        99.76324
274.39        97.91484
274.85        96.00745
275.31        94.15829
275.76        92.39923
276.22        90.81304
276.67        89.38113
277.13        88.35542
277.58        87.58534
278.04        87.03813
278.49        86.43304
278.95        85.61757
279.40        84.43195
279.86        83.12194
280.31        81.58036
280.77        79.93828
281.22        78.17113
281.68        76.44396
282.13        74.87132
282.59        73.84939
283.04        73.29147
283.50        73.11843
283.95        73.01865
284.41        72.57023
284.86        71.65258
285.32        70.47077
285.77          69.177
286.22        68.12411
286.68        67.38191
287.13        66.77158
287.59        66.22427
288.04        65.53853
288.50         64.7309
288.95        63.82357
289.41        62.92133
289.86        62.01507
290.32        61.19223
290.77        60.39852
291.22          59.679
291.68        59.07028
292.13        58.54427
292.59        58.11752
293.04        57.76748
293.50        57.50576
293.95        57.30225
294.40        57.14637
294.86        57.01402
295.31        56.84653
295.77        56.65045
296.22        56.43489
296.68        56.21914
297.13        55.99814
297.58        55.79388
298.04        55.60379
298.49        55.47692
298.95        55.52155
299.40        55.72533
299.85        56.05462
300.31        56.38911
300.76        56.51184
301.21        56.39425
301.67        56.12189
302.12        55.79148
302.58        55.64545
303.03        55.69272
303.48        55.88495
303.94        56.14127
304.39          56.279
304.84        56.27743
305.30        56.20196
305.75        56.07818
306.20        56.02127
306.66        56.06972
307.11        56.16065
307.57        56.25581
308.02        56.22551
308.47        56.06721
308.93        55.82637
309.38        55.56872
309.83        55.46249
310.29        55.53239
310.74        55.72087
311.19        55.89246
311.65        55.82215
312.10        55.46376
312.55        54.89862
313.00        54.31091
313.46        53.97115
313.91        53.91698
314.36        54.07775
314.82        54.28658
315.27        54.28947
315.72        54.01306
316.18        53.54984
316.63        53.03044
317.08        52.67956
317.53        52.54803
317.99        52.55587
318.44        52.59069
318.89        52.45839
319.35        52.11392
319.80        51.63072
320.25        51.12201
320.70        50.76217
321.16        50.59486
321.61        50.58043
322.06         50.6268
322.51        50.59056
322.97        50.42011
323.42        50.15885
323.87        49.88363
324.32        49.72799
324.78        49.70187
325.23         49.7896
325.68        49.85369
326.13        49.68366
326.59         49.2403
327.04        48.61708
327.49        47.98104
327.94        47.59729
328.39        47.52384
328.85        47.66148
329.30        47.91777
329.75        48.02029
330.20        47.88354
330.66        47.58109
331.11        47.22391
331.56        46.95317
332.01        46.81791
332.46        46.75434
332.92        46.71784
333.37        46.71542
333.82        46.70419
334.27        46.70947
334.72        46.69333
335.17        46.57971
335.63        46.36115
336.08        46.08862
336.53        45.83954
336.98        45.76458
337.43        45.89678
337.88        46.17493
338.34        46.52671
338.79        46.87452
339.24        47.14421
339.69        47.35522
340.14        47.44164
340.59         47.3085
341.05        46.97541
341.50         46.4765
341.95        45.96873
342.40        45.69333
342.85        45.70597
343.30        45.94487
343.75        46.28724
344.20        46.51969
344.66        46.57953
345.11        46.52475
345.56        46.41811
346.01         46.3639
346.46         46.3951
346.91         46.4689
347.36        46.55634
347.81        46.62451
348.26        46.65872
348.72        46.67341
349.17        46.67384
349.62        46.68158
350.07        46.69975
350.52        46.72504
350.97         46.7219
351.42        46.63683
351.87         46.4691
352.32        46.24294
352.77        46.02856
353.22        45.92559
353.67        45.94742
354.13        46.05798
354.58         46.1857
355.03        46.20494
355.48        46.08104
355.93        45.85323
356.38        45.58445
356.83        45.36904
357.28        45.22868
357.73        45.12735
358.18         45.0271
358.63        44.87278
359.08        44.64751
359.53        44.37169
359.98        44.06326
360.43        43.74099
360.88        43.41048
361.33        43.06831
361.78        42.70853
362.23         42.3255
362.68        41.93157
363.13        41.54547
363.58        41.19128
364.03         40.8988
364.48        40.67005
364.93        40.48647
365.38        40.33866
365.83        40.21313
366.28        40.09551
366.73        39.98383
367.18        39.84201
367.63        39.61579
368.08        39.30162
368.53        38.92016
368.98        38.52759
369.43        38.21466
369.88        38.00441
370.33         37.8715
370.78        37.77869
371.23        37.66087
371.68         37.4958
372.13         37.3036
372.58        37.09327
373.03        36.87923
373.48        36.66512
373.93        36.43559
374.38        36.19969
374.83        35.97815
375.28        35.77415
375.72        35.58135
376.17         35.3931
376.62        35.15107
377.07        34.85652
377.52        34.53651
377.97         34.2434
378.42        34.06606
378.87        34.01914
379.32        34.05545
379.77        34.13572
380.22        34.20411
380.67        34.23102
381.11        34.23815
381.56        34.16084
382.01        33.93612
382.46        33.57905
382.91        33.13628
383.36        32.71061
383.81        32.44012
384.26        32.34339
384.71        32.37429
385.15        32.47454
385.60        32.53853
386.05        32.52551
386.50        32.46349
386.95        32.34581
387.40        32.16766
387.85        31.94477
388.29        31.66273
388.74        31.40959
389.19        31.23157
389.64        31.13415
390.09         31.0986
390.54        31.08407
390.98        31.01281
391.43        30.88775
391.88        30.73332
392.33        30.58107
392.78        30.47467
393.23        30.42245
393.67        30.38964
394.12        30.39308
394.57        30.40174
395.02        30.40359
395.47        30.39312
395.91        30.36946
396.36        30.31595
396.81        30.24826
397.26         30.1786
397.71        30.09513
398.15        29.99981
398.60        29.93344
399.05        29.77484
399.50        29.59188
399.95        29.70003
400.39        30.00877
400.84         29.9664
401.29        29.58698
401.74        29.36406
402.18        29.32705
402.63        29.17589
403.08         28.9515
403.53        28.84709
403.97        28.87522
404.42        28.98785
404.87        29.11516
405.32        29.14126
405.76        29.03723
406.21        28.85263
406.66        28.66279
407.11        28.58875
407.55        28.66508
408.00        28.84118
408.45        29.04586
408.90        29.13818
409.34        29.07479
409.79        28.90749
410.24        28.71156
410.68        28.58512
411.13        28.55939
411.58        28.60044
412.03        28.66083
412.47        28.66417
412.92        28.58006
413.37        28.44835
413.81        28.30916
414.26         28.2419
414.71        28.25098
415.15        28.32232
415.60        28.40626
416.05        28.44776
416.49         28.4314
416.94        28.37125
417.39         28.3033
417.83        28.27917
418.28        28.30869
418.73        28.36675
419.17         28.4294
419.62        28.46138
420.07        28.45147
420.51        28.40798
420.96        28.34095
421.41         28.2569
421.85        28.15647
422.30        28.03296
422.74        27.89483
423.19        27.87877
423.64        27.94568
424.08        27.91462
424.53        27.79466
424.98        27.81255
425.42        27.99288
425.87        28.14168
426.31        28.22373
426.76        28.39148
427.21        28.55127
427.65        28.31896
428.10        27.85235
428.54        27.69284
428.99        27.89242
429.44        28.27348
429.88        28.66163
430.33        28.67247
430.77        28.36499
431.22        28.33267
431.66        28.56783
432.11        28.60348
432.56        28.45951
433.00        28.40791
433.45         28.3789
433.89         28.3378
434.34        28.36538
434.78        27.70757
435.23         28.0003
435.67        27.99631
436.12        28.11045
436.57        28.07553
437.01        27.90751
437.46        27.85994
437.90        27.94213
438.35        27.78312
438.79        27.79775
439.24        27.75584
439.68        27.77987
440.13        27.83266
440.57        27.90219
441.02        27.96539
441.46        28.00238
441.91        28.00829
442.35        27.97304
442.80        28.04305
443.24        28.15989
443.69        28.12151
444.13        27.96398
444.58        27.94247
445.02        28.06531
445.47        28.20465
445.91        28.31108
446.36        28.37263
446.80        28.36934
447.24        28.30867
447.69        28.22838
448.13        28.17759
448.58        28.17631
449.02         28.2043
449.47        28.24115
449.91        28.23907
450.36        28.19705
450.80        28.12595
451.25        28.05779
451.69        28.01911
452.13        28.02219
452.58        28.05216
453.02        28.09152
453.47        28.11761
453.91        28.12293
454.36         28.1199
454.80        28.10599
455.24        28.07681
455.69        28.04173
456.13        27.98011
456.58        27.93353
457.02        27.92283
457.46        27.96146
457.91        28.04226
458.35         28.1025
458.79        28.05365
459.24         27.9086
459.68        27.68525
460.13        27.48759
460.57        27.40442
461.01        27.47339
461.46        27.63946
461.90        27.85813
462.34        28.03235
462.79        28.11838
463.23        28.15375
463.68        28.12643
464.12        28.03779
464.56        27.89817
465.01        27.74196
465.45        27.58187
465.89        27.51295
466.34         27.5438
466.78        27.64692
467.22        27.78438
467.67        27.85775
468.11        27.85548
468.55        27.79281
468.99        27.70912
469.44        27.66578
469.88        27.68338
470.32        27.73859
470.77        27.81115
471.21        27.87409
471.65        27.91329
472.10        27.94065
472.54        27.95407
472.98        27.95854
473.42        27.95514
473.87         27.9476
474.31        27.92106
474.75        27.88061
475.20        27.83707
475.64        27.78703
476.08        27.74386
476.52        27.71103
476.97        27.69123
477.41        27.69527
477.85        27.73582
478.29        27.79157
478.74        27.88009
479.18        28.06472
479.62         28.2868
480.06         28.4077
480.50        28.41513
480.95        28.33262
481.39        28.18739
481.83        28.29816
482.27        28.26266
482.72        28.38628
483.16        28.52642
483.60        28.60749
484.04         28.6126
484.48         28.6699
484.93        28.80061
485.37        28.56984
485.81        28.92191
486.25        28.72286
486.69        28.23358
487.14        28.68742
487.58        29.56083
488.02        29.40289
488.46        29.09107
488.90         29.1466
489.34        29.26357
489.79        29.90579
490.23        29.73131
490.67        29.77656
491.11         29.7361
491.55        29.65239
491.99        29.58046
492.43        29.56984
492.88        29.65881
493.32        29.85381
493.76        30.10301
494.20        30.32115
494.64        30.48997
495.08          30.567
495.52        30.59525
495.96          30.827
496.41         31.2039
496.85        31.28382
497.29        31.08068
497.73        31.22802
498.17        31.31519
498.61        31.44339
499.05        31.46181
499.49        31.47031
499.93        31.40774
500.37        31.54886
500.82        31.83296
501.26        32.02906
501.70        32.10948
502.14        32.19949
502.58        32.31677
503.02        32.43248
503.46        32.54851
503.90        32.66521
504.34        32.76636
504.78        32.82989
505.22        32.85238
505.66        32.84272
506.10        32.82062
506.54         32.8172
506.98         32.8427
507.42        32.89083
507.86        32.95508
508.30        33.02299
508.74         33.0895
509.18        33.15843
509.62        33.22924
510.06        33.30082
510.50        33.37225
510.94        33.44052
511.38        33.50607
511.82        33.57106
512.26        33.63582
512.70        33.70061
513.14        33.76231
513.58        33.81581
514.02        33.86033
514.46        33.89582
514.90        33.92829
515.34        33.96854
515.78        34.01551
516.22        34.06185
516.66        34.09648
517.10        34.10118
517.54        34.07443
517.98        34.02928
518.42        33.96994
518.86        33.90322
519.30        33.83599
519.74        33.76455
520.18        33.71484
520.62        33.72557
521.06        33.79966
521.50        33.92911
521.93        34.06118
522.37        34.09632
522.81        34.02148
523.25        33.86425
523.69        33.69859
524.13        33.64228
524.57        33.71494
525.01        33.87068
525.45        34.03904
525.89        34.10558
526.32        34.03728
526.76        33.88796
527.20        33.69165
527.64        33.50372
528.08        33.34963
528.52        33.20998
528.96        33.11008
529.40         33.0902
529.83        33.14693
530.27        33.27308
530.71        33.39982
531.15         33.4171
531.59        33.30238
532.03        33.08397
532.46        32.83305
532.90         32.6881
533.34        32.67522
533.78        32.73911
534.22        32.81433
534.66        32.83989
535.09         32.7709
535.53        32.56674
535.97        32.30624
536.41        32.19399
536.85        32.25932
537.28        32.40961
537.72        32.58707
538.16         32.7248
538.60        32.79351
539.04        32.81472
539.47        32.80671
539.91        32.81838
540.35        32.85669
540.79        32.90752
541.22        32.96175
541.66        33.01922
542.10        33.07364
542.54        33.12929
542.97        33.18505
543.41         33.2507
543.85        33.32392
544.29        33.40851
544.72        33.49174
545.16        33.57554
545.60        33.65699
546.04        33.74429
546.47        33.85996
546.91        34.03432
547.35         34.2637
547.79         34.5294
548.22        34.79838
548.66        35.01443
549.10        35.20429
549.53        35.36779
549.97        35.50663
550.41        35.54571
550.84        35.53198
551.28        35.56785
551.72          35.654
552.15           35.82
552.59        36.11164
553.03         35.9884
553.46        36.49919
553.90        36.64865
554.34        36.74022
554.77        36.79055
555.21        36.84161
555.65        36.93074
556.08        37.05511
556.52         37.1821
556.96        37.28892
557.39        37.44244
557.83         37.6081
558.27        37.58042
558.70        37.41114
559.14        37.40667
559.57        37.55837
560.01        37.66914
560.45         37.7267
560.88        37.81794
561.32        37.95318
561.75        38.10421
562.19        38.26024
562.63        38.30467
563.06        38.27119
563.50        38.37859
563.93        38.56454
564.37        38.65174
564.80        38.65089
565.24        38.59159
565.68        38.42287
566.11        38.86012
566.55        38.52064
566.98        38.51994
567.42        38.52528
567.85        38.72759
568.29        39.08203
568.72        39.35056
569.16        39.57309
569.60         39.7032
570.03        39.87046
570.47        40.08803
570.90        40.42441
571.34        39.94913
571.77        40.57915
572.21        40.61962
572.64         40.5297
573.08        41.06425
573.51        40.83162
573.95        40.95313
574.38         41.0418
574.82        41.48586
