SpectraSmart Spectrum 2.9.0.0
--------- Device Information -----------
Spectrum Name :  反射率_0
Saving Time :  2024/04/26 23:05:10
Spectro-Module Model Name : SE2030-DUVN
Spectro-Module Serial Number : OS361AC55029948
Wavelength Start : 200
Wavelength End : 1025
Wavelength Unit : Wavelength(nm)
Spectrum Unit : Reflectance(%)
-----------Spectrum Setting ------------
Integration Time : 20ms
Average : 10
Boxcar : 0
Background removal :  enabled
linearity correction :  enabled
SC :  disabled
Intensity correction :  disabled
DWT denoise :  enabled
savitzky-golay :  disabled
FFT :  disabled
Running average :  disabled
Kalman :  disabled
High pass :  disabled
---------------BEGIN--------------------
Wavelength(nm)             Reflectance(%)
200.29               0
200.75        45.76143
201.21        46.64318
201.67         47.7327
202.13        48.07144
202.58        47.48338
203.04        46.53232
203.50        45.86853
203.96        46.92907
204.42        50.49126
204.88        56.08414
205.34        61.63081
205.80        63.74422
206.26         61.7722
206.72        57.13191
207.18        52.32465
207.64        49.23969
208.10        47.84251
208.55        47.89109
209.01        48.52234
209.47         48.2097
209.93        46.79076
210.39        45.58746
210.85        45.43469
211.31        47.10146
211.77        51.39345
212.23        60.99779
212.69        85.24224
213.14        128.9883
213.60        131.3605
214.06        104.5747
214.52        84.67035
214.98         73.9775
215.44        67.28796
215.90        61.08574
216.36        56.61801
216.81         56.6203
217.27        62.59594
217.73        76.99089
218.19        97.97933
218.65        107.9232
219.11        99.30085
219.57         83.1152
220.02        72.25398
220.48        74.10007
220.94         88.1448
221.40        115.9222
221.86         156.194
222.32        181.5554
222.77        169.4245
223.23        138.7665
223.69        109.8446
224.15        93.83211
224.61        88.30125
225.06        87.26958
225.52        89.00797
225.98        91.70034
226.44        94.75967
226.90        99.01176
227.36        103.1526
227.81        104.5406
228.27        103.0702
228.73        99.39615
229.19        95.97013
229.65        95.80563
230.10        98.91142
230.56        104.3223
231.02        109.5521
231.48        110.6798
231.93        107.1744
232.39        101.2798
232.85        95.41956
233.31        92.68693
233.77        93.40813
234.22        96.40929
234.68        100.2888
235.14        102.9438
235.60        103.6512
236.05        103.1105
236.51        101.5731
236.97        99.90781
237.43        98.58177
237.88        97.32407
238.34        96.13325
238.80        95.40013
239.26        95.23016
239.71        96.32341
240.17        98.04396
240.63        99.47749
241.08        100.2281
241.54        99.53691
242.00          99.232
242.46        103.0971
242.91        114.1354
243.37        134.4435
243.83        164.0404
244.28        187.1354
244.74        182.1165
245.20        150.5597
245.66        114.7399
246.11        93.22488
246.57        85.91447
247.03        86.96426
247.48        90.61366
247.94        88.01614
248.40        79.87135
248.85        71.35065
249.31        65.18855
249.77         62.0587
250.22        61.22426
250.68        61.56539
251.14        63.15913
251.59        65.97329
252.05        69.36145
252.51        73.30499
252.96         75.4535
253.42        74.29565
253.88        70.74097
254.33        65.77459
254.79         62.8863
255.25        64.86333
255.70         71.2036
256.16        80.56647
256.62        89.17417
257.07         91.1394
257.53        87.66763
257.99        82.21925
258.44         77.5368
258.90        76.28266
259.35        77.36056
259.81        79.93222
260.27        82.50541
260.72        83.32323
261.18        82.63504
261.63        80.90356
262.09        79.46452
262.55        79.06207
263.00        79.50596
263.46        80.55443
263.91        81.29593
264.37        81.05994
264.83        79.77782
265.28        77.82743
265.74        76.03001
266.19        74.95338
266.65        74.77456
267.11        75.09795
267.56        75.56658
268.02        75.64418
268.47        75.15439
268.93         74.3483
269.38          73.283
269.84        72.12849
270.30        70.95396
270.75        69.68951
271.21        68.54967
271.66        67.77867
272.12        67.40334
272.57        67.30179
273.03        67.19936
273.48        66.60611
273.94        65.50675
274.39         64.0228
274.85        62.49506
275.31        61.18384
275.76        60.12758
276.22        59.29945
276.67        58.57507
277.13        57.95135
277.58        57.30967
278.04        56.71145
278.49        56.04533
278.95        55.32204
279.40        54.46852
279.86        53.60505
280.31        52.66697
280.77         51.7483
281.22        50.81229
281.68        49.95261
282.13        49.17703
282.59        48.64824
283.04        48.30337
283.50        48.11722
283.95        47.95894
284.41         47.6665
284.86        47.18696
285.32        46.61326
285.77         45.9794
286.22        45.42929
286.68        44.99016
287.13        44.56907
287.59        44.16688
288.04        43.71574
288.50        43.24258
288.95        42.74258
289.41        42.23761
289.86        41.65099
290.32        41.03736
290.77        40.39158
291.22        39.81476
291.68        39.43479
292.13        39.24914
292.59        39.23373
293.04        39.29877
293.50        39.33325
293.95        39.29166
294.40        39.21294
294.86        39.14275
295.31        39.13977
295.77        39.23323
296.22        39.38842
296.68        39.59289
297.13        39.80611
297.58        40.02367
298.04        40.25805
298.49        40.51198
298.95        40.81183
299.40        41.14193
299.85        41.48306
300.31        41.81148
300.76        42.07621
301.21        42.27162
301.67        42.43137
302.12        42.53701
302.58         42.6324
303.03        42.70161
303.48        42.76019
303.94        42.84643
304.39        42.97111
304.84          43.146
305.30        43.37082
305.75        43.57516
306.20        43.71518
306.66        43.78984
307.11        43.79569
307.57        43.77517
308.02        43.73472
308.47        43.69724
308.93        43.66544
309.38        43.63041
309.83        43.63556
310.29         43.6846
310.74        43.76427
311.19        43.83185
311.65        43.80994
312.10        43.67739
312.55        43.45206
313.00        43.20753
313.46        43.05543
313.91         42.9991
314.36        43.01476
314.82        43.01276
315.27        42.86094
315.72        42.53299
316.18         42.0945
316.63        41.63425
317.08        41.30522
317.53        41.14319
317.99        41.09289
318.44         41.0983
318.89        41.05452
319.35        40.92327
319.80        40.73255
320.25          40.501
320.70        40.25811
321.16        40.01675
321.61        39.78398
322.06        39.55026
322.51         39.3093
322.97        39.06057
323.42        38.81327
323.87         38.6152
324.32        38.54625
324.78          38.598
325.23        38.76523
325.68        38.91571
326.13        38.83763
326.59        38.48534
327.04        37.93646
327.49        37.34563
327.94        36.96436
328.39        36.85198
328.85        36.92368
329.30        37.09806
329.75        37.14585
330.20        36.99782
330.66        36.72257
331.11        36.41652
331.56        36.20273
332.01        36.11917
332.46        36.10426
332.92        36.11224
333.37        36.13183
333.82        36.12189
334.27        36.10843
334.72        36.05198
335.17         35.8793
335.63        35.58682
336.08        35.21614
336.53        34.86626
336.98        34.71774
337.43         34.8093
337.88        35.08084
338.34         35.4194
338.79        35.66327
339.24        35.73298
339.69         35.6762
340.14        35.51352
340.59        35.28743
341.05        35.04401
341.50        34.77384
341.95        34.53811
342.40          34.432
342.85        34.47248
343.30        34.63505
343.75        34.86263
344.20         35.0527
344.66        35.16956
345.11        35.22999
345.56        35.23903
346.01        35.21334
346.46        35.16807
346.91        35.09988
347.36        35.02771
347.81        34.98735
348.26        34.98515
348.72        35.01194
349.17        35.05428
349.62        35.10208
350.07        35.14399
350.52        35.18343
350.97        35.18467
351.42        35.09254
351.87        34.90727
352.32        34.65373
352.77        34.40049
353.22        34.24623
353.67        34.21046
354.13        34.26587
354.58        34.35774
355.03        34.39125
355.48        34.33628
355.93        34.21675
356.38        34.07459
356.83        33.97496
357.28        33.92667
357.73        33.89731
358.18         33.8442
358.63        33.70468
359.08        33.46851
359.53         33.1694
359.98        32.84031
360.43        32.52275
360.88        32.23229
361.33        31.95854
361.78        31.71146
362.23        31.50735
362.68         31.3482
363.13        31.23489
363.58        31.13637
364.03        31.00025
364.48        30.81286
364.93        30.58005
365.38        30.34145
365.83        30.16757
366.28        30.07163
366.73        30.03066
367.18        29.98807
367.63        29.85446
368.08         29.6146
368.53        29.30355
368.98        28.98036
369.43        28.73722
369.88        28.59805
370.33        28.53107
370.78        28.50014
371.23        28.44615
371.68        28.34556
372.13         28.2154
372.58        28.05944
373.03        27.88233
373.48        27.68986
373.93        27.47823
374.38        27.26009
374.83        27.06136
375.28        26.88855
375.72        26.73035
376.17        26.59571
376.62        26.45967
377.07        26.32106
377.52        26.19509
377.97        26.07688
378.42        25.96312
378.87        25.85277
379.32        25.72939
379.77        25.63041
380.22        25.61281
380.67        25.67443
381.11        25.81067
381.56        25.90014
382.01        25.76582
382.46        25.39312
382.91        24.86466
383.36        24.35653
383.81        24.11098
384.26        24.16357
384.71        24.43102
385.15        24.77726
385.60        24.97231
386.05        24.94134
386.50        24.75321
386.95        24.47918
387.40        24.23277
387.85        24.05591
388.29          23.899
388.74        23.77813
389.19        23.66075
389.64        23.53905
390.09        23.42687
390.54        23.33182
390.98        23.25386
391.43         23.2069
391.88        23.18178
392.33        23.16674
392.78        23.14709
393.23        23.12005
393.67        23.07897
394.12        23.05468
394.57         23.0488
395.02        23.06047
395.47        23.07571
395.91          23.095
396.36        23.10581
396.81        23.11606
397.26        23.13485
397.71        23.13597
398.15        23.09655
398.60        23.04449
399.05        22.88998
399.50        22.70958
399.95        22.78104
400.39        23.04186
400.84        23.06311
401.29        22.82127
401.74        22.63918
402.18        22.52982
402.63        22.28236
403.08        21.98423
403.53        21.86926
403.97        21.96237
404.42        22.19587
404.87         22.4584
405.32         22.5673
405.76        22.47742
406.21        22.26053
406.66        22.01244
407.11        21.88541
407.55        21.92254
408.00        22.05868
408.45        22.23538
408.90         22.3388
409.34        22.32566
409.79        22.24307
410.24        22.11606
410.68        21.96687
411.13        21.81805
411.58         21.6603
412.03        21.51913
412.47        21.44984
412.92        21.45806
413.37         21.5337
413.81        21.64097
414.26        21.74668
414.71         21.8288
415.15         21.8986
415.60        21.94063
416.05         21.9523
416.49        21.93721
416.94        21.89392
417.39        21.83616
417.83        21.78568
418.28        21.74896
418.73        21.71853
419.17        21.70545
419.62        21.72371
420.07        21.77189
420.51        21.84323
420.96         21.9038
421.41        21.89561
421.85        21.80593
422.30        21.64706
422.74        21.46887
423.19        21.44232
423.64          21.549
424.08        21.63021
424.53        21.64477
424.98        21.68959
425.42        21.76374
425.87        21.74112
426.31        21.64879
426.76        21.68768
427.21        21.80618
427.65        21.68707
428.10        21.40655
428.54        21.30728
428.99        21.41845
429.44        21.63926
429.88        21.86428
430.33        21.84153
430.77        21.62109
431.22        21.62717
431.66        21.86435
432.11        21.96731
432.56        21.93833
433.00        22.07256
433.45        22.24576
433.89        22.08345
434.34        21.73359
434.78        21.11897
435.23        21.48529
435.67        21.51437
436.12        21.51908
436.57        21.53698
437.01        21.55833
437.46        21.57497
437.90        21.56566
438.35        21.47631
438.79        21.34195
439.24        21.28916
439.68        21.33137
440.13        21.42599
440.57        21.53448
441.02        21.60877
441.46        21.62515
441.91        21.56832
442.35        21.45877
442.80        21.48372
443.24        21.58383
443.69        21.50646
444.13        21.28067
444.58        21.18507
445.02        21.23061
445.47         21.2733
445.91        21.29833
446.36        21.35284
446.80        21.42333
447.24        21.49458
447.69        21.55542
448.13        21.58008
448.58        21.57071
449.02        21.53447
449.47        21.48845
449.91        21.44909
450.36        21.43097
450.80        21.42423
451.25        21.44144
451.69        21.48645
452.13         21.5575
452.58        21.64589
453.02        21.72742
453.47        21.76588
453.91        21.75369
454.36        21.70763
454.80        21.63604
455.24        21.55439
455.69        21.47911
456.13        21.39037
456.58        21.33106
457.02        21.33105
457.46        21.39892
457.91        21.52473
458.35        21.63379
458.79        21.61334
459.24        21.46823
459.68        21.22884
460.13        21.00771
460.57        20.92019
461.01        21.00583
461.46        21.20606
461.90        21.46713
462.34         21.6801
462.79        21.79643
463.23        21.85235
463.68        21.84178
464.12        21.77179
464.56         21.6554
465.01        21.51993
465.45         21.3756
465.89         21.2977
466.34        21.29457
466.78        21.34494
467.22        21.43198
467.67        21.49935
468.11        21.54042
468.55        21.56127
468.99        21.56511
469.44          21.556
469.88        21.54062
470.32        21.51222
470.77        21.48819
471.21        21.50266
471.65        21.55707
472.10        21.64412
472.54           21.73
472.98        21.76722
473.42        21.74678
473.87        21.69314
474.31        21.62053
474.75        21.57195
475.20        21.56441
475.64        21.57671
476.08           21.61
476.52        21.65243
476.97        21.69504
477.41        21.76259
477.85        21.85169
478.29        21.88827
478.74        21.87774
479.18        22.01781
479.62        22.05771
480.06        22.13823
480.50        22.18966
480.95        22.22133
481.39        22.21487
481.83         22.3618
482.27        22.33581
482.72        22.40081
483.16        22.47383
483.60        22.53475
484.04         22.5772
484.48        22.69738
484.93        22.89197
485.37         22.7491
485.81        23.01887
486.25        22.95068
486.69        22.63567
487.14        23.01917
487.58        23.23175
488.02        23.42259
488.46        23.23383
488.90        23.36745
489.34        23.59293
489.79        23.81085
490.23        23.89758
490.67        24.00782
491.11         24.1225
491.55        24.09827
491.99        23.98794
492.43        23.98483
492.88        24.11259
493.32        24.27636
493.76        24.44729
494.20        24.61645
494.64        24.77418
495.08        24.91596
495.52        25.02636
495.96        25.14674
496.41        25.26976
496.85        25.24001
497.29        25.11119
497.73        25.36562
498.17        25.62932
498.61        25.85291
499.05        25.90047
499.49        25.97686
499.93        26.03181
500.37        26.20986
500.82         26.4578
501.26        26.61965
501.70        26.67803
502.14        26.73352
502.58        26.81196
503.02        26.90101
503.46        27.00656
503.90        27.13374
504.34        27.25466
504.78        27.32241
505.22        27.32849
505.66         27.2867
506.10        27.23684
506.54        27.24234
506.98        27.31736
507.42        27.44353
507.86        27.58185
508.30        27.66837
508.74        27.68636
509.18        27.65524
509.62        27.61025
510.06        27.60795
510.50        27.66322
510.94        27.75861
511.38        27.86572
511.82        27.93857
512.26        27.96754
512.70        27.97201
513.14        27.97599
513.58        28.01715
514.02        28.10333
514.46        28.21361
514.90        28.33502
515.34        28.44942
515.78        28.54465
516.22        28.62513
516.66        28.67208
517.10        28.65575
517.54        28.57788
517.98         28.4524
518.42         28.3197
518.86        28.24478
519.30        28.24369
519.74        28.29798
520.18        28.37925
520.62         28.4393
521.06        28.46289
521.50        28.46533
521.93        28.45302
522.37        28.42747
522.81        28.39692
523.25        28.35415
523.69        28.31179
524.13        28.29268
524.57        28.29742
525.01        28.31869
525.45        28.33259
525.89        28.29878
526.32        28.20757
526.76         28.0819
527.20         27.9434
527.64        27.82862
528.08        27.74908
528.52        27.69334
528.96          27.658
529.40        27.63689
529.83        27.62357
530.27        27.62279
530.71        27.61765
531.15        27.58387
531.59        27.51771
532.03        27.42252
532.46        27.31766
532.90        27.25451
533.34        27.23779
533.78        27.24049
534.22        27.23657
534.66        27.21832
535.09        27.16005
535.53        27.01484
535.97        26.82709
536.41         26.7358
536.85        26.75888
537.28        26.83051
537.72        26.92726
538.16        27.03049
538.60        27.12353
539.04        27.21248
539.47        27.28263
539.91        27.32956
540.35        27.35056
540.79        27.34815
541.22        27.34702
541.66        27.39797
542.10        27.50622
542.54        27.65785
542.97        27.81862
543.41        27.94536
543.85        28.02363
544.29        28.07226
544.72        28.10913
545.16         28.1798
545.60        28.29215
546.04        28.43987
546.47        28.61687
546.91        28.80776
547.35        29.00138
547.79        29.19885
548.22        29.39836
548.66        29.59149
549.10        29.80807
549.53        30.03016
549.97         30.2411
550.41        30.34814
550.84        30.37966
551.28        30.43347
551.72        30.50809
552.15        30.62482
552.59        30.82945
553.03        30.66658
553.46        31.05192
553.90        31.17083
554.34        31.28683
554.77        31.40122
555.21         31.5336
555.65        31.68713
556.08        31.84792
556.52        31.99662
556.96         32.1072
557.39        32.22944
557.83        32.33691
558.27        32.25381
558.70        32.05301
559.14        32.04298
559.57        32.22364
560.01        32.41137
560.45        32.55803
560.88        32.68734
561.32        32.79862
561.75        32.86551
562.19        32.91231
562.63        32.93958
563.06        32.96764
563.50        33.06197
563.93         33.1786
564.37        33.27601
564.80        33.36094
565.24        33.38972
565.68         33.3133
566.11        33.76039
566.55        33.52195
566.98        33.60064
567.42        33.68204
567.85        33.80522
568.29        33.97707
568.72        34.20449
569.16        34.50651
569.60        34.66788
570.03         34.8007
570.47         34.9871
570.90        35.29019
571.34        35.01026
571.77        35.45693
572.21        35.55741
572.64        35.65587
573.08        35.84216
573.51        35.79731
573.95        35.93515
574.38        36.20012
574.82        36.15485
