SpectraSmart Spectrum 2.9.0.0
--------- Device Information -----------
Spectrum Name :  反射率_0
Saving Time :  2024/04/26 22:54:09
Spectro-Module Model Name : SE2030-DUVN
Spectro-Module Serial Number : OS361AC55029948
Wavelength Start : 200
Wavelength End : 1025
Wavelength Unit : Wavelength(nm)
Spectrum Unit : Reflectance(%)
-----------Spectrum Setting ------------
Integration Time : 20ms
Average : 10
Boxcar : 0
Background removal :  enabled
linearity correction :  enabled
SC :  disabled
Intensity correction :  disabled
DWT denoise :  enabled
savitzky-golay :  disabled
FFT :  disabled
Running average :  disabled
Kalman :  disabled
High pass :  disabled
---------------BEGIN--------------------
Wavelength(nm)             Reflectance(%)
200.29               0
200.75        62.84196
201.21        55.58582
201.67        49.03901
202.13        46.27196
202.58        47.42672
203.04        52.12007
203.50        60.21083
203.96         69.1686
204.42        76.43108
204.88         82.0396
205.34        84.98841
205.80        84.99194
206.26        82.60593
206.72          77.691
207.18        72.89214
207.64        70.49333
208.10        70.54282
208.55        73.90704
209.01        78.49433
209.47         77.4484
209.93        69.97149
210.39        61.51228
210.85        56.78809
211.31        58.29685
211.77        67.25271
212.23        90.26412
212.69        148.8692
213.14        244.7992
213.60        236.4273
214.06        165.9252
214.52         119.949
214.98        100.9434
215.44        94.91718
215.90        93.27955
216.36        95.06038
216.81        100.2502
217.27        109.3357
217.73        126.7231
218.19        149.8979
218.65        157.7763
219.11        143.8418
219.57        122.0723
220.02        107.8489
220.48         109.868
220.94        127.1993
221.40         161.864
221.86        213.2858
222.32        249.0056
222.77         239.453
223.23        205.7596
223.69        171.5071
224.15        150.1996
224.61        140.1056
225.06        134.9324
225.52        133.7162
225.98        135.0705
226.44        138.2353
226.90        143.6277
227.36        149.7332
227.81        153.3548
228.27        154.0076
228.73        152.2863
229.19        150.2693
229.65        150.6406
230.10        153.4926
230.56        158.0703
231.02        162.4063
231.48        163.4832
231.93        160.8637
232.39        156.5905
232.85        152.4282
233.31        150.7439
233.77        151.7421
234.22        154.3542
234.68         157.717
235.14         160.556
235.60        162.2927
236.05        163.5185
236.51        163.3606
236.97        160.7352
237.43        155.5626
237.88        148.2714
238.34        140.5248
238.80        135.4382
239.26        134.0211
239.71        136.9317
240.17        142.8923
240.63        148.6891
241.08        152.2898
241.54        152.8876
242.00        153.0336
242.46        158.5182
242.91        173.8987
243.37        200.7838
243.83        239.4856
244.28        271.3849
244.74        268.4928
245.20         232.113
245.66        188.0598
246.11        157.7819
246.57        141.7632
247.03         133.591
247.48        128.5118
247.94        121.0869
248.40        112.3433
248.85        105.1652
249.31        100.6347
249.77        97.87309
250.22        96.03134
250.68         94.3231
251.14         92.8149
251.59        92.40424
252.05        93.96281
252.51        97.65876
252.96        101.3374
253.42        103.8031
253.88        105.0114
254.33        104.6999
254.79        106.0099
255.25        111.3822
255.70        120.2825
256.16        131.9028
256.62        141.2569
257.07        140.8947
257.53         133.605
257.99        124.3248
258.44        117.1199
258.90        115.8895
259.35        118.7466
259.81        124.2114
260.27        129.7093
260.72        132.0891
261.18         131.635
261.63        129.1777
262.09        126.8635
262.55        125.9056
263.00        126.0856
263.46        127.1024
263.91        127.6426
264.37        126.8582
264.83        124.6535
265.28        121.5555
265.74        118.7825
266.19        117.1448
266.65        116.9042
267.11         117.509
267.56         118.351
268.02        118.5279
268.47        117.7592
268.93        116.4307
269.38        114.8073
269.84        113.4333
270.30        112.4138
270.75        111.5044
271.21        110.7086
271.66        109.9146
272.12        109.0819
272.57        108.1895
273.03        107.1212
273.48        105.6059
273.94        103.7677
274.39        101.6567
274.85        99.62965
275.31        97.85107
275.76        96.32266
276.22        95.10117
276.67        94.04057
277.13        93.21854
277.58        92.43858
278.04        91.71171
278.49         90.8429
278.95        89.82575
279.40         88.5363
279.86         87.2011
280.31         85.6356
280.77        83.87565
281.22         81.8878
281.68        79.88474
282.13        78.09161
282.59        77.06181
283.04        76.71494
283.50        76.92246
283.95        77.20863
284.41        76.89288
284.86        75.80704
285.32        74.24916
285.77        72.56399
286.22        71.38787
286.68        70.82806
287.13         70.5938
287.59        70.44414
288.04        69.90781
288.50        68.95242
288.95        67.70861
289.41        66.40739
289.86        65.21259
290.32        64.26044
290.77        63.42175
291.22        62.71519
291.68        62.14126
292.13        61.64575
292.59        61.26925
293.04         60.9367
293.50        60.57037
293.95        60.13884
294.40        59.66476
294.86        59.22713
295.31        58.93358
295.77         58.8217
296.22        58.83955
296.68        58.91798
297.13        58.90809
297.58        58.79058
298.04        58.61235
298.49        58.44298
298.95        58.42666
299.40        58.57267
299.85        58.82866
300.31        59.11842
300.76        59.29626
301.21        59.33409
301.67         59.2923
302.12        59.18134
302.58        59.11291
303.03        59.07081
303.48        59.05415
303.94        59.06135
304.39        59.02517
304.84        58.95726
305.30        58.89043
305.75        58.80821
306.20        58.76385
306.66        58.78174
307.11        58.82356
307.57        58.87954
308.02        58.85386
308.47        58.75251
308.93         58.6058
309.38        58.45535
309.83        58.44048
310.29        58.57785
310.74        58.81566
311.19        59.03552
311.65        59.03928
312.10        58.78099
312.55        58.32579
313.00        57.83128
313.46         57.5328
313.91        57.45796
314.36        57.54626
314.82        57.65433
315.27        57.56538
315.72        57.22553
316.18        56.73623
316.63         56.2051
317.08        55.81953
317.53        55.62658
317.99        55.54867
318.44        55.53833
318.89        55.50686
319.35        55.40996
319.80         55.2706
320.25        55.06924
320.70        54.77238
321.16        54.38405
321.61        53.94126
322.06        53.47839
322.51        53.06473
322.97         52.7243
323.42        52.44658
323.87        52.26845
324.32        52.25281
324.78         52.3687
325.23        52.62007
325.68        52.83555
326.13        52.73904
326.59        52.27692
327.04        51.55655
327.49        50.77592
327.94        50.26025
328.39        50.09391
328.85        50.16711
329.30        50.41959
329.75        50.62265
330.20        50.68895
330.66         50.6721
331.11        50.61509
331.56        50.54742
332.01        50.48646
332.46        50.38955
332.92        50.24633
333.37        50.14073
333.82        50.05984
334.27        50.01105
334.72        49.95839
335.17        49.82709
335.63        49.60491
336.08         49.3512
336.53        49.12847
336.98        49.05447
337.43        49.15704
337.88        49.38799
338.34        49.68338
338.79        49.98805
339.24        50.23596
339.69        50.43409
340.14        50.53934
340.59         50.4928
341.05         50.3101
341.50        50.01146
341.95        49.68575
342.40        49.46939
342.85        49.40422
343.30        49.46233
343.75         49.6038
344.20        49.75603
344.66         49.8885
345.11        50.00768
345.56         50.1077
346.01        50.18251
346.46        50.23263
346.91        50.25809
347.36        50.24608
347.81        50.18677
348.26        50.08624
348.72        49.95193
349.17        49.83307
349.62        49.82453
350.07        49.93786
350.52         50.1496
350.97        50.35593
351.42        50.38692
351.87        50.21225
352.32        49.88815
352.77        49.54053
353.22         49.3568
353.67        49.37061
354.13        49.51388
354.58        49.68438
355.03        49.70544
355.48        49.52878
355.93        49.22029
356.38        48.85736
356.83        48.54984
357.28        48.32951
357.73        48.15548
358.18        48.00524
358.63        47.85079
359.08        47.67581
359.53        47.48892
359.98        47.28035
360.43         47.0256
360.88         46.7207
361.33        46.37614
361.78        45.99741
362.23        45.60048
362.68        45.20504
363.13        44.81776
363.58        44.47303
364.03        44.21775
364.48        44.05221
364.93        43.95612
365.38        43.88356
365.83        43.75892
366.28        43.56118
366.73        43.31223
367.18         43.0304
367.63        42.74842
368.08        42.47882
368.53        42.20719
368.98        41.94819
369.43        41.72589
369.88        41.53955
370.33        41.38618
370.78        41.22569
371.23        40.98977
371.68        40.66824
372.13        40.28466
372.58        39.89565
373.03        39.59138
373.48        39.39126
373.93        39.26374
374.38        39.16364
374.83        39.01904
375.28        38.80797
375.72        38.54641
376.17        38.27413
376.62        38.00272
377.07        37.74788
377.52        37.51157
377.97        37.30524
378.42        37.15392
378.87        37.05987
379.32        37.00307
379.77        36.98537
380.22        37.00851
380.67        37.05593
381.11        37.13034
381.56        37.13858
382.01        36.97134
382.46        36.62605
382.91        36.16325
383.36         35.6997
383.81        35.39291
384.26          35.267
384.71        35.26893
385.15        35.33751
385.60        35.36306
386.05        35.30778
386.50        35.20803
386.95        35.06253
387.40        34.87222
387.85        34.65304
388.29        34.38205
388.74        34.15114
389.19        34.00713
389.64        33.95098
390.09        33.95995
390.54         33.9765
390.98        33.89506
391.43        33.71955
391.88        33.49097
392.33         33.2627
392.78        33.10852
393.23        33.04533
393.67        33.02731
394.12        33.07298
394.57        33.14928
395.02        33.23854
395.47        33.33252
395.91        33.41128
396.36         33.4229
396.81        33.37493
397.26        33.28958
397.71        33.17073
398.15        33.04869
398.60        32.97614
399.05        32.81021
399.50        32.62273
399.95        32.75792
400.39        33.11238
400.84        33.07899
401.29        32.66532
401.74        32.40131
402.18        32.31949
402.63        32.09857
403.08        31.79379
403.53        31.63322
403.97        31.63661
404.42        31.74456
404.87        31.89236
405.32        31.97052
405.76        31.94302
406.21        31.85582
406.66         31.7525
407.11        31.70624
407.55        31.74512
408.00        31.82953
408.45        31.92657
408.90        31.96635
409.34        31.92531
409.79        31.83151
410.24        31.72606
410.68        31.65687
411.13        31.64219
411.58        31.66477
412.03        31.68464
412.47        31.63848
412.92        31.50695
413.37        31.33045
413.81        31.15722
414.26        31.08281
414.71        31.11073
415.15        31.22033
415.60        31.35688
416.05        31.45658
416.49         31.4945
416.94        31.48438
417.39        31.43913
417.83        31.37669
418.28        31.30643
418.73        31.21589
419.17        31.12944
419.62        31.08885
420.07        31.10376
420.51        31.16523
420.96        31.23664
421.41        31.24889
421.85        31.18184
422.30         31.0439
422.74        30.88639
423.19        30.92445
423.64        31.12426
424.08        31.26215
424.53        31.28676
424.98        31.34883
425.42        31.45147
425.87        31.41967
426.31         31.2935
426.76        31.33634
427.21        31.48993
427.65        31.36158
428.10         31.0387
428.54         30.9389
428.99        31.09383
429.44        31.35916
429.88        31.61452
430.33        31.59252
430.77         31.3486
431.22         31.3636
431.66        31.61754
432.11        31.70408
432.56        31.63519
433.00        31.62432
433.45        31.60147
433.89        31.58469
434.34         31.6454
434.78        30.94423
435.23         31.2868
435.67        31.12664
436.12         31.0063
436.57        31.01086
437.01        31.12136
437.46        31.15727
437.90        31.08984
438.35        31.01506
438.79        30.95155
439.24        30.93213
439.68        30.95809
440.13        31.01258
440.57        31.09807
441.02        31.19257
441.46        31.26795
441.91        31.39535
442.35        31.49948
442.80        31.45221
443.24        31.28329
443.69        31.26863
444.13        31.38602
444.58        31.40575
445.02        31.31718
445.47        31.26381
445.91        31.25918
446.36        31.26621
446.80        31.27878
447.24         31.3101
447.69         31.3403
448.13        31.32389
448.58        31.26429
449.02         31.1709
449.47        31.07807
449.91         31.0261
450.36        31.03417
450.80        31.07504
451.25        31.14642
451.69        31.22297
452.13        31.29729
452.58        31.36896
453.02        31.41859
453.47        31.41994
453.91        31.37195
454.36        31.29104
454.80        31.19408
455.24        31.11025
455.69        31.05987
456.13        31.01334
456.58        31.00724
457.02        31.04761
457.46        31.14074
457.91        31.28119
458.35         31.3928
458.79         31.3666
459.24         31.2174
459.68        30.97131
460.13        30.75058
460.57        30.66614
461.01        30.76366
461.46        30.97545
461.90        31.26129
462.34        31.52814
462.79         31.7234
463.23        31.88159
463.68        31.95061
464.12        31.86964
464.56         31.6438
465.01        31.34014
465.45        31.02277
465.89         30.8635
466.34        30.88429
466.78        31.03582
467.22        31.25234
467.67        31.38164
468.11        31.39516
468.55        31.32169
468.99        31.21672
469.44        31.16671
469.88        31.19956
470.32        31.28006
470.77        31.37528
471.21        31.44181
471.65        31.46168
472.10        31.45497
472.54        31.43325
472.98          31.421
473.42        31.42569
473.87        31.44903
474.31        31.46065
474.75         31.4454
475.20        31.40954
475.64        31.34982
476.08        31.30017
476.52        31.29496
476.97        31.33855
477.41        31.43179
477.85        31.54912
478.29        31.60264
478.74        31.60279
479.18        31.64677
479.62        31.72264
480.06        31.75576
480.50        31.75671
480.95         31.7364
481.39        31.67811
481.83        31.86497
482.27        31.81924
482.72        31.90114
483.16        32.00373
483.60         32.0764
484.04        32.09575
484.48        32.34431
484.93         32.7357
485.37        32.29104
485.81        32.23848
486.25        32.22937
486.69        31.79435
487.14        32.72969
487.58        33.38065
488.02        33.04642
488.46        32.83219
488.90        33.05429
489.34        33.29621
489.79        33.67759
490.23        33.77217
490.67        33.64886
491.11        33.37685
491.55        33.28311
491.99        33.40385
492.43        33.46155
492.88         33.4661
493.32        33.62153
493.76        33.88759
494.20         34.1106
494.64        34.27505
495.08        34.35302
495.52        34.37106
495.96        34.58163
496.41        34.91905
496.85        34.88505
497.29        34.54446
497.73         34.7078
498.17         34.9111
498.61        35.16307
499.05        35.26614
499.49        35.34865
499.93        35.33499
500.37        35.53413
500.82        35.87437
501.26        36.08109
501.70        36.12654
502.14        36.16733
502.58        36.23716
503.02        36.31561
503.46         36.4123
503.90        36.53358
504.34        36.65043
504.78        36.71525
505.22        36.72062
505.66         36.6824
506.10        36.64289
506.54        36.66931
506.98        36.77531
507.42         36.9378
507.86        37.11648
508.30        37.24585
508.74        37.30616
509.18        37.31629
509.62        37.30112
510.06        37.30183
510.50        37.33184
510.94        37.37787
511.38        37.43069
511.82        37.47536
512.26        37.50905
512.70        37.54334
513.14        37.58128
513.58        37.62515
514.02        37.67561
514.46         37.7252
514.90        37.78166
515.34         37.8598
515.78        37.95631
516.22        38.06359
516.66        38.15118
517.10        38.17099
517.54        38.11732
517.98        38.01017
518.42        37.88822
518.86        37.81341
519.30        37.80332
519.74        37.83932
520.18        37.90246
520.62        37.96079
521.06        38.00184
521.50        38.03637
521.93        38.06113
522.37        38.05731
522.81        38.02988
523.25        37.97927
523.69        37.92359
524.13         37.8952
524.57        37.89654
525.01         37.9119
525.45        37.92334
525.89        37.90023
526.32        37.83123
526.76        37.74305
527.20        37.63035
527.64        37.48814
528.08        37.32628
528.52        37.14812
528.96        37.00054
529.40        36.95574
529.83        37.01937
530.27        37.17028
530.71        37.33325
531.15        37.39043
531.59        37.31485
532.03        37.13998
532.46        36.92694
532.90        36.80049
533.34        36.78375
533.78        36.81842
534.22        36.85974
534.66        36.88528
535.09         36.8512
535.53        36.69809
535.97        36.47273
536.41        36.34037
536.85        36.32404
537.28        36.34345
537.72        36.38553
538.16        36.45774
538.60        36.54797
539.04        36.65506
539.47        36.75504
539.91        36.83372
540.35        36.88081
540.79        36.90155
541.22        36.91519
541.66        36.96746
542.10        37.06276
542.54        37.18834
542.97         37.3192
543.41        37.43191
543.85         37.5157
544.29        37.58764
544.72        37.65309
545.16        37.74306
545.60        37.85993
546.04        38.00097
546.47        38.17457
546.91        38.38825
547.35        38.63105
547.79        38.89307
548.22        39.14738
548.66        39.34551
549.10        39.52288
549.53        39.67398
549.97        39.80318
550.41        39.83086
550.84         39.8092
551.28        39.85312
551.72         39.9533
552.15        40.12538
552.59         40.4186
553.03        40.23473
553.46        40.76083
553.90        40.90589
554.34        41.01343
554.77        41.09394
555.21        41.18394
555.65         41.3085
556.08        41.45856
556.52        41.60191
556.96        41.71485
557.39        41.87628
557.83        42.04821
558.27        41.99615
558.70        41.78219
559.14        41.75747
559.57        41.91538
560.01        42.03501
560.45        42.09176
560.88        42.17994
561.32        42.31382
561.75        42.42287
562.19         42.5167
562.63         42.6083
563.06        42.69185
563.50        42.75127
563.93        42.76148
564.37        42.83874
564.80        42.98252
565.24        42.97956
565.68        42.76741
566.11        43.26058
566.55        42.91259
566.98         42.9506
567.42        42.98781
567.85        43.12813
568.29        43.38057
568.72        43.71843
569.16        44.12181
569.60        44.33431
570.03        44.50313
570.47         44.5974
570.90         44.6957
571.34        44.59268
571.77        44.86659
572.21        45.01714
572.64        45.13553
573.08        45.40061
573.51        45.27025
573.95        45.39517
574.38        45.71931
574.82        45.70721
