SpectraSmart Spectrum 2.9.0.0
--------- Device Information -----------
Spectrum Name :  反射率_0
Saving Time :  2024/04/26 22:56:27
Spectro-Module Model Name : SE2030-DUVN
Spectro-Module Serial Number : OS361AC55029948
Wavelength Start : 200
Wavelength End : 1025
Wavelength Unit : Wavelength(nm)
Spectrum Unit : Reflectance(%)
-----------Spectrum Setting ------------
Integration Time : 20ms
Average : 10
Boxcar : 0
Background removal :  enabled
linearity correction :  enabled
SC :  disabled
Intensity correction :  disabled
DWT denoise :  enabled
savitzky-golay :  disabled
FFT :  disabled
Running average :  disabled
Kalman :  disabled
High pass :  disabled
---------------BEGIN--------------------
Wavelength(nm)             Reflectance(%)
200.29               0
200.75        34.50822
201.21        34.01894
201.67        33.66066
202.13        32.86641
202.58        31.35586
203.04        29.51579
203.50        27.06723
203.96         23.8049
204.42        20.09223
204.88        15.87345
205.34        12.96048
205.80         14.0563
206.26        18.77974
206.72        25.44273
207.18        30.71996
207.64        31.79481
208.10        28.55538
208.55        20.94749
209.01        9.659454
209.47        3.895845
209.93        8.649969
210.39        17.90594
210.85        26.03004
211.31         31.4517
211.77        35.71809
212.23        41.19492
212.69        53.03959
213.14        78.50087
213.60        86.97132
214.06        76.46799
214.52        65.20896
214.98        56.12156
215.44        47.21929
215.90        36.90687
216.36         27.5329
216.81        23.28153
217.27        25.99356
217.73        36.60955
218.19         53.1959
218.65         60.6176
219.11        52.65999
219.57        39.32051
220.02        30.47316
220.48        31.05746
220.94        40.62631
221.40        59.92502
221.86        88.67571
222.32        109.0666
222.77        104.5745
223.23        86.73873
223.69        68.30616
224.15        56.66064
224.61         50.9099
225.06         47.6145
225.52        46.38306
225.98        46.88683
226.44         48.6279
226.90        51.75227
227.36        54.82439
227.81        55.21376
228.27        52.80624
228.73        48.58212
229.19        44.66053
229.65        43.49753
230.10         45.1511
230.56        48.73356
231.02        52.53798
231.48         53.8484
231.93        52.18642
232.39        48.98161
232.85        45.73412
233.31        44.36453
233.77        45.08815
234.22        47.18362
234.68        49.74984
235.14        51.52724
235.60        52.09798
236.05        51.89762
236.51         51.1828
236.97        50.51995
237.43        50.21553
237.88        50.08136
238.34        50.12486
238.80          50.657
239.26        51.80094
239.71        54.01287
240.17        56.87614
240.63         59.3905
241.08        60.86696
241.54        60.68728
242.00        59.90083
242.46        60.99743
242.91        65.67753
243.37        74.47384
243.83        87.00857
244.28        94.92091
244.74        88.51771
245.20         70.9381
245.66        52.69689
246.11        41.05901
246.57        35.91488
247.03        34.11806
247.48        35.61449
247.94         39.7196
248.40        44.45245
248.85        49.04836
249.31        52.14964
249.77         52.4206
250.22        49.92677
250.68        44.30762
251.14        37.18069
251.59        34.87174
252.05         40.3527
252.51        50.49958
252.96        58.84833
253.42        59.92984
253.88          54.951
254.33        47.06741
254.79        40.81289
255.25        39.77559
255.70        43.63148
256.16        50.59129
256.62         57.5603
257.07        59.77054
257.53        57.77991
257.99        54.23325
258.44        51.10958
258.90        50.33358
259.35        51.12534
259.81        52.79673
260.27        54.31597
260.72        54.50278
261.18        53.54239
261.63        51.83714
262.09        50.24679
262.55        49.20523
263.00        48.64515
263.46        48.45837
263.91        48.20806
264.37        47.62503
264.83        46.67687
265.28        45.51004
265.74        44.53072
266.19        43.96042
266.65        43.87223
267.11        44.05193
267.56        44.29602
268.02        44.28976
268.47        43.93684
268.93        43.36801
269.38        42.62167
269.84        41.81573
270.30        40.99321
270.75        40.11469
271.21        39.30439
271.66        38.69466
272.12        38.30544
272.57        38.08687
273.03         37.8848
273.48         37.4287
273.94        36.71902
274.39        35.81598
274.85        34.94055
275.31        34.26873
275.76        33.80838
276.22        33.51537
276.67        33.26446
277.13        32.96746
277.58        32.55072
278.04        32.08814
278.49        31.55491
278.95        31.02798
279.40        30.48078
279.86        29.95837
280.31        29.43037
280.77        28.95798
281.22        28.51078
281.68         28.1379
282.13        27.79432
282.59        27.49705
283.04        27.20941
283.50        26.93701
283.95        26.68323
284.41        26.47383
284.86         26.3057
285.32        26.19274
285.77          26.071
286.22        25.90598
286.68        25.69526
287.13        25.42207
287.59        25.15983
288.04        24.97857
288.50        24.90866
288.95        24.89644
289.41        24.87998
289.86        24.70803
290.32        24.39356
290.77        23.97665
291.22        23.57244
291.68        23.33537
292.13        23.29173
292.59        23.41224
293.04        23.61927
293.50         23.8102
293.95        23.94559
294.40        24.05728
294.86        24.20198
295.31         24.4582
295.77        24.84409
296.22        25.31977
296.68        25.81317
297.13        26.20514
297.58        26.47868
298.04        26.67118
298.49        26.86733
298.95        27.21609
299.40        27.73277
299.85        28.36049
300.31        28.99327
300.76        29.46319
301.21        29.73401
301.67        29.87354
302.12        29.93897
302.58        30.07033
303.03        30.27885
303.48        30.53694
303.94        30.81294
304.39        31.03287
304.84        31.18844
305.30        31.31423
305.75        31.40577
306.20        31.50247
306.66        31.61766
307.11        31.72162
307.57        31.80705
308.02        31.82505
308.47        31.77841
308.93        31.68974
309.38        31.57654
309.83        31.50588
310.29        31.49085
310.74        31.51097
311.19        31.52355
311.65        31.45477
312.10        31.28723
312.55        31.04507
313.00        30.79415
313.46        30.63021
313.91        30.55935
314.36        30.55955
314.82        30.55756
315.27        30.44471
315.72        30.19651
316.18        29.85962
316.63        29.50398
317.08        29.25057
317.53        29.12366
317.99        29.07619
318.44        29.05169
318.89        28.94886
319.35        28.73848
319.80        28.45427
320.25        28.13023
320.70        27.81885
321.16           27.54
321.61        27.28969
322.06        27.05977
322.51        26.84153
322.97        26.62851
323.42        26.42819
323.87        26.25662
324.32        26.14075
324.78        26.06894
325.23        26.04066
325.68        25.98572
326.13        25.79975
326.59        25.46457
327.04        25.02436
327.49        24.56723
327.94        24.23308
328.39        24.05138
328.85        23.97364
329.30        23.95229
329.75        23.85263
330.20        23.63896
330.66        23.35514
331.11        23.06192
331.56        22.83411
332.01         22.6954
332.46        22.61059
332.92        22.55537
333.37        22.53083
333.82        22.51026
334.27        22.50084
334.72        22.47276
335.17        22.37272
335.63        22.19398
336.08        21.96673
336.53        21.73636
336.98        21.59022
337.43        21.55124
337.88        21.58695
338.34        21.67242
338.79        21.78259
339.24        21.88482
339.69         21.9883
340.14         22.0387
340.59         21.9522
341.05        21.73199
341.50        21.40319
341.95        21.07018
342.40        20.89564
342.85        20.91402
343.30        21.07759
343.75         21.2955
344.20        21.41504
344.66        21.39374
345.11        21.27487
345.56        21.11293
346.01        20.99552
346.46        20.95319
346.91        20.95902
347.36        20.98794
347.81        21.00679
348.26        21.00459
348.72        20.99372
349.17        20.99085
349.62        21.02939
350.07        21.11084
350.52        21.22112
350.97         21.3105
351.42        21.30351
351.87        21.18908
352.32        20.99422
352.77        20.78667
353.22         20.6658
353.67        20.65074
354.13        20.71298
354.58        20.79169
355.03        20.78917
355.48        20.68146
355.93        20.50521
356.38        20.31205
356.83        20.17721
357.28        20.11717
357.73        20.10109
358.18        20.09908
358.63        20.06619
359.08        19.98633
359.53        19.87595
359.98        19.74028
360.43        19.58319
360.88         19.4095
361.33        19.21803
361.78        19.02178
362.23        18.84455
362.68         18.6962
363.13        18.57724
363.58        18.47705
364.03        18.37531
364.48        18.26413
364.93        18.14312
365.38        18.02642
365.83        17.93852
366.28        17.88153
366.73        17.84721
367.18         17.8014
367.63        17.69127
368.08        17.51176
368.53        17.28463
368.98        17.05875
369.43        16.91141
369.88        16.85964
370.33        16.87663
370.78        16.92366
371.23        16.93517
371.68          16.888
372.13        16.80198
372.58        16.68671
373.03        16.55802
373.48        16.42612
373.93        16.28409
374.38        16.14823
374.83        16.04828
375.28        15.98726
375.72        15.95207
376.17        15.92859
376.62        15.87142
377.07        15.77247
377.52        15.64769
377.97        15.51252
378.42        15.39498
378.87        15.30654
379.32        15.23667
379.77        15.18987
380.22        15.17251
380.67        15.17891
381.11           15.21
381.56         15.2309
382.01        15.19721
382.46          15.103
382.91        14.96791
383.36        14.82498
383.81        14.72054
384.26        14.66154
384.71        14.62932
385.15        14.61134
385.60        14.59089
386.05        14.55818
386.50        14.52276
386.95        14.46972
387.40        14.37677
387.85         14.2475
388.29        14.08273
388.74        13.93633
389.19        13.85008
389.64         13.8282
390.09        13.85557
390.54        13.89093
390.98         13.8629
391.43        13.76737
391.88        13.62722
392.33        13.48854
392.78        13.41627
393.23        13.41942
393.67         13.4663
394.12        13.53168
394.57        13.55273
395.02         13.5158
395.47        13.43559
395.91        13.34356
396.36        13.28378
396.81        13.27738
397.26        13.30893
397.71        13.34707
398.15        13.35509
398.60         13.3414
399.05        13.26456
399.50        13.16316
399.95        13.18836
400.39        13.30386
400.84        13.25906
401.29        13.06346
401.74        12.94137
402.18        12.90609
402.63          12.828
403.08        12.71955
403.53        12.65549
403.97        12.64016
404.42        12.65447
404.87        12.67546
405.32        12.66377
405.76        12.60903
406.21        12.53018
406.66        12.45225
407.11        12.41664
407.55        12.43526
408.00        12.48692
408.45        12.54781
408.90        12.57015
409.34        12.53822
409.79        12.46942
410.24        12.38489
410.68        12.30908
411.13        12.25325
411.58        12.20865
412.03        12.16832
412.47        12.12451
412.92        12.07308
413.37        12.02399
413.81        11.98383
414.26        11.96893
414.71        11.97667
415.15        12.00453
415.60        12.03659
416.05        12.05457
416.49        12.05338
416.94        12.03627
417.39        12.01496
417.83        12.00792
418.28        12.01778
418.73        12.03534
419.17        12.05362
419.62        12.06245
420.07        12.05714
420.51        12.03791
420.96        12.00455
421.41        11.95382
421.85        11.88478
422.30        11.80017
422.74        11.70391
423.19        11.65427
423.64        11.63643
424.08        11.57751
424.53        11.48777
424.98        11.47607
425.42        11.55414
425.87         11.6335
426.31        11.69157
426.76        11.78021
427.21        11.85453
427.65        11.76086
428.10          11.554
428.54        11.44202
428.99        11.45157
429.44        11.51831
429.88        11.60065
430.33        11.59006
430.77        11.51162
431.22         11.5833
431.66        11.77724
432.11        11.83932
432.56        11.75904
433.00        11.70757
433.45        11.65755
433.89        11.48957
434.34        11.30869
434.78        11.04685
435.23          11.318
435.67        11.37691
436.12        11.37301
436.57        11.34507
437.01        11.30536
437.46        11.27837
437.90        11.26311
438.35        11.21841
438.79        11.15835
439.24        11.14343
439.68        11.17876
440.13        11.24606
440.57        11.31919
441.02        11.36507
441.46         11.3713
441.91         11.3192
442.35        11.23399
442.80        11.26034
443.24        11.35551
443.69        11.31788
444.13        11.16526
444.58        11.10523
445.02        11.14368
445.47        11.17166
445.91        11.17429
446.36        11.18162
446.80        11.18646
447.24        11.17935
447.69        11.16776
448.13        11.15854
448.58        11.15552
449.02        11.15573
449.47         11.1511
449.91        11.12373
450.36        11.07542
450.80        11.01207
451.25        10.95345
451.69        10.92333
452.13        10.92697
452.58        10.95371
453.02        10.98644
453.47        10.99972
453.91        10.98548
454.36        10.95288
454.80        10.90697
455.24        10.85377
455.69        10.80382
456.13        10.75221
456.58        10.71595
457.02        10.70268
457.46        10.71823
457.91        10.75523
458.35        10.79992
458.79        10.83086
459.24        10.84841
459.68        10.84792
460.13        10.84129
460.57         10.8189
461.01        10.79223
461.46        10.75397
461.90        10.71985
462.34        10.70636
462.79        10.71426
463.23        10.74366
463.68        10.77405
464.12        10.77702
464.56        10.74421
465.01        10.69916
465.45         10.6425
465.89         10.6051
466.34        10.59169
466.78        10.59026
467.22        10.60033
467.67        10.61153
468.11        10.62593
468.55        10.64301
468.99         10.6581
469.44        10.66186
469.88        10.65286
470.32        10.63092
470.77         10.6081
471.21        10.60694
471.65         10.6302
472.10        10.67502
472.54        10.71858
472.98        10.72972
473.42        10.70373
473.87        10.65451
474.31        10.60317
474.75        10.59287
475.20        10.63323
475.64        10.70494
476.08        10.78433
476.52        10.82907
476.97         10.8299
477.41        10.80619
477.85        10.78032
478.29         10.7724
478.74         10.8003
479.18        10.87991
479.62        10.98699
480.06        11.06647
480.50        11.10876
480.95        11.12119
481.39        11.10779
481.83        11.18305
482.27        11.18756
482.72        11.25026
483.16        11.31638
483.60        11.35219
484.04        11.33706
484.48         11.3757
484.93        11.53372
485.37        11.47472
485.81        11.49616
486.25        11.96086
486.69        11.57563
487.14        11.49992
487.58        12.36051
488.02        12.18571
488.46        11.85422
488.90        11.82671
489.34        11.67519
489.79        11.91197
490.23        12.20677
490.67        12.40674
491.11        12.45705
491.55        12.44152
491.99        12.41468
492.43        12.43864
492.88        12.53286
493.32        12.64646
493.76        12.75991
494.20        12.87823
494.64         12.9978
495.08        13.09153
495.52        13.15813
495.96        13.28211
496.41        13.43725
496.85        13.42269
497.29         13.2853
497.73        13.40947
498.17        13.60513
498.61        13.77407
499.05        13.83757
499.49        13.92687
499.93        14.01103
500.37        14.16284
500.82        14.34272
501.26        14.44749
501.70        14.46682
502.14        14.46246
502.58        14.47173
503.02        14.52511
503.46        14.63355
503.90         14.7889
504.34        14.95204
504.78        15.05604
505.22        15.08417
505.66        15.05636
506.10        15.01053
506.54        15.00762
506.98        15.06395
507.42        15.16084
507.86         15.2715
508.30        15.35246
508.74        15.39097
509.18        15.40168
509.62        15.40339
510.06        15.42522
510.50        15.47498
510.94        15.54142
511.38         15.6107
511.82        15.66189
512.26        15.68968
512.70        15.70298
513.14        15.71188
513.58        15.73118
514.02        15.76598
514.46        15.81104
514.90        15.86156
515.34        15.91097
515.78        15.95472
516.22        15.99141
516.66         16.0207
517.10        16.04249
517.54         16.0554
517.98        16.05913
518.42        16.04695
518.86        16.00873
519.30          15.947
519.74        15.87007
520.18        15.79493
520.62        15.74663
521.06        15.73116
521.50         15.7406
521.93        15.76634
522.37        15.78677
522.81        15.79523
523.25         15.7946
523.69        15.78136
524.13        15.75102
524.57        15.70407
525.01          15.641
525.45        15.57037
525.89        15.50755
526.32        15.45655
526.76        15.41956
527.20        15.39057
527.64        15.36003
528.08         15.3254
528.52        15.28878
528.96        15.25558
529.40        15.23412
529.83        15.22402
530.27        15.22078
530.71         15.2129
531.15        15.18464
531.59         15.1333
532.03         15.0645
532.46        14.98738
532.90        14.92657
533.34        14.88652
533.78        14.85542
534.22        14.82749
534.66         14.8114
535.09          14.794
535.53        14.74282
535.97        14.67299
536.41        14.64633
536.85          14.668
537.28        14.70644
537.72        14.74769
538.16        14.78065
538.60         14.7989
539.04        14.80637
539.47        14.80833
539.91          14.822
540.35        14.84998
540.79        14.89107
541.22        14.94057
541.66         14.9969
542.10        15.05642
542.54        15.11837
542.97        15.18876
543.41         15.2821
543.85        15.39734
544.29        15.53293
544.72        15.66477
545.16        15.76799
545.60        15.83719
546.04        15.88266
546.47        15.94048
546.91        16.06612
547.35         16.2644
547.79        16.51215
548.22        16.76145
548.66         16.9367
549.10        17.04329
549.53         17.0995
549.97        17.13712
550.41         17.1682
550.84        17.22778
551.28         17.3486
551.72        17.51099
552.15        17.69794
552.59        17.92016
553.03        17.91719
553.46        18.21529
553.90        18.32599
554.34        18.40424
554.77        18.45526
555.21        18.50136
555.65        18.56428
556.08        18.64413
556.52        18.72638
556.96        18.80114
557.39        18.90371
557.83        19.01664
558.27        19.03452
558.70        18.98124
559.14        19.00864
559.57          19.112
560.01        19.19251
560.45        19.24234
560.88        19.30837
561.32        19.39835
561.75          19.485
562.19        19.57035
562.63        19.63811
563.06        19.69246
563.50        19.76958
563.93        19.84628
564.37        19.91503
564.80        19.97762
565.24        19.98286
565.68        19.90814
566.11        20.16181
566.55        20.02772
566.98        20.09211
567.42         20.1767
567.85        20.32201
568.29          20.533
568.72        20.80641
569.16        21.12248
569.60        21.33662
570.03        21.51215
570.47        21.63498
570.90        21.74232
571.34        21.76166
571.77        21.93375
572.21        22.06668
572.64        22.13173
573.08        22.34933
573.51        22.22759
573.95         22.3682
574.38        22.61101
574.82         22.8306
