SpectraSmart Spectrum 2.9.0.0
--------- Device Information -----------
Spectrum Name :  反射率_0
Saving Time :  2024/04/26 22:54:36
Spectro-Module Model Name : SE2030-DUVN
Spectro-Module Serial Number : OS361AC55029948
Wavelength Start : 200
Wavelength End : 1025
Wavelength Unit : Wavelength(nm)
Spectrum Unit : Reflectance(%)
-----------Spectrum Setting ------------
Integration Time : 20ms
Average : 10
Boxcar : 0
Background removal :  enabled
linearity correction :  enabled
SC :  disabled
Intensity correction :  disabled
DWT denoise :  enabled
savitzky-golay :  disabled
FFT :  disabled
Running average :  disabled
Kalman :  disabled
High pass :  disabled
---------------BEGIN--------------------
Wavelength(nm)             Reflectance(%)
200.29               0
200.75        52.59177
201.21        51.80482
201.67        51.83433
202.13        52.78833
202.58        54.66299
203.04        57.92387
203.50         63.1012
203.96        69.90771
204.42         77.2874
204.88         84.5979
205.34        89.34914
205.80        88.70746
206.26        82.98151
206.72        73.87735
207.18        65.39462
207.64        60.33932
208.10        58.54454
208.55        60.20386
209.01        63.78795
209.47        64.31774
209.93        60.53506
210.39        55.84616
210.85        53.91816
211.31        57.56406
211.77        68.82115
212.23        95.38157
212.69        160.8685
213.14        264.3517
213.60        249.2297
214.06        168.4236
214.52        116.7768
214.98        94.84257
215.44        86.78619
215.90        83.37363
216.36        83.71619
216.81        88.09571
217.27        96.99275
217.73        114.6183
218.19        137.7993
218.65        143.8806
219.11        126.9615
219.57        102.9156
220.02        87.31258
220.48         88.1161
220.94        104.1005
221.40        136.8116
221.86        186.6167
222.32        224.4829
222.77        221.2601
223.23        194.7684
223.69        165.0107
224.15        143.9667
224.61        131.3639
225.06        122.3581
225.52        117.8964
225.98         118.626
226.44        123.6536
226.90        132.5401
227.36         142.251
227.81        147.0388
228.27             146
228.73        140.9108
229.19         135.475
229.65        134.1188
230.10        137.0736
230.56        142.9352
231.02        148.7826
231.48        150.1239
231.93         146.319
232.39        140.0335
232.85        133.9975
233.31        131.7154
233.77        133.4846
234.22        137.8144
234.68        143.0517
235.14        146.6796
235.60        147.7946
236.05        147.2925
236.51        145.0967
236.97        141.7191
237.43        137.6986
237.88        132.9932
238.34        128.4219
238.80        125.7173
239.26        125.3917
239.71        128.2881
240.17        133.3107
240.63        137.8811
241.08        140.4165
241.54        139.9889
242.00        138.8419
242.46        142.0302
242.91        153.3816
243.37        174.1339
243.83        204.7304
244.28        230.4323
244.74        228.7344
245.20        200.2982
245.66        165.3286
246.11        140.7204
246.57        126.8934
247.03         118.698
247.48        112.1396
247.94        103.0772
248.40        93.47063
248.85        86.13213
249.31        81.65958
249.77        79.06778
250.22        77.45496
250.68        75.88265
251.14        75.27788
251.59        78.07904
252.05        84.63828
252.51        93.72523
252.96        100.1486
253.42        100.2191
253.88        95.38393
254.33        87.66901
254.79        82.97873
255.25        86.37352
255.70         96.9483
256.16        112.2155
256.62        125.7315
257.07        127.6339
257.53        120.3658
257.99        110.3553
258.44        102.1135
258.90        99.57916
259.35        101.1322
259.81        105.1514
260.27        109.7502
260.72         112.707
261.18        113.9446
261.63        113.7067
262.09        113.2101
262.55        112.8217
263.00        112.4477
263.46        112.2645
263.91           111.5
264.37        109.8935
264.83        107.5051
265.28        104.6372
265.74        102.3223
266.19        101.2626
266.65         101.608
267.11         102.814
267.56        104.2352
268.02        104.8669
268.47        104.3872
268.93        103.2111
269.38         101.493
269.84        99.61399
270.30         97.7451
270.75         95.7607
271.21        94.04427
271.66        93.06533
272.12        92.85758
272.57        93.20187
273.03        93.56351
273.48        92.99496
273.94        91.41931
274.39        89.11301
274.85        86.65472
275.31        84.56448
275.76        82.95637
276.22          81.754
276.67        80.79899
277.13        80.12118
277.58        79.52448
278.04        79.04697
278.49        78.47425
278.95        77.71653
279.40        76.64655
279.86        75.47138
280.31        74.06915
280.77        72.53489
281.22        70.85217
281.68        69.18513
282.13        67.69601
282.59        66.82016
283.04        66.48077
283.50        66.57506
283.95        66.73233
284.41        66.42513
284.86        65.51678
285.32        64.24536
285.77        62.84241
286.22        61.76337
286.68        61.09555
287.13        60.62729
287.59        60.23691
288.04        59.65015
288.50        58.86151
288.95        57.93194
289.41        56.98567
289.86        56.05192
290.32         55.2257
290.77        54.44305
291.22        53.75117
291.68        53.19822
292.13         52.7512
292.59        52.41298
293.04        52.14137
293.50        51.90786
293.95        51.68184
294.40        51.48238
294.86        51.28685
295.31         51.0433
295.77         50.7699
296.22        50.46882
296.68        50.23178
297.13        50.16734
297.58        50.30119
298.04        50.59641
298.49        50.94432
298.95         51.2029
299.40        51.31328
299.85        51.30873
300.31        51.26585
300.76        51.28008
301.21        51.38016
301.67        51.55078
302.12        51.68415
302.58        51.70319
303.03        51.56564
303.48        51.34527
303.94        51.15676
304.39        51.10947
304.84        51.23699
305.30        51.49225
305.75        51.75813
306.20        51.93134
306.66        51.99387
307.11        51.96644
307.57        51.88474
308.02        51.73183
308.47        51.54014
308.93        51.31281
309.38        51.10114
309.83        51.05278
310.29        51.18107
310.74        51.44061
311.19        51.68558
311.65        51.66837
312.10        51.33567
312.55        50.76647
313.00        50.15365
313.46        49.78596
313.91        49.70714
314.36        49.84381
314.82        50.02068
315.27        49.96736
315.72        49.61415
316.18        49.06648
316.63        48.47783
317.08         48.1027
317.53        47.99744
317.99        48.06965
318.44        48.19096
318.89        48.14272
319.35        47.86547
319.80        47.43235
320.25        46.94981
320.70        46.58362
321.16        46.37919
321.61         46.3015
322.06         46.2685
322.51        46.15396
322.97        45.91843
323.42         45.6074
323.87        45.30972
324.32         45.1731
324.78        45.20926
325.23         45.3931
325.68        45.57027
326.13        45.49789
326.59        45.11983
327.04        44.52881
327.49        43.89383
327.94        43.48634
328.39        43.36964
328.85        43.44767
329.30        43.62917
329.75        43.65539
330.20        43.45145
330.66        43.09713
331.11        42.71458
331.56        42.45932
332.01        42.38322
332.46        42.42298
332.92        42.51601
333.37         42.6296
333.82        42.70842
334.27        42.77637
334.72        42.81721
335.17         42.7968
335.63        42.71246
336.08        42.59516
336.53        42.47994
336.98        42.44857
337.43        42.52081
337.88        42.66243
338.34         42.8492
338.79        43.08104
339.24        43.31341
339.69        43.54431
340.14        43.69137
340.59        43.62831
341.05        43.35752
341.50        42.92426
341.95        42.46759
342.40        42.19953
342.85        42.17556
343.30        42.34111
343.75        42.60598
344.20        42.81605
344.66        42.91935
345.11        42.95012
345.56        42.94555
346.01        42.96598
346.46        43.03211
346.91        43.12423
347.36        43.20322
347.81        43.22071
348.26        43.16847
348.72        43.05927
349.17        42.96115
349.62        42.99558
350.07        43.17633
350.52        43.46941
350.97        43.73104
351.42         43.7313
351.87        43.43415
352.32        42.92112
352.77        42.38362
353.22        42.10283
353.67        42.13414
354.13        42.39117
354.58        42.70946
355.03        42.80851
355.48        42.61389
355.93        42.21931
356.38        41.77362
356.83        41.49641
357.28        41.43603
357.73        41.51098
358.18        41.61105
358.63        41.56655
359.08        41.32994
359.53        40.96186
359.98        40.54138
360.43        40.17667
360.88        39.89622
361.33        39.66776
361.78         39.4431
362.23        39.15128
362.68        38.78585
363.13        38.38544
363.58        38.00937
364.03        37.74034
364.48        37.59115
364.93        37.52448
365.38        37.49031
365.83        37.41125
366.28        37.26036
366.73         37.0596
367.18        36.81926
367.63        36.55659
368.08        36.28381
368.53        35.99621
368.98        35.71336
369.43        35.46786
369.88        35.26567
370.33        35.10122
370.78        34.95414
371.23         34.7872
371.68        34.59053
372.13        34.37524
372.58        34.15402
373.03        33.94711
373.48        33.75917
373.93         33.5793
374.38        33.40322
374.83        33.22813
375.28        33.04977
375.72        32.86041
376.17        32.67373
376.62        32.46788
377.07         32.2466
377.52        32.02606
377.97        31.81407
378.42        31.62813
378.87        31.47526
379.32        31.33876
379.77        31.24349
380.22        31.22567
380.67        31.27529
381.11        31.38646
381.56        31.44743
382.01        31.30769
382.46         30.9515
382.91        30.44853
383.36        29.93926
383.81        29.61364
384.26          29.505
384.71        29.55823
385.15        29.68394
385.60        29.72842
386.05        29.64622
386.50        29.48436
386.95        29.29925
387.40        29.17864
387.85        29.13974
388.29         29.1213
388.74        29.11995
389.19        29.06676
389.64         28.9487
390.09        28.78732
390.54        28.60082
390.98        28.41173
391.43        28.25341
391.88        28.11851
392.33        28.01006
392.78        27.93066
393.23        27.87649
393.67        27.83205
394.12        27.81588
394.57        27.79949
395.02        27.77415
395.47        27.73205
395.91        27.67698
396.36        27.60584
396.81        27.53469
397.26        27.46835
397.71        27.39374
398.15        27.30801
398.60        27.24587
399.05        27.10131
399.50        26.92542
399.95          26.988
400.39        27.20684
400.84        27.08766
401.29        26.67327
401.74        26.45756
402.18        26.47653
402.63        26.44297
403.08        26.35948
403.53        26.34783
403.97        26.40287
404.42        26.49317
404.87        26.56881
405.32         26.5487
405.76        26.41576
406.21        26.20772
406.66        25.99297
407.11        25.88098
407.55        25.90447
408.00        26.02497
408.45        26.17795
408.90         26.2335
409.34        26.15378
409.79        25.98379
410.24        25.80279
410.68        25.71604
411.13        25.75203
411.58        25.87632
412.03        26.01682
412.47        26.05242
412.92        25.94465
413.37        25.74565
413.81        25.53592
414.26        25.45264
414.71        25.51014
415.15        25.67353
415.60         25.8591
416.05        25.94541
416.49        25.89834
416.94        25.76031
417.39        25.59184
417.83        25.48155
418.28         25.4557
418.73         25.4784
419.17        25.54003
419.62        25.62733
420.07        25.72501
420.51        25.83236
420.96        25.91643
421.41        25.91785
421.85        25.82346
422.30        25.64319
422.74        25.42678
423.19        25.36282
423.64        25.43059
424.08        25.45157
424.53        25.39799
424.98        25.41557
425.42        25.51293
425.87         25.5338
426.31        25.49596
426.76        25.61194
427.21        25.81243
427.65        25.72584
428.10         25.4362
428.54        25.34627
428.99        25.48789
429.44        25.73372
429.88        25.97115
430.33        25.92147
430.77        25.65032
431.22        25.66574
431.66        25.94552
432.11        26.01209
432.56        25.85607
433.00         25.8434
433.45        25.90358
433.89        25.69317
434.34        25.36349
434.78        25.04558
435.23        25.48516
435.67        25.62673
436.12        25.62724
436.57        25.52359
437.01        25.36508
437.46        25.28833
437.90         25.3066
438.35        25.30354
438.79        25.26583
439.24         25.2625
439.68        25.29244
440.13        25.33965
440.57        25.39136
441.02        25.45096
441.46        25.50901
441.91        25.49491
442.35        25.42395
442.80        25.57531
443.24        25.84136
443.69        25.77724
444.13        25.43793
444.58        25.31313
445.02         25.4233
445.47        25.50773
445.91          25.527
446.36        25.54362
446.80        25.54218
447.24        25.51342
447.69        25.47403
448.13        25.43831
448.58        25.41941
449.02        25.41062
449.47        25.41677
449.91        25.43066
450.36        25.45644
450.80         25.4875
451.25         25.5276
451.69        25.56395
452.13        25.59554
452.58        25.61742
453.02        25.62366
453.47        25.61046
453.91        25.57834
454.36        25.53613
454.80        25.47914
455.24         25.3996
455.69        25.30943
456.13        25.19765
456.58        25.11415
457.02        25.09248
457.46        25.14635
457.91        25.26272
458.35        25.37209
458.79        25.37359
459.24        25.27151
459.68        25.08513
460.13        24.91572
460.57         24.8546
461.01        24.93974
461.46        25.11857
461.90        25.34371
462.34        25.51659
462.79        25.59307
463.23         25.6059
463.68          25.558
464.12        25.47276
464.56        25.36264
465.01        25.25536
465.45        25.13258
465.89        25.03848
466.34        24.97944
466.78        24.94457
467.22         24.9466
467.67        24.97921
468.11        25.05136
468.55         25.1494
468.99        25.25002
469.44        25.31455
469.88        25.33414
470.32        25.31146
470.77        25.26907
471.21        25.25083
471.65        25.26473
472.10        25.30253
472.54        25.33545
472.98        25.32612
473.42        25.26981
473.87        25.19227
474.31         25.1083
474.75        25.06234
475.20        25.06929
475.64        25.10342
476.08        25.15591
476.52        25.20047
476.97        25.22737
477.41        25.25592
477.85        25.28913
478.29        25.29419
478.74        25.29291
479.18        25.35216
479.62        25.45341
480.06        25.52201
480.50        25.55692
480.95        25.57676
481.39        25.57256
481.83        25.75342
482.27        25.72713
482.72        25.88821
483.16          25.961
483.60         26.0162
484.04        25.96224
484.48        26.11076
484.93        26.46599
485.37        26.01024
485.81        25.69475
486.25        26.16063
486.69        26.07487
487.14        26.33701
487.58        26.97926
488.02        27.10074
488.46         26.3605
488.90        26.50579
489.34        26.60677
489.79        26.96218
490.23        27.15067
490.67        27.23957
491.11        27.22059
491.55        27.13553
491.99        27.05341
492.43        27.02932
492.88        27.08953
493.32        27.21791
493.76         27.3965
494.20         27.5848
494.64          27.768
495.08        27.97977
495.52        28.17481
495.96        28.26764
496.41        28.27549
496.85        28.23559
497.29         28.1846
497.73        28.42986
498.17        28.56654
498.61        28.74886
499.05        28.82916
499.49        28.89458
499.93        28.88595
500.37        29.03609
500.82        29.28676
501.26        29.43661
501.70        29.46624
502.14         29.4943
502.58        29.54883
503.02        29.61741
503.46        29.70671
503.90        29.81886
504.34        29.92893
504.78        29.99548
505.22        30.01134
505.66        29.99197
506.10        29.96632
506.54        29.98066
506.98        30.04691
507.42        30.14872
507.86        30.27065
508.30        30.38764
508.74        30.48719
509.18        30.57411
509.62        30.64308
510.06        30.68637
510.50         30.7051
510.94        30.70182
511.38          30.689
511.82        30.68733
512.26        30.70552
512.70        30.74344
513.14        30.79698
513.58        30.85737
514.02        30.91946
514.46        30.97999
514.90        31.04316
515.34         31.1162
515.78        31.19578
516.22        31.27701
516.66        31.33532
517.10        31.33308
517.54        31.26865
517.98        31.15927
518.42        31.04456
518.86        30.98792
519.30        31.00308
519.74        31.06688
520.18        31.15227
520.62        31.21459
521.06         31.2393
521.50        31.24439
521.93        31.22681
522.37        31.17121
522.81        31.08809
523.25        30.97905
523.69        30.88382
524.13        30.86606
524.57        30.93157
525.01        31.05669
525.45         31.1869
525.89        31.23158
526.32        31.16556
526.76        31.02734
527.20        30.85252
527.64        30.70163
528.08         30.5957
528.52        30.51479
528.96        30.46107
529.40        30.43744
529.83        30.43742
530.27        30.46723
530.71        30.49338
531.15        30.46311
531.59         30.3674
532.03        30.21604
532.46         30.0514
532.90        29.96408
533.34        29.96501
533.78         30.0127
534.22        30.05411
534.66        30.04334
535.09        29.94524
535.53        29.72252
535.97        29.44649
536.41        29.30409
536.85        29.32374
537.28        29.42125
537.72        29.55793
538.16        29.69322
538.60        29.80037
539.04        29.89107
539.47        29.95183
539.91        29.98085
540.35        29.97826
540.79         29.9485
541.22         29.9179
541.66        29.94175
542.10        30.02846
542.54        30.16404
542.97        30.32387
543.41        30.47933
543.85        30.61425
544.29        30.73971
544.72        30.84914
545.16        30.95457
545.60        31.05334
546.04        31.14298
546.47        31.24049
546.91        31.36913
547.35         31.5301
547.79         31.7224
548.22        31.91383
548.66        32.04625
549.10        32.14933
549.53        32.22301
549.97        32.30925
550.41        32.40337
550.84        32.54982
551.28         32.8159
551.72        33.12302
552.15        33.37317
552.59        33.58388
553.03        33.29453
553.46        33.55753
553.90        33.57857
554.34        33.67054
554.77        33.80891
555.21        33.98247
555.65        34.14995
556.08        34.28197
556.52        34.36433
556.96        34.40737
557.39        34.52891
557.83        34.70726
558.27        34.72466
558.70        34.60866
559.14        34.61884
559.57        34.74365
560.01         34.8155
560.45        34.83217
560.88        34.89742
561.32        35.02888
561.75        35.15644
562.19        35.28318
562.63        35.40842
563.06        35.51941
563.50        35.61925
563.93        35.67305
564.37        35.71906
564.80        35.77484
565.24         35.7531
565.68        35.59852
566.11        36.00223
566.55        35.67991
566.98        35.68678
567.42        35.71306
567.85        35.86927
568.29        36.14974
568.72        36.47405
569.16        36.82902
569.60        37.03894
570.03        37.16859
570.47        37.29232
570.90        37.48628
571.34        37.24068
571.77        37.53154
572.21        37.88662
572.64        37.79771
573.08        38.19427
573.51        38.05974
573.95        38.12121
574.38        38.24622
574.82         38.3859
