SpectraSmart Spectrum 2.9.0.0
--------- Device Information -----------
Spectrum Name :  反射率_0
Saving Time :  2024/04/26 22:58:12
Spectro-Module Model Name : SE2030-DUVN
Spectro-Module Serial Number : OS361AC55029948
Wavelength Start : 200
Wavelength End : 1025
Wavelength Unit : Wavelength(nm)
Spectrum Unit : Reflectance(%)
-----------Spectrum Setting ------------
Integration Time : 20ms
Average : 10
Boxcar : 0
Background removal :  enabled
linearity correction :  enabled
SC :  disabled
Intensity correction :  disabled
DWT denoise :  enabled
savitzky-golay :  disabled
FFT :  disabled
Running average :  disabled
Kalman :  disabled
High pass :  disabled
---------------BEGIN--------------------
Wavelength(nm)             Reflectance(%)
200.29               0
200.75        25.05119
201.21        22.59156
201.67        20.86145
202.13        20.88148
202.58        22.64296
203.04        26.62458
203.50         32.2115
203.96        36.28717
204.42        36.55568
204.88         32.8418
205.34        27.69874
205.80        26.60773
206.26        30.39304
206.72        36.33845
207.18        41.19578
207.64        42.25893
208.10        39.28729
208.55         32.6825
209.01        22.31716
209.47        14.73801
209.93        15.24063
210.39         20.2918
210.85        25.53405
211.31        29.25531
211.77        32.50636
212.23        37.67724
212.69         51.3213
213.14        85.78458
213.60         104.685
214.06        95.41593
214.52        83.41653
214.98        76.01295
215.44        70.83248
215.90        65.24361
216.36        60.01454
216.81        56.67972
217.27        56.04757
217.73         59.1807
218.19        64.97227
218.65        66.43971
219.11        61.80947
219.57        55.47033
220.02        52.55573
220.48        56.72524
220.94        68.32136
221.40        89.35067
221.86        119.2098
222.32        138.4181
222.77         130.503
223.23        108.6912
223.69        87.96318
224.15        76.90386
224.61        73.60384
225.06        73.42999
225.52        75.07417
225.98        77.06643
226.44        78.99654
226.90         81.6861
227.36        83.97185
227.81        83.61556
228.27        80.84175
228.73        76.47071
229.19        72.95486
229.65        73.24677
230.10        77.27639
230.56        83.90044
231.02        90.67503
231.48        93.63443
231.93        91.99239
232.39        87.81776
232.85        83.06132
233.31        80.23431
233.77        79.73421
234.22        80.64236
234.68        82.24481
235.14        83.58781
235.60        84.27536
236.05        84.76703
236.51        84.83158
236.97        84.12347
237.43        82.62334
237.88        80.39041
238.34        77.92394
238.80        76.40884
239.26        76.26559
239.71        77.93446
240.17        80.85651
240.63        83.85478
241.08        86.20122
241.54        87.28692
242.00        88.59745
242.46        93.52612
242.91        104.8499
243.37        124.0899
243.83        150.9788
244.28        170.9336
244.74        164.3938
245.20        133.9146
245.66        99.42806
246.11         76.5015
246.57        65.03226
247.03        59.88655
247.48        58.69231
247.94        58.15615
248.40        57.29254
248.85        57.04465
249.31        56.88544
249.77        55.60366
250.22        52.87341
250.68        48.19565
251.14        42.60054
251.59        40.63581
252.05        44.75575
252.51        52.85545
252.96        60.36622
253.42        63.59264
253.88        63.03992
254.33        60.26886
254.79        58.60352
255.25         60.6949
255.70        66.28645
256.16        74.25749
256.62        81.36223
257.07        82.61817
257.53        79.26866
257.99        74.35297
258.44        70.29936
258.90         69.5049
259.35        70.90703
259.81        73.67901
260.27        76.37025
260.72        77.25696
261.18        76.54507
261.63        74.71368
262.09        73.02859
262.55        72.18795
263.00        72.06947
263.46        72.50922
263.91        72.71278
264.37        72.11307
264.83        70.67222
265.28        68.70364
265.74        67.00661
266.19        66.17793
266.65         66.3466
267.11        67.10841
267.56        67.97041
268.02        68.16572
268.47        67.49216
268.93         66.2823
269.38        64.77213
269.84        63.40637
270.30        62.31071
270.75        61.30444
271.21        60.49635
271.66        59.98089
272.12        59.72298
272.57          59.665
273.03        59.49194
273.48        58.65088
273.94        57.16594
274.39        55.23207
274.85        53.33342
275.31        51.95379
275.76        51.15265
276.22        50.78633
276.67        50.63503
277.13        50.52945
277.58        50.29888
278.04        50.03619
278.49        49.59099
278.95        48.90364
279.40        47.92643
279.86        46.79879
280.31        45.59359
280.77        44.58529
281.22        43.76792
281.68        43.15791
282.13        42.65469
282.59        42.24112
283.04        41.83634
283.50        41.47725
283.95        41.11537
284.41        40.71291
284.86        40.25685
285.32        39.78608
285.77        39.30748
286.22        38.91567
286.68        38.62274
287.13        38.36462
287.59        38.12209
288.04        37.80335
288.50        37.42543
288.95        36.97999
289.41        36.53321
289.86        36.09108
290.32        35.70886
290.77        35.36715
291.22        35.07426
291.68        34.82053
292.13        34.59526
292.59        34.42455
293.04        34.34919
293.50         34.4602
293.95        34.74965
294.40        35.18137
294.86        35.66956
295.31        36.06761
295.77        36.35289
296.22        36.56335
296.68        36.76567
297.13        37.04584
297.58        37.44025
298.04        37.91507
298.49        38.46147
298.95        39.08907
299.40        39.76366
299.85        40.47272
300.31        41.15099
300.76        41.68057
301.21        42.04585
301.67        42.29575
302.12        42.46407
302.58        42.67955
303.03        42.94404
303.48         43.2476
303.94         43.5841
304.39        43.89722
304.84        44.18478
305.30        44.46988
305.75        44.72093
306.20        44.94917
306.66        45.16972
307.11         45.3686
307.57        45.54643
308.02        45.64656
308.47        45.68038
308.93        45.65984
309.38        45.64255
309.83          45.778
310.29        46.07581
310.74        46.48028
311.19        46.82837
311.65        46.85015
312.10        46.49289
312.55        45.85288
313.00         45.1451
313.46        44.68822
313.91        44.54151
314.36        44.62873
314.82        44.78344
315.27        44.74401
315.72        44.43861
316.18        43.96608
316.63        43.46047
317.08        43.14348
317.53        43.06143
317.99        43.12712
318.44         43.2198
318.89        43.13829
319.35        42.83023
319.80        42.36432
320.25        41.84705
320.70        41.44357
321.16        41.19965
321.61         41.0809
322.06        41.00577
322.51        40.84779
322.97        40.56508
323.42        40.19695
323.87        39.82837
324.32        39.60049
324.78        39.52463
325.23         39.5775
325.68        39.60629
326.13         39.3694
326.59        38.82522
327.04        38.08188
327.49        37.32922
327.94        36.86207
328.39        36.74799
328.85        36.88121
329.30        37.16249
329.75        37.33174
330.20        37.29082
330.66        37.09919
331.11        36.82531
331.56        36.55228
332.01        36.31664
332.46         36.0787
332.92        35.81931
333.37        35.57998
333.82        35.35076
334.27         35.1479
334.72        34.97968
335.17        34.84034
335.63        34.72507
336.08        34.65784
336.53        34.61415
336.98        34.56761
337.43        34.50924
337.88        34.42633
338.34        34.35336
338.79        34.39224
339.24        34.53502
339.69        34.74764
340.14        34.91501
340.59         34.8544
341.05        34.54885
341.50        34.07037
341.95        33.55853
342.40        33.22351
342.85        33.12212
343.30        33.18797
343.75        33.35899
344.20        33.53069
344.66        33.65862
345.11        33.77006
345.56        33.83816
346.01        33.82167
346.46        33.72424
346.91        33.55167
347.36        33.36492
347.81        33.27044
348.26         33.2888
348.72        33.39128
349.17         33.5191
349.62        33.58801
350.07        33.57426
350.52        33.51106
350.97        33.41217
351.42        33.30135
351.87         33.1939
352.32        33.07691
352.77        32.98059
353.22        32.95116
353.67        32.98773
354.13        33.07726
354.58        33.15654
355.03        33.11838
355.48        32.94125
355.93        32.66024
356.38        32.35386
356.83        32.13998
357.28          32.043
357.73        32.02488
358.18        32.02438
358.63        31.94279
359.08        31.75407
359.53        31.49183
359.98        31.19904
360.43        30.93632
360.88        30.71515
361.33        30.50989
361.78        30.29634
362.23        30.03994
362.68        29.74043
363.13         29.4283
363.58        29.11707
364.03        28.82039
364.48        28.54627
364.93        28.28383
365.38        28.06691
365.83        27.95179
366.28        27.93804
366.73        28.00406
367.18        28.06314
367.63        27.97966
368.08        27.72877
368.53        27.35148
368.98        26.94303
369.43        26.65837
369.88         26.5375
370.33        26.53582
370.78        26.58078
371.23        26.54958
371.68        26.40595
372.13        26.19069
372.58        25.95322
373.03        25.76972
373.48        25.65939
373.93        25.58807
374.38        25.52504
374.83        25.42802
375.28        25.28274
375.72        25.10139
376.17        24.90845
376.62        24.70462
377.07        24.50045
377.52        24.30131
377.97        24.11828
378.42        23.97499
378.87        23.87446
379.32        23.79879
379.77        23.75252
380.22        23.73977
380.67        23.75015
381.11        23.79165
381.56        23.78835
382.01        23.64125
382.46        23.35115
382.91        22.96934
383.36        22.61548
383.81        22.45539
384.26        22.50874
384.71         22.7141
385.15         22.9744
385.60        23.12469
386.05        23.11011
386.50        22.98316
386.95         22.7798
387.40        22.55988
387.85        22.35733
388.29        22.14421
388.74        21.97579
389.19        21.87797
389.64        21.84699
390.09        21.87063
390.54        21.90911
390.98         21.8853
391.43        21.79638
391.88        21.66736
392.33        21.52331
392.78        21.40141
393.23        21.31367
393.67        21.23472
394.12        21.19468
394.57        21.19808
395.02        21.23864
395.47        21.30623
395.91        21.37074
396.36        21.36676
396.81        21.29486
397.26        21.18212
397.71        21.05508
398.15        20.96714
398.60        20.95576
399.05        20.91412
399.50        20.86609
399.95        21.00281
400.39        21.25202
400.84        21.23235
401.29        20.95716
401.74        20.78211
402.18        20.73128
402.63        20.59036
403.08        20.39344
403.53        20.28584
403.97        20.28062
404.42        20.34618
404.87        20.43022
405.32        20.44344
405.76        20.36311
406.21        20.22373
406.66        20.08552
407.11        20.04612
407.55        20.12907
408.00        20.29201
408.45        20.46488
408.90        20.51464
409.34        20.40567
409.79        20.19079
410.24        19.94877
410.68         19.7819
411.13        19.72234
411.58        19.73924
412.03        19.79548
412.47        19.82901
412.92        19.81056
413.37        19.76524
413.81        19.71697
414.26          19.716
414.71         19.7637
415.15        19.84975
415.60        19.92992
416.05        19.94993
416.49        19.89843
416.94         19.7918
417.39        19.68143
417.83         19.6435
418.28        19.69261
418.73        19.80168
419.17        19.92537
419.62        19.99022
420.07        19.97729
420.51        19.90825
420.96        19.81531
421.41        19.74337
421.85        19.69943
422.30         19.6599
422.74        19.61324
423.19        19.63303
423.64        19.68493
424.08        19.65298
424.53        19.54043
424.98        19.50251
425.42        19.56148
425.87        19.58391
426.31        19.56942
426.76        19.66239
427.21        19.80188
427.65        19.70737
428.10        19.45783
428.54        19.38045
428.99        19.50287
429.44        19.72462
429.88        19.93311
430.33         19.8762
430.77        19.60453
431.22        19.52006
431.66        19.64725
432.11        19.69927
432.56        19.69172
433.00        19.84938
433.45        20.06052
433.89        20.04725
434.34        19.89321
434.78         19.3743
435.23        19.64491
435.67        19.63573
436.12        19.64123
436.57         19.6112
437.01         19.5561
437.46        19.54301
437.90        19.56032
438.35        19.53886
438.79        19.47624
439.24        19.43395
439.68        19.41617
440.13        19.40453
440.57        19.39694
441.02        19.41224
441.46        19.44683
441.91        19.44427
442.35        19.40318
442.80        19.51536
443.24        19.69584
443.69        19.61316
444.13        19.32282
444.58        19.21924
445.02        19.32286
445.47        19.42823
445.91        19.49454
446.36        19.55392
446.80        19.58752
447.24        19.58807
447.69        19.57145
448.13        19.55405
448.58        19.54623
449.02        19.54125
449.47        19.53271
449.91        19.50056
450.36        19.44969
450.80        19.38541
451.25        19.33225
451.69        19.31306
452.13        19.33341
452.58        19.37934
453.02        19.42889
453.47        19.45014
453.91        19.43395
454.36        19.39483
454.80        19.33496
455.24        19.25791
455.69         19.1769
456.13        19.07892
456.58        19.00417
457.02        18.98252
457.46        19.02428
457.91        19.11835
458.35        19.20735
458.79        19.20497
459.24        19.11386
459.68        18.95294
460.13        18.80356
460.57        18.74041
461.01        18.79432
461.46        18.92202
461.90        19.09085
462.34        19.22987
462.79        19.30591
463.23        19.34489
463.68        19.33713
464.12        19.28129
464.56        19.18341
465.01        19.06831
465.45        18.94282
465.89        18.86932
466.34        18.85535
466.78        18.88527
467.22        18.94068
467.67        18.96802
468.11        18.96337
468.55        18.93197
468.99        18.89672
469.44        18.89252
469.88        18.92807
470.32        18.98839
470.77         19.0512
471.21        19.08598
471.65        19.08266
472.10        19.05498
472.54        19.01626
472.98        18.99386
473.42        18.99573
473.87        19.01976
474.31        19.04534
474.75        19.05935
475.20        19.06306
475.64        19.05555
476.08        19.05358
476.52         19.0689
476.97         19.1033
477.41        19.16481
477.85        19.24644
478.29        19.28088
478.74        19.32159
479.18         19.3873
479.62        19.47681
480.06        19.53408
480.50        19.55948
480.95        19.55614
481.39        19.51974
481.83        19.63499
482.27         19.6155
482.72        19.69164
483.16        19.77986
483.60        19.83499
484.04        19.83751
484.48        19.93602
484.93        20.16255
485.37        20.03123
485.81        20.18817
486.25        20.52035
486.69        20.02487
487.14        20.35432
487.58        21.26784
488.02        20.89207
488.46        20.74076
488.90        20.77681
489.34        20.74823
489.79        20.96277
490.23        21.10543
490.67        21.31134
491.11        21.49658
491.55        21.49799
491.99        21.37495
492.43        21.37175
492.88         21.5173
493.32        21.67025
493.76        21.79929
494.20        21.93673
494.64        22.08229
495.08         22.1843
495.52        22.26215
495.96        22.49329
496.41        22.83278
496.85        22.92002
497.29        22.79103
497.73        23.04104
498.17        23.33044
498.61        23.51362
499.05          23.475
499.49         23.4724
499.93        23.47323
500.37        23.59077
500.82        23.78708
501.26        23.93625
501.70        24.02249
502.14        24.13596
502.58        24.27718
503.02        24.39524
503.46        24.48618
503.90        24.56303
504.34        24.62527
504.78        24.67297
505.22        24.70997
505.66        24.73803
506.10         24.7671
506.54        24.81362
506.98        24.88159
507.42        24.96669
507.86        25.06397
508.30        25.16339
508.74        25.25967
509.18        25.35433
509.62        25.44095
510.06         25.5111
510.50         25.5633
510.94        25.59696
511.38        25.62436
511.82        25.66621
512.26        25.72664
512.70        25.80172
513.14        25.87341
513.58         25.9116
514.02        25.91114
514.46        25.88191
514.90        25.84866
515.34        25.85096
515.78        25.89697
516.22        25.97318
516.66        26.05439
517.10        26.10005
517.54        26.10021
517.98         26.0692
518.42        26.02456
518.86        25.99447
519.30        25.98722
519.74        25.99139
520.18        26.00257
520.62        26.01405
521.06        26.02262
521.50        26.03452
521.93        26.04166
522.37        26.02072
522.81        25.97322
523.25        25.90175
523.69         25.8318
524.13        25.80393
524.57        25.82253
525.01        25.87363
525.45        25.92054
525.89        25.90318
526.32        25.80813
526.76         25.6649
527.20         25.5082
527.64        25.39502
528.08        25.33949
528.52        25.31927
528.96        25.32052
529.40        25.32143
529.83        25.31058
530.27        25.29964
530.71        25.26991
531.15        25.19326
531.59        25.07086
532.03         24.9105
532.46        24.75055
532.90        24.67043
533.34        24.67852
533.78        24.73716
534.22        24.80061
534.66        24.82722
535.09        24.78333
535.53        24.63657
535.97        24.43302
536.41        24.30865
536.85        24.28658
537.28        24.30524
537.72        24.35353
538.16        24.43209
538.60         24.5273
539.04        24.63768
539.47        24.73826
539.91        24.80509
540.35        24.83011
540.79         24.8235
541.22        24.80502
541.66        24.81807
542.10         24.8711
542.54        24.95181
542.97        25.05176
543.41        25.16662
543.85        25.28804
544.29        25.42386
544.72        25.55499
545.16        25.66809
545.60        25.75917
546.04        25.83611
546.47        25.93199
546.91        26.09702
547.35        26.33365
547.79        26.62053
548.22        26.91261
548.66         27.1363
549.10        27.30815
549.53        27.43879
549.97         27.5518
550.41        27.62379
550.84        27.69721
551.28        27.83731
551.72        28.02282
552.15        28.24259
552.59        28.52283
553.03        28.44768
553.46        28.85738
553.90        28.98288
554.34        29.07133
554.77        29.13058
555.21        29.19553
555.65        29.29849
556.08        29.43609
556.52         29.5825
556.96        29.71301
557.39        29.87062
557.83        30.02536
558.27        30.01423
558.70        29.88484
559.14        29.89316
559.57        30.03707
560.01        30.15688
560.45        30.23456
560.88        30.33872
561.32         30.4779
561.75        30.59802
562.19        30.70657
562.63        30.81057
563.06        30.90475
563.50         30.9888
563.93        31.03331
564.37        31.08597
564.80        31.15683
565.24        31.14005
565.68        31.00741
566.11        31.41048
566.55        31.22973
566.98        31.37353
567.42        31.53376
567.85        31.72491
568.29         31.9437
568.72         32.2068
569.16        32.54177
569.60         32.7225
570.03         32.8465
570.47        33.06797
570.90        33.45169
571.34        33.03587
571.77         33.4531
572.21        33.60067
572.64        33.57452
573.08        33.76383
573.51        33.88223
573.95        34.11345
574.38        34.34564
574.82        34.70502
