SpectraSmart Spectrum 2.9.0.0
--------- Device Information -----------
Spectrum Name :  反射率_0
Saving Time :  2024/04/26 23:01:51
Spectro-Module Model Name : SE2030-DUVN
Spectro-Module Serial Number : OS361AC55029948
Wavelength Start : 200
Wavelength End : 1025
Wavelength Unit : Wavelength(nm)
Spectrum Unit : Reflectance(%)
-----------Spectrum Setting ------------
Integration Time : 20ms
Average : 10
Boxcar : 0
Background removal :  enabled
linearity correction :  enabled
SC :  disabled
Intensity correction :  disabled
DWT denoise :  enabled
savitzky-golay :  disabled
FFT :  disabled
Running average :  disabled
Kalman :  disabled
High pass :  disabled
---------------BEGIN--------------------
Wavelength(nm)             Reflectance(%)
200.29               0
200.75        36.19502
201.21        37.88261
201.67        39.01299
202.13        38.95386
202.58        37.70921
203.04        35.54547
203.50        33.12361
203.96        32.69389
204.42         35.6675
204.88         41.4538
205.34        48.40235
205.80        53.30663
206.26        54.71139
206.72        53.32228
207.18        50.25649
207.64        46.11493
208.10        40.70234
208.55        33.28909
209.01        23.25207
209.47         15.9492
209.93        16.13503
210.39        20.97338
210.85        26.82714
211.31        32.88817
211.77        41.23741
212.23        57.41121
212.69        96.43225
213.14        165.3326
213.60        169.4071
214.06        125.2663
214.52        92.83015
214.98        76.44948
215.44         67.2336
215.90        59.61519
216.36        53.67764
216.81        50.53144
217.27        50.75473
217.73        55.72321
218.19        64.03191
218.65        66.28543
219.11        59.94545
219.57         51.2489
220.02        46.23328
220.48        48.48301
220.94        57.88126
221.40        75.50514
221.86        101.4674
222.32        120.6449
222.77        117.9389
223.23        102.8576
223.69        86.19544
224.15        74.26401
224.61        66.86982
225.06        61.64149
225.52        58.76346
225.98        58.26984
226.44        59.71958
226.90        62.92847
227.36        66.81091
227.81        69.25037
228.27        69.78629
228.73        68.83435
229.19          67.558
229.65        67.41832
230.10        68.51447
230.56        70.44006
231.02        72.11461
231.48        71.91853
231.93        69.71062
232.39          66.608
232.85        63.81993
233.31        62.93291
233.77        64.01556
234.22        66.40852
234.68         69.1654
235.14        70.89837
235.60        71.13255
236.05        70.30762
236.51        68.52049
236.97        66.25027
237.43        63.90337
237.88        61.45341
238.34        59.31337
238.80        58.33817
239.26        58.79857
239.71        61.22598
240.17        65.09215
240.63        68.80901
241.08        71.36275
241.54        72.26221
242.00        72.81295
242.46        76.30276
242.91        85.36956
243.37        101.0617
243.83        124.6977
244.28        148.2729
244.74        156.3113
245.20        146.1569
245.66        127.6946
246.11        111.1168
246.57        98.15208
247.03        86.22165
247.48        74.94875
247.94        66.04012
248.40        61.13264
248.85        59.48278
249.31        59.61761
249.77        59.74054
250.22        59.34452
250.68         58.4027
251.14         57.4108
251.59        57.94639
252.05        60.62762
252.51        64.58773
252.96        67.00318
253.42        65.95786
253.88        62.14076
254.33        56.67828
254.79        52.91354
255.25        53.36865
255.70        57.60598
256.16        64.50282
256.62         70.6114
257.07        70.84364
257.53        66.56779
257.99        60.91075
258.44        56.49337
258.90        55.71082
259.35        57.42648
259.81        60.59554
260.27        63.54163
260.72        64.23827
261.18        62.91624
261.63        60.36285
262.09         57.9826
262.55         56.7075
263.00        56.43309
263.46        56.81719
263.91        57.10188
264.37        56.66711
264.83        55.45498
265.28        53.80115
265.74        52.33091
266.19        51.48654
266.65        51.38404
267.11        51.69403
267.56        52.13354
268.02         52.2745
268.47        51.97032
268.93        51.40372
269.38        50.58853
269.84          49.609
270.30        48.51968
270.75        47.28931
271.21        46.13736
271.66        45.33822
272.12         44.9327
272.57        44.81818
273.03        44.74266
273.48        44.26894
273.94        43.37032
274.39        42.17122
274.85        40.96928
275.31        40.02373
275.76        39.37038
276.22        38.94792
276.67        38.62519
277.13        38.32806
277.58         37.9604
278.04        37.58301
278.49        37.14226
278.95        36.68256
279.40        36.15992
279.86        35.64492
280.31        35.07162
280.77        34.47647
281.22        33.83038
281.68          33.199
282.13        32.62257
282.59         32.2519
283.04        32.05223
283.50         31.9993
283.95        31.95188
284.41        31.70867
284.86        31.23394
285.32        30.63203
285.77        30.02794
286.22        29.66072
286.68        29.56532
287.13        29.62517
287.59        29.73917
288.04        29.70245
288.50        29.49556
288.95        29.16478
289.41         28.7976
289.86        28.44948
290.32        28.18087
290.77        27.94562
291.22        27.77126
291.68        27.68772
292.13        27.68115
292.59        27.76546
293.04        27.89646
293.50         28.0218
293.95        28.11968
294.40        28.20621
294.86        28.32069
295.31        28.51865
295.77        28.81769
296.22          29.189
296.68        29.59727
297.13        29.97134
297.58        30.30245
298.04         30.6154
298.49        30.94174
298.95         31.3482
299.40        31.83582
299.85        32.37581
300.31         32.9294
300.76        33.42992
301.21        33.85863
301.67        34.24345
302.12        34.57524
302.58        34.89972
303.03        35.20305
303.48         35.4962
303.94        35.78613
304.39        36.04929
304.84        36.29665
305.30        36.54296
305.75        36.77858
306.20        37.04294
306.66        37.34278
307.11        37.64518
307.57        37.92184
308.02        38.08129
308.47        38.12215
308.93        38.07846
309.38        37.99417
309.83        37.98725
310.29        38.08273
310.74        38.24651
311.19        38.40942
311.65        38.45115
312.10          38.342
312.55        38.12201
313.00        37.88525
313.46        37.77036
313.91        37.79053
314.36        37.90904
314.82        38.02687
315.27        37.99701
315.72        37.77995
316.18        37.43319
316.63        37.04205
317.08        36.75448
317.53        36.60432
317.99        36.54129
318.44        36.49647
318.89        36.34587
319.35          36.061
319.80        35.68906
320.25        35.29637
320.70        34.98434
321.16        34.77952
321.61        34.66007
322.06        34.57758
322.51        34.45881
322.97         34.2739
323.42        34.04418
323.87        33.80905
324.32         33.6371
324.78        33.52982
325.23        33.48543
325.68        33.41521
326.13        33.18621
326.59        32.77889
327.04        32.25354
327.49        31.73693
327.94        31.42728
328.39        31.36284
328.85        31.47279
329.30        31.66022
329.75        31.68418
330.20        31.47296
330.66        31.09074
331.11        30.65619
331.56        30.33675
332.01         30.1826
332.46        30.13198
332.92        30.11505
333.37        30.06511
333.82        29.93517
334.27        29.76763
334.72        29.57478
335.17        29.36582
335.63        29.15509
336.08        28.95646
336.53        28.80003
336.98         28.7514
337.43        28.81741
337.88        28.96445
338.34        29.14976
338.79        29.32802
339.24        29.45353
339.69        29.53465
340.14        29.52104
340.59        29.34189
341.05        29.01409
341.50        28.56999
341.95         28.1294
342.40        27.87328
342.85        27.84233
343.30         27.9865
343.75        28.21413
344.20        28.36776
344.66         28.3974
345.11        28.34084
345.56        28.23341
346.01        28.13659
346.46        28.07263
346.91        28.01656
347.36        27.95965
347.81        27.89584
348.26         27.8245
348.72        27.75975
349.17        27.70249
349.62        27.66159
350.07        27.63744
350.52         27.6241
350.97        27.61174
351.42        27.58685
351.87        27.54428
352.32        27.48689
352.77        27.41815
353.22         27.3412
353.67        27.25855
354.13        27.17267
354.58        27.08403
355.03        26.99753
355.48        26.91634
355.93        26.83825
356.38        26.77251
356.83        26.73273
357.28         26.7124
357.73        26.69784
358.18        26.66051
358.63         26.5564
359.08        26.37989
359.53        26.15425
359.98        25.90014
360.43        25.64522
360.88        25.40297
361.33        25.16791
361.78        24.96316
362.23        24.82487
362.68        24.75612
363.13        24.74707
363.58        24.74872
364.03        24.68254
364.48        24.52831
364.93        24.30054
365.38        24.04884
365.83        23.85976
366.28        23.75499
366.73        23.71025
367.18        23.66966
367.63        23.54553
368.08        23.32059
368.53        23.02596
368.98        22.72411
369.43         22.5106
369.88        22.40927
370.33        22.39349
370.78        22.40477
371.23        22.34649
371.68        22.19489
372.13        21.98141
372.58        21.76684
373.03        21.64643
373.48        21.63979
373.93        21.70912
374.38        21.79535
374.83        21.80841
375.28        21.72148
375.72        21.55646
376.17        21.36569
376.62        21.19921
377.07        21.07712
377.52        20.99032
377.97        20.91756
378.42        20.82913
378.87         20.7187
379.32        20.59079
379.77        20.48667
380.22        20.46376
380.67        20.52349
381.11        20.65389
381.56        20.75577
382.01        20.68517
382.46        20.42319
382.91        20.03195
383.36        19.64221
383.81        19.43373
384.26         19.4353
384.71        19.58925
385.15        19.79649
385.60        19.89172
386.05        19.82574
386.50         19.6527
386.95        19.43772
387.40        19.28229
387.85        19.21265
388.29        19.17481
388.74        19.16122
389.19        19.12079
389.64        19.03979
390.09        18.93559
390.54         18.8121
390.98        18.66853
391.43        18.52712
391.88        18.39059
392.33        18.27157
392.78        18.18778
393.23        18.13997
393.67        18.11071
394.12        18.11166
394.57        18.12383
395.02        18.13778
395.47        18.14761
395.91        18.14367
396.36        18.10042
396.81        18.02807
397.26        17.94294
397.71        17.85304
398.15        17.78107
398.60        17.75508
399.05        17.69256
399.50        17.62771
399.95        17.74128
400.39        17.97523
400.84        17.99974
401.29        17.80913
401.74        17.67829
402.18        17.62102
402.63        17.46418
403.08         17.2521
403.53         17.1331
403.97        17.12374
404.42         17.1861
404.87        17.26861
405.32        17.28352
405.76        17.20778
406.21        17.07985
406.66        16.94432
407.11        16.87211
407.55        16.88495
408.00        16.94904
408.45        17.03381
408.90        17.07816
409.34        17.06006
409.79        17.00341
410.24         16.9295
410.68        16.86119
411.13        16.81206
411.58         16.7724
412.03        16.73905
412.47        16.71212
412.92        16.68631
413.37        16.66905
413.81        16.66028
414.26        16.67291
414.71        16.70091
415.15        16.74375
415.60         16.7835
416.05        16.80443
416.49        16.80312
416.94        16.78301
417.39        16.75438
417.83        16.73278
418.28        16.72145
418.73        16.71125
419.17        16.70666
419.62        16.71485
420.07        16.73405
420.51         16.7601
420.96        16.77281
421.41        16.73652
421.85        16.64447
422.30        16.50711
422.74        16.35633
423.19         16.3126
423.64        16.36067
424.08        16.38368
424.53        16.36187
424.98        16.38902
425.42        16.46788
425.87        16.49475
426.31        16.47299
426.76        16.53001
427.21        16.61874
427.65        16.50351
428.10        16.25125
428.54        16.13909
428.99        16.19253
429.44        16.32597
429.88        16.46194
430.33        16.41494
430.77        16.22721
431.22        16.22447
431.66        16.39379
432.11        16.44695
432.56        16.38855
433.00        16.39166
433.45        16.41331
433.89        16.39397
434.34         16.3925
434.78        16.03158
435.23        16.25276
435.67        16.27609
436.12        16.33668
436.57        16.32514
437.01        16.24701
437.46        16.19232
437.90        16.15802
438.35        16.07686
438.79        15.96968
439.24         15.9205
439.68        15.93805
440.13        16.00274
440.57          16.083
441.02        16.14013
441.46         16.1577
441.91        16.10327
442.35         16.0121
442.80        16.09214
443.24        16.28108
443.69        16.29036
444.13        16.12674
444.58        16.05921
445.02        16.09441
445.47        16.08363
445.91        16.03834
446.36        16.05314
446.80        16.12804
447.24        16.23455
447.69          16.347
448.13        16.41889
448.58        16.44014
449.02         16.4193
449.47        16.37691
449.91        16.33711
450.36        16.31392
450.80        16.30031
451.25        16.28869
451.69        16.25655
452.13        16.20452
452.58        16.13954
453.02        16.08533
453.47        16.07993
453.91        16.12824
454.36        16.21864
454.80        16.30916
455.24        16.33251
455.69         16.2801
456.13        16.16196
456.58        16.03919
457.02        15.97816
457.46        15.99988
457.91         16.0808
458.35        16.16369
458.79        16.16249
459.24         16.0761
459.68        15.92831
460.13        15.79107
460.57         15.7287
461.01        15.76831
461.46        15.87077
461.90        16.00915
462.34        16.12537
462.79        16.19077
463.23        16.22622
463.68        16.22131
464.12        16.17082
464.56        16.08053
465.01        15.97571
465.45        15.86238
465.89        15.79342
466.34        15.77545
466.78        15.79234
467.22        15.83742
467.67        15.88055
468.11        15.91901
468.55         15.9534
468.99         15.9788
469.44        15.98569
469.88        15.97589
470.32        15.94998
470.77        15.92381
471.21        15.92819
471.65        15.96663
472.10        16.03067
472.54        16.10038
472.98        16.14968
473.42        16.17054
473.87         16.1771
474.31        16.16481
474.75        16.14238
475.20        16.12001
475.64        16.09141
476.08        16.07312
476.52        16.08221
476.97        16.12123
477.41        16.19248
477.85        16.28566
478.29        16.35769
478.74        16.41236
479.18        16.49651
479.62        16.59562
480.06        16.65998
480.50         16.6888
480.95        16.68815
481.39        16.66078
481.83         16.7644
482.27        16.75537
482.72        16.86644
483.16        16.95567
483.60        17.02472
484.04        17.03316
484.48        17.10592
484.93        17.29291
485.37        17.16908
485.81        17.26656
486.25        17.56479
486.69        17.26364
487.14        17.30522
487.58        18.08674
488.02        17.92957
488.46         17.8049
488.90        18.05105
489.34        17.88212
489.79        18.08465
490.23        18.26197
490.67         18.4742
491.11        18.64783
491.55        18.65238
491.99        18.54998
492.43        18.57059
492.88        18.73804
493.32        18.90458
493.76        19.04655
494.20        19.20071
494.64        19.36184
495.08        19.50852
495.52        19.62641
495.96        19.75378
496.41        19.88045
496.85        19.87047
497.29        19.76971
497.73        19.97692
498.17        20.20008
498.61         20.3906
499.05        20.44113
499.49        20.51702
499.93         20.5787
500.37        20.74082
500.82         20.9591
501.26        21.10556
501.70         21.1658
502.14        21.21989
502.58        21.29427
503.02        21.38908
503.46        21.50963
503.90        21.65587
504.34        21.79514
504.78        21.87273
505.22         21.8782
505.66        21.82936
506.10        21.76771
506.54        21.75916
506.98        21.82083
507.42        21.93448
507.86        22.06829
508.30         22.1692
508.74        22.22135
509.18        22.24032
509.62        22.24932
510.06        22.28513
510.50        22.35744
510.94         22.4532
511.38        22.55165
511.82        22.62163
512.26         22.6552
512.70        22.66203
513.14        22.66316
513.58         22.6914
514.02        22.75378
514.46        22.83911
514.90          22.923
515.34        22.96724
515.78        22.96334
516.22        22.92406
516.66        22.87386
517.10        22.85165
517.54        22.86701
517.98        22.90704
518.42        22.95228
518.86         22.9716
519.30         22.9574
519.74        22.92218
520.18        22.87881
520.62        22.84596
521.06        22.83043
521.50        22.82615
521.93        22.83255
522.37        22.84125
522.81        22.85132
523.25        22.86236
523.69        22.87058
524.13        22.87008
524.57        22.85788
525.01        22.83252
525.45        22.79363
525.89        22.74225
526.32         22.6784
526.76        22.61048
527.20        22.53924
527.64        22.46712
528.08        22.39729
528.52        22.33098
528.96        22.27594
529.40        22.24301
529.83        22.23121
530.27        22.23608
530.71        22.24123
531.15        22.22389
531.59        22.17732
532.03        22.10518
532.46        22.01582
532.90        21.93856
533.34        21.87824
533.78        21.82093
534.22        21.75816
534.66        21.70239
535.09        21.63835
535.53        21.52244
535.97        21.38836
536.41        21.34346
536.85        21.39746
537.28        21.49743
537.72         21.6121
538.16        21.70668
538.60        21.76472
539.04         21.7966
539.47         21.8075
539.91         21.8212
540.35        21.84223
540.79        21.86572
541.22        21.89927
541.66        21.96308
542.10        22.05662
542.54        22.17721
542.97        22.30612
543.41         22.4214
543.85        22.51472
544.29        22.59453
544.72        22.67079
545.16        22.77571
545.60        22.91138
546.04        23.07118
546.47        23.24658
546.91        23.41915
547.35         23.5787
547.79        23.72979
548.22        23.87218
548.66        24.00014
549.10        24.14361
549.53        24.29359
549.97        24.44813
550.41        24.54928
550.84        24.62166
551.28        24.73441
551.72        24.87963
552.15        25.06295
552.59        25.31357
553.03        25.25859
553.46        25.63375
553.90        25.74286
554.34        25.80331
554.77        25.82398
555.21        25.85699
555.65        25.96381
556.08        26.14347
556.52        26.36065
556.96        26.55361
557.39        26.70087
557.83        26.76689
558.27        26.62812
558.70        26.37471
559.14        26.30713
559.57        26.44066
560.01        26.61068
560.45        26.76614
560.88        26.91335
561.32        27.04582
561.75        27.13512
562.19        27.20304
562.63        27.27727
563.06        27.35972
563.50        27.44235
563.93        27.49865
564.37        27.56121
564.80        27.64134
565.24        27.67101
565.68        27.60212
566.11        27.95736
566.55        27.73551
566.98        27.76909
567.42        27.81441
567.85        27.92588
568.29        28.11152
568.72        28.37306
569.16        28.70242
569.60        28.86886
570.03        28.95275
570.47          29.071
570.90        29.30635
571.34        29.00103
571.77        29.33502
572.21        29.55324
572.64        29.61559
573.08        29.77712
573.51        29.94345
573.95        30.01712
574.38        30.08308
574.82        30.17913
