SpectraSmart Spectrum 2.9.0.0
--------- Device Information -----------
Spectrum Name :  反射率_0
Saving Time :  2024/04/26 22:56:13
Spectro-Module Model Name : SE2030-DUVN
Spectro-Module Serial Number : OS361AC55029948
Wavelength Start : 200
Wavelength End : 1025
Wavelength Unit : Wavelength(nm)
Spectrum Unit : Reflectance(%)
-----------Spectrum Setting ------------
Integration Time : 20ms
Average : 10
Boxcar : 0
Background removal :  enabled
linearity correction :  enabled
SC :  disabled
Intensity correction :  disabled
DWT denoise :  enabled
savitzky-golay :  disabled
FFT :  disabled
Running average :  disabled
Kalman :  disabled
High pass :  disabled
---------------BEGIN--------------------
Wavelength(nm)             Reflectance(%)
200.29               0
200.75        28.66393
201.21        30.85005
201.67        33.55988
202.13        35.70224
202.58        37.12141
203.04        38.64098
203.50          40.273
203.96        41.31092
204.42        41.28734
204.88        39.99954
205.34        37.86578
205.80        36.30827
206.26         35.6666
206.72        35.31583
207.18        35.21976
207.64        35.21783
208.10        35.21937
208.55         35.8862
209.01        35.63859
209.47        31.53726
209.93        25.10854
210.39        19.50908
210.85        16.71674
211.31        17.42829
211.77        22.13676
212.23        34.67673
212.69        67.79764
213.14        126.5249
213.60        129.5301
214.06        92.38372
214.52        66.15841
214.98        54.90399
215.44        50.92916
215.90        48.86302
216.36        48.40409
216.81        49.85546
217.27         53.6109
217.73        62.12503
218.19        72.93917
218.65        72.84261
219.11        60.13607
219.57        44.70338
220.02        35.64004
220.48        37.20029
220.94        48.83092
221.40        72.29116
221.86        107.3809
222.32        132.4694
222.77        127.3945
223.23        105.4804
223.69        83.08216
224.15        70.01694
224.61        64.76056
225.06        62.67449
225.52        62.31762
225.98        62.14008
226.44        61.71902
226.90        61.80039
227.36         61.8279
227.81        60.70117
228.27        58.63744
228.73         55.8881
229.19        53.74524
229.65        53.78499
230.10        55.90566
230.56        59.50974
231.02        63.07063
231.48        64.14126
231.93        62.34212
232.39        59.05108
232.85         55.6601
233.31        53.98527
233.77        54.24616
234.22        55.76152
234.68        57.85108
235.14        59.59664
235.60        60.63786
236.05        61.34243
236.51         61.5807
236.97        61.14764
237.43        60.08259
237.88        58.42316
238.34        56.64844
238.80        55.86845
239.26        56.49271
239.71        58.88904
240.17        62.68244
240.63        66.72294
241.08        70.21288
241.54        72.76336
242.00        75.24332
242.46        80.00464
242.91        89.31488
243.37        104.0145
243.83        125.3958
244.28        146.9849
244.74        155.2173
245.20        147.3133
245.66        131.8529
246.11        117.9078
246.57        107.3343
247.03        98.09996
247.48         89.4196
247.94        81.89322
248.40        77.01297
248.85        74.45941
249.31        73.93225
249.77        74.50932
250.22        75.68836
250.68        77.34937
251.14        78.90409
251.59        78.60095
252.05        76.08102
252.51         72.8905
252.96        69.07008
253.42        64.89034
253.88        60.68272
254.33        56.46193
254.79        54.36589
255.25        55.86388
255.70        60.35551
256.16        66.91818
256.62        72.50481
257.07        72.60257
257.53         68.5261
257.99        63.12201
258.44        58.58328
258.90        56.96662
259.35        57.30262
259.81        58.83941
260.27        60.39321
260.72        60.60996
261.18        59.65436
261.63         57.8992
262.09        56.32076
262.55        55.44156
263.00        55.14783
263.46        55.29154
263.91        55.24125
264.37        54.52527
264.83        53.12807
265.28        51.31469
265.74        49.72617
266.19        48.84468
266.65        48.77745
267.11        49.21616
267.56         49.7822
268.02        49.88335
268.47        49.35883
268.93        48.43396
269.38         47.3123
269.84        46.36747
270.30        45.68417
270.75        45.11913
271.21        44.63936
271.66        44.14159
272.12        43.59734
272.57        43.04015
273.03        42.43384
273.48        41.69205
273.94        40.86931
274.39        39.95092
274.85        39.10758
275.31        38.43162
275.76         37.9126
276.22        37.56376
276.67        37.24259
277.13        36.84494
277.58        36.29583
278.04        35.65499
278.49        34.98032
278.95        34.48547
279.40        34.13516
279.86        33.92869
280.31        33.65417
280.77        33.12815
281.22         32.3071
281.68         31.3597
282.13        30.44934
282.59         29.8859
283.04        29.67346
283.50        29.72332
283.95        29.87039
284.41        29.87041
284.86        29.65007
285.32        29.31523
285.77        28.93451
286.22        28.66695
286.68        28.54108
287.13        28.45755
287.59        28.38593
288.04        28.24076
288.50        28.02645
288.95        27.75873
289.41        27.46074
289.86        27.08946
290.32        26.69518
290.77        26.28419
291.22         25.9402
291.68        25.77486
292.13        25.79034
292.59        25.95597
293.04        26.21079
293.50        26.47619
293.95        26.71034
294.40        26.94208
294.86        27.15537
295.31        27.31956
295.77        27.45102
296.22        27.54985
296.68        27.69457
297.13        27.99564
297.58        28.47345
298.04        29.09001
298.49        29.75056
298.95         30.3197
299.40        30.74473
299.85        31.05736
300.31        31.30758
300.76        31.56618
301.21        31.85853
301.67        32.17816
302.12        32.46771
302.58        32.70015
303.03        32.84765
303.48        32.94368
303.94        33.05515
304.39        33.24498
304.84        33.52683
305.30        33.87896
305.75        34.19392
306.20        34.36318
306.66        34.37564
307.11        34.25941
307.57         34.1041
308.02        34.00064
308.47        33.98482
308.93        34.03015
309.38        34.08881
309.83        34.13288
310.29        34.14904
310.74        34.14856
311.19        34.11776
311.65        34.02748
312.10        33.87215
312.55         33.6526
313.00        33.42289
313.46         33.2658
313.91        33.18145
314.36        33.15796
314.82        33.11745
315.27        32.94217
315.72        32.61116
316.18         32.1773
316.63        31.73216
317.08        31.42973
317.53        31.30176
317.99        31.29486
318.44        31.32983
318.89        31.26608
319.35        31.06245
319.80        30.75857
320.25        30.41172
320.70        30.11402
321.16        29.89052
321.61        29.72273
322.06        29.56627
322.51        29.35423
322.97        29.06999
323.42        28.74585
323.87        28.43974
324.32        28.24545
324.78        28.17035
325.23        28.19498
325.68        28.22915
326.13        28.13107
326.59        27.86406
327.04         27.4836
327.49        27.06863
327.94        26.74599
328.39        26.54706
328.85        26.42187
329.30         26.3494
329.75        26.24245
330.20        26.07549
330.66        25.87434
331.11        25.67312
331.56        25.49974
332.01         25.3634
332.46        25.24578
332.92         25.1221
333.37        24.99803
333.82        24.85829
334.27        24.71324
334.72        24.57077
335.17        24.43959
335.63        24.32184
336.08        24.22812
336.53        24.15665
336.98        24.11324
337.43        24.09511
337.88        24.09246
338.34        24.09466
338.79        24.11022
339.24          24.123
339.69        24.12856
340.14        24.10097
340.59        24.00262
341.05        23.84026
341.50        23.63062
341.95        23.41779
342.40        23.26642
342.85        23.19559
343.30        23.18746
343.75        23.22319
344.20        23.27173
344.66        23.31921
345.11        23.36613
345.56        23.40148
346.01        23.40979
346.46        23.39133
346.91        23.35211
347.36        23.29861
347.81        23.24619
348.26        23.20148
348.72        23.16037
349.17        23.13556
349.62        23.15722
350.07        23.22527
350.52        23.33296
350.97        23.42617
351.42        23.41902
351.87        23.29578
352.32        23.07917
352.77        22.84616
353.22        22.71063
353.67        22.69454
354.13        22.77128
354.58        22.85511
355.03         22.8075
355.48         22.6017
355.93        22.28677
356.38        21.97308
356.83        21.82273
357.28        21.86391
357.73        22.04035
358.18        22.23927
358.63        22.27914
359.08        22.11324
359.53        21.79907
359.98        21.43592
360.43        21.17091
360.88        21.03747
361.33        20.98806
361.78         20.9509
362.23         20.8145
362.68        20.55869
363.13         20.2347
363.58        19.90856
364.03        19.67463
364.48        19.55575
364.93        19.51525
365.38        19.51756
365.83        19.50718
366.28        19.46196
366.73        19.39989
367.18        19.31752
367.63        19.20889
368.08        19.07764
368.53         18.9202
368.98        18.76164
369.43        18.64617
369.88        18.58093
370.33        18.55473
370.78        18.53485
371.23        18.46396
371.68        18.32982
372.13        18.15432
372.58        17.96866
373.03         17.8216
373.48        17.72786
373.93        17.67037
374.38        17.63746
374.83        17.61205
375.28        17.58123
375.72        17.54003
376.17        17.49025
376.62        17.41116
377.07        17.30314
377.52        17.17676
377.97        17.03672
378.42        16.89628
378.87        16.76418
379.32        16.63347
379.77        16.53081
380.22        16.49258
380.67        16.51649
381.11        16.59856
381.56        16.66231
382.01        16.59489
382.46        16.38158
382.91        16.06885
383.36        15.75768
383.81        15.58788
384.26        15.58124
384.71        15.69256
385.15        15.84352
385.60        15.90599
386.05        15.84153
386.50        15.69316
386.95        15.51482
387.40        15.38898
387.85        15.33863
388.29        15.32384
388.74        15.33329
389.19        15.32071
389.64        15.27275
390.09        15.19771
390.54        15.11156
390.98        15.03417
391.43        14.98108
391.88        14.94695
392.33        14.90409
392.78        14.81214
393.23        14.67379
393.67        14.50277
394.12        14.36178
394.57        14.31401
395.02        14.36454
395.47        14.47665
395.91        14.60583
396.36        14.66581
396.81        14.63899
397.26        14.56069
397.71        14.43427
398.15        14.27436
398.60        14.11735
399.05        13.90419
399.50        13.70652
399.95        13.72739
400.39        13.93158
400.84        14.05104
401.29        14.03322
401.74         14.0094
402.18        13.96757
402.63        13.79185
403.08        13.56102
403.53        13.46429
403.97        13.53047
404.42        13.70178
404.87        13.89591
405.32        13.98023
405.76        13.91913
406.21         13.7639
406.66        13.58279
407.11        13.48056
407.55        13.48807
408.00         13.5663
408.45        13.66534
408.90          13.692
409.34        13.62063
409.79        13.49035
410.24        13.35336
410.68        13.27543
411.13        13.27498
411.58        13.32585
412.03        13.39553
412.47        13.43095
412.92        13.40911
413.37        13.35275
413.81        13.28099
414.26        13.23022
414.71        13.20498
415.15        13.19761
415.60        13.19455
416.05        13.18492
416.49        13.16702
416.94        13.14614
417.39        13.13038
417.83        13.12963
418.28        13.14275
418.73        13.15946
419.17        13.17515
419.62        13.18424
420.07        13.18288
420.51        13.17145
420.96        13.14186
421.41        13.07833
421.85        12.98164
422.30        12.86148
422.74         12.7401
423.19        12.70761
423.64        12.75061
424.08        12.77678
424.53        12.77782
424.98        12.83968
425.42        12.96281
425.87        13.05823
426.31         13.1025
426.76        13.15865
427.21        13.18308
427.65        13.00384
428.10        12.70767
428.54        12.56236
428.99        12.60121
429.44        12.74278
429.88        12.90815
430.33        12.92314
430.77        12.80624
431.22        12.81794
431.66        12.95278
432.11        12.97486
432.56        12.88534
433.00        12.85783
433.45        12.84606
433.89        12.68708
434.34        12.48543
434.78         12.1811
435.23        12.45772
435.67        12.50206
436.12        12.48224
436.57        12.43336
437.01        12.37836
437.46        12.36117
437.90        12.38096
438.35        12.38872
438.79        12.37191
439.24         12.3552
439.68        12.33895
440.13         12.3157
440.57        12.29475
441.02        12.30543
441.46        12.34741
441.91        12.37488
442.35        12.37462
442.80        12.45199
443.24        12.54986
443.69        12.46399
444.13        12.23525
444.58        12.12454
445.02        12.14787
445.47        12.17261
445.91        12.17892
446.36        12.19436
446.80        12.20816
447.24        12.21741
447.69         12.2187
448.13        12.19927
448.58        12.16279
449.02        12.11084
449.47        12.06307
449.91         12.0457
450.36        12.06616
450.80        12.11339
451.25        12.17015
451.69        12.20226
452.13        12.20225
452.58        12.17708
453.02        12.13992
453.47        12.11448
453.91        12.10719
454.36        12.11296
454.80        12.11592
455.24        12.08991
455.69        12.03546
456.13        11.95527
456.58        11.88459
457.02        11.85468
457.46         11.8764
457.91         11.9367
458.35        11.99698
458.79        11.99844
459.24        11.94138
459.68        11.83831
460.13        11.74177
460.57        11.69815
461.01        11.72736
461.46        11.80077
461.90        11.89658
462.34        11.96701
462.79         11.9912
463.23        11.98764
463.68        11.95542
464.12        11.90193
464.56        11.83429
465.01        11.76767
465.45        11.70027
465.89        11.66321
466.34        11.65888
466.78         11.6764
467.22        11.71211
467.67        11.74592
468.11        11.77594
468.55        11.80122
468.99        11.81473
469.44        11.80507
469.88        11.77234
470.32        11.71795
470.77         11.6606
471.21        11.63421
471.65        11.64396
472.10        11.68305
472.54        11.72618
472.98        11.73716
473.42        11.70925
473.87        11.66047
474.31        11.60464
474.75        11.57433
475.20        11.58032
475.64        11.60607
476.08        11.64667
476.52          11.689
476.97        11.72701
477.41        11.76967
477.85        11.81497
478.29        11.84077
478.74        11.85616
479.18        11.89452
479.62        11.94869
480.06        11.99003
480.50        12.01821
480.95        12.02946
481.39        12.02597
481.83        12.12967
482.27        12.16386
482.72        12.26747
483.16        12.36381
483.60        12.40352
484.04        12.37582
484.48        12.33515
484.93        12.35963
485.37        12.30147
485.81        12.51775
486.25         12.6758
486.69         12.4513
487.14        12.39637
487.58        13.35338
488.02        13.04939
488.46         12.6806
488.90        12.76442
489.34        12.85368
489.79        13.04542
490.23        13.03024
490.67        13.14416
491.11        13.33024
491.55        13.37432
491.99        13.31333
492.43        13.33687
492.88        13.46107
493.32        13.58602
493.76         13.6878
494.20        13.78043
494.64        13.86337
495.08          13.909
495.52        13.93768
495.96        14.07186
496.41        14.28785
496.85         14.3595
497.29        14.30415
497.73        14.48729
498.17        14.69365
498.61        14.83218
499.05        14.83358
499.49        14.86646
499.93        14.90982
500.37        15.03267
500.82        15.19998
501.26        15.31411
501.70        15.36247
502.14        15.40796
502.58        15.46825
503.02        15.53843
503.46        15.62228
503.90        15.72103
504.34        15.81586
504.78        15.87537
505.22        15.89419
505.66        15.88325
506.10        15.86719
506.54         15.8856
506.98         15.9477
507.42        16.04028
507.86        16.14537
508.30         16.2328
508.74        16.29271
509.18        16.33553
509.62        16.36645
510.06        16.39396
510.50        16.42342
510.94        16.45119
511.38        16.48502
511.82        16.53827
512.26        16.61156
512.70        16.70074
513.14         16.7913
513.58        16.85886
514.02         16.8964
514.46        16.90904
514.90        16.90703
515.34         16.9085
515.78         16.9188
516.22        16.93259
516.66        16.94381
517.10        16.94268
517.54        16.92755
517.98        16.90439
518.42        16.87892
518.86        16.85854
519.30        16.84632
519.74        16.84024
520.18        16.83854
520.62        16.83874
521.06        16.83877
521.50        16.83762
521.93        16.83633
522.37        16.83002
522.81        16.81984
523.25        16.80605
523.69        16.78414
524.13        16.74784
524.57        16.69657
525.01        16.63112
525.45        16.56293
525.89        16.51061
526.32        16.47621
526.76        16.45932
527.20         16.4421
527.64        16.39749
528.08        16.32205
528.52        16.22613
528.96        16.13187
529.40         16.0733
529.83        16.05693
530.27        16.07125
530.71        16.09496
531.15        16.09604
531.59        16.06473
532.03        16.00892
532.46        15.93868
532.90        15.88155
533.34        15.84172
533.78        15.80421
534.22        15.76076
534.66        15.71804
535.09        15.66463
535.53        15.57231
535.97        15.46297
536.41         15.4097
536.85        15.42066
537.28        15.45903
537.72         15.5148
538.16        15.58255
538.60        15.65283
539.04        15.72644
539.47        15.78809
539.91         15.8253
540.35        15.83583
540.79        15.82592
541.22        15.81855
541.66        15.85692
542.10        15.94745
542.54        16.07776
542.97        16.22264
543.41        16.34784
543.85        16.44134
544.29        16.51532
544.72        16.57935
545.16        16.66083
545.60        16.76314
546.04        16.87906
546.47        17.00598
546.91        17.13657
547.35        17.26521
547.79        17.39622
548.22        17.52283
548.66        17.63006
549.10        17.73829
549.53        17.84236
549.97        17.95356
550.41        18.04932
550.84        18.14999
551.28        18.30022
551.72         18.4722
552.15        18.63588
552.59        18.80661
553.03        18.71841
553.46        18.94498
553.90        19.01302
554.34         19.0932
554.77        19.18085
555.21        19.28718
555.65        19.41306
556.08        19.54773
556.52         19.6789
556.96        19.79068
557.39        19.91318
557.83        20.02794
558.27        20.02449
558.70        19.93633
559.14        19.93844
559.57        20.03106
560.01        20.10796
560.45        20.15851
560.88         20.2289
561.32        20.32563
561.75        20.41486
562.19        20.49867
562.63        20.57547
563.06        20.64118
563.50        20.69949
563.93        20.73899
564.37        20.79607
564.80        20.88186
565.24        20.93787
565.68        20.92381
566.11        21.23151
566.55        21.09959
566.98        21.16456
567.42        21.23786
567.85        21.35409
568.29        21.52061
568.72        21.74143
569.16        22.02258
569.60        22.20652
570.03        22.35878
570.47        22.54709
570.90          22.804
571.34        22.64051
571.77        23.00862
572.21        23.07512
572.64        23.06429
573.08        23.40292
573.51        23.37995
573.95        23.52522
574.38        23.58858
574.82        24.06171
