SpectraSmart Spectrum 2.9.0.0
--------- Device Information -----------
Spectrum Name :  反射率_0
Saving Time :  2024/04/26 23:01:31
Spectro-Module Model Name : SE2030-DUVN
Spectro-Module Serial Number : OS361AC55029948
Wavelength Start : 200
Wavelength End : 1025
Wavelength Unit : Wavelength(nm)
Spectrum Unit : Reflectance(%)
-----------Spectrum Setting ------------
Integration Time : 20ms
Average : 10
Boxcar : 0
Background removal :  enabled
linearity correction :  enabled
SC :  disabled
Intensity correction :  disabled
DWT denoise :  enabled
savitzky-golay :  disabled
FFT :  disabled
Running average :  disabled
Kalman :  disabled
High pass :  disabled
---------------BEGIN--------------------
Wavelength(nm)             Reflectance(%)
200.29               0
200.75         28.2683
201.21        33.21544
201.67        38.14958
202.13        41.08245
202.58        41.92488
203.04        41.80388
203.50        41.12167
203.96        40.69926
204.42        41.17853
204.88        41.98585
205.34        43.15096
205.80        44.93087
206.26        46.85049
206.72        48.46199
207.18        49.26136
207.64        48.73109
208.10        46.80816
208.55        43.59599
209.01         38.2294
209.47        32.84577
209.93        30.57891
210.39        30.93132
210.85        32.42147
211.31        34.32763
211.77        37.17013
212.23        43.09064
212.69        58.10454
213.14        87.07288
213.60        91.19987
214.06        74.92593
214.52        62.24373
214.98        55.78241
215.44         52.1266
215.90        48.82925
216.36        46.17017
216.81         44.9127
217.27         45.5831
217.73         49.1442
218.19        54.43606
218.65        54.92741
219.11        49.59402
219.57        43.16116
220.02        40.03268
220.48        42.97979
220.94        52.25251
221.40        69.43803
221.86        95.23721
222.32        116.0675
222.77         116.834
223.23        105.0616
223.69        90.90504
224.15        80.93101
224.61        74.99838
225.06        70.64443
225.52        67.97311
225.98         66.7487
226.44        66.68092
226.90        67.96078
227.36         69.6835
227.81        70.16579
228.27        69.31326
228.73        67.46249
229.19        66.08562
229.65        67.00894
230.10        70.15797
230.56        74.86032
231.02        79.18326
231.48        80.09906
231.93        77.22079
232.39        72.27402
232.85        67.27984
233.31        64.82432
233.77        65.17625
234.22        67.41998
234.68        70.31107
235.14        71.98012
235.60        71.83384
236.05        70.48591
236.51        68.39158
236.97         66.6823
237.43        65.92524
237.88        65.80064
238.34        66.13582
238.80        66.95522
239.26        68.28123
239.71        70.80773
240.17          74.019
240.63        76.81599
241.08        78.49169
241.54        78.13347
242.00        77.41393
242.46        80.19798
242.91        89.28812
243.37        106.5561
243.83        131.7248
244.28        149.9687
244.74        142.8141
245.20        113.4827
245.66        82.33463
246.11        65.75162
246.57        63.34281
247.03        69.17985
247.48        78.24186
247.94        81.59992
248.40        78.24271
248.85        72.91372
249.31        67.97163
249.77        63.67434
250.22        59.34138
250.68        53.56744
251.14        46.97168
251.59        43.52542
252.05         45.7858
252.51        52.47673
252.96        58.87691
253.42        60.81538
253.88        58.78304
254.33        54.43188
254.79        51.46711
255.25        52.92612
255.70         58.4088
256.16        66.52277
256.62         73.5386
257.07        73.93307
257.53        69.23586
257.99         63.0215
258.44        58.06147
258.90        56.81777
259.35        58.14135
259.81        60.92566
260.27        63.64889
260.72         64.4929
261.18        63.60532
261.63        61.62299
262.09        59.67215
262.55        58.37989
263.00        57.69563
263.46        57.45846
263.91        57.15667
264.37        56.49952
264.83        55.44238
265.28        54.15385
265.74        53.09484
266.19        52.50538
266.65          52.464
267.11        52.71959
267.56        53.02902
268.02        53.02228
268.47        52.58763
268.93        51.89135
269.38        50.97721
269.84        49.98212
270.30        48.96465
270.75        47.88103
271.21        46.91642
271.66        46.28235
272.12         46.0065
272.57        46.01004
273.03        46.03919
273.48        45.65678
273.94        44.83734
274.39        43.68361
274.85        42.53917
275.31        41.73019
275.76        41.28471
276.22        41.11708
276.67        40.99273
277.13        40.69497
277.58        40.11507
278.04         39.3749
278.49        38.54767
278.95        37.86904
279.40        37.32612
279.86        36.92582
280.31        36.49235
280.77        35.90777
281.22         35.1207
281.68        34.26798
282.13         33.4655
282.59         32.9673
283.04        32.75489
283.50        32.75883
283.95        32.80261
284.41        32.63238
284.86        32.19129
285.32        31.60559
285.77        30.99308
286.22        30.58293
286.68        30.41366
287.13         30.3635
287.59        30.36634
288.04        30.27537
288.50        30.07538
288.95        29.79156
289.41        29.45922
289.86        29.05138
290.32        28.62446
290.77        28.17568
291.22        27.78352
291.68        27.55175
292.13        27.48633
292.59        27.57087
293.04        27.75785
293.50        27.98943
293.95        28.22671
294.40        28.48386
294.86        28.74599
295.31        28.98369
295.77        29.20384
296.22        29.40264
296.68        29.61779
297.13        29.89665
297.58        30.25675
298.04        30.68638
298.49        31.15947
298.95        31.64825
299.40        32.12866
299.85        32.60626
300.31        33.07284
300.76        33.50769
301.21        33.90607
301.67        34.27431
302.12        34.60114
302.58        34.93212
303.03         35.2487
303.48         35.5669
303.94        35.87257
304.39        36.10765
304.84        36.28191
305.30        36.42142
305.75        36.55442
306.20        36.77933
306.66         37.1118
307.11        37.49863
307.57        37.87123
308.02        38.07551
308.47        38.09828
308.93        37.99699
309.38        37.84447
309.83        37.80369
310.29        37.90819
310.74        38.09976
311.19        38.29762
311.65        38.36525
312.10         38.2616
312.55        38.03383
313.00        37.75528
313.46        37.53063
313.91        37.37525
314.36        37.26803
314.82        37.15998
315.27        36.98672
315.72        36.73391
316.18        36.44191
316.63        36.15478
317.08        35.95096
317.53        35.84526
317.99        35.80462
318.44        35.78723
318.89        35.71553
319.35         35.5647
319.80        35.35151
320.25         35.1078
320.70        34.88672
321.16        34.70081
321.61        34.54778
322.06        34.39027
322.51        34.17205
322.97        33.88109
323.42        33.54305
323.87        33.22371
324.32        33.03233
324.78        32.97634
325.23        33.03909
325.68        33.10674
326.13         32.9962
326.59        32.66439
327.04        32.18192
327.49        31.66372
327.94        31.29424
328.39        31.11667
328.85        31.06093
329.30        31.07826
329.75        31.01951
330.20        30.83798
330.66        30.57713
331.11        30.29213
331.56        30.04161
332.01        29.84673
332.46          29.677
332.92        29.50895
333.37        29.35841
333.82        29.20831
334.27        29.07342
334.72         28.9435
335.17          28.794
335.63        28.61964
336.08        28.43843
336.53        28.27791
336.98        28.19662
337.43        28.20191
337.88        28.26729
338.34        28.34225
338.79        28.37082
339.24         28.3208
339.69         28.2165
340.14         28.0679
340.59        27.89448
341.05        27.72377
341.50        27.55119
341.95        27.41659
342.40         27.3809
342.85        27.44806
343.30        27.59073
343.75        27.75661
344.20        27.85897
344.66        27.87208
345.11        27.81767
345.56        27.70499
346.01        27.55462
346.46         27.3894
346.91        27.21247
347.36        27.06359
347.81        27.00523
348.26        27.04537
348.72        27.16561
349.17        27.31802
349.62        27.43535
350.07        27.49303
350.52        27.50701
350.97        27.47658
351.42        27.40682
351.87        27.30717
352.32        27.17485
352.77        27.04152
353.22        26.95397
353.67        26.91941
354.13        26.93091
354.58        26.94812
355.03        26.90366
355.48        26.78224
355.93        26.60283
356.38        26.41599
356.83        26.29719
357.28        26.25817
357.73        26.27283
358.18         26.2835
358.63         26.1988
359.08        26.00117
359.53        25.72486
359.98        25.43074
360.43        25.20694
360.88        25.07067
361.33        24.99109
361.78        24.92535
362.23         24.8061
362.68        24.61979
363.13        24.39841
363.58        24.16727
364.03        23.96145
364.48        23.79256
364.93        23.64301
365.38         23.5225
365.83        23.44951
366.28         23.4195
366.73        23.42635
367.18        23.42374
367.63        23.33834
368.08        23.15715
368.53        22.90027
368.98        22.62404
369.43        22.42023
369.88        22.31245
370.33        22.27767
370.78        22.26671
371.23        22.19641
371.68        22.04542
372.13        21.84056
372.58        21.63034
373.03        21.49012
373.48        21.43493
373.93        21.43414
374.38        21.43998
374.83        21.38019
375.28        21.23621
375.72        21.02908
376.17        20.80678
376.62        20.61203
377.07        20.46271
377.52        20.35045
377.97        20.26246
378.42        20.18193
378.87        20.10178
379.32        20.01941
379.77        19.95522
380.22        19.93742
380.67        19.96218
381.11        20.02482
381.56        20.05129
382.01        19.94132
382.46        19.69004
382.91        19.35021
383.36         19.0252
383.81        18.85524
384.26         18.8626
384.71         19.0002
385.15        19.19906
385.60        19.34275
386.05        19.38758
386.50         19.3658
386.95        19.29654
387.40        19.21279
387.85        19.13044
388.29         19.0235
388.74        18.92609
389.19         18.8455
389.64        18.77917
390.09         18.7218
390.54        18.65831
390.98        18.55671
391.43        18.42656
391.88        18.28383
392.33        18.13854
392.78        18.00176
393.23        17.88164
393.67        17.76852
394.12        17.69413
394.57        17.67048
395.02        17.69324
395.47        17.74452
395.91        17.80295
396.36         17.8216
396.81        17.79564
397.26        17.74135
397.71         17.6561
398.15        17.54812
398.60         17.4505
399.05        17.29596
399.50        17.13535
399.95         17.1669
400.39        17.34125
400.84        17.33472
401.29        17.15372
401.74        17.07806
402.18        17.11823
402.63        17.09904
403.08        17.02566
403.53        16.98605
403.97        16.98404
404.42        16.99558
404.87        17.00349
405.32        16.97931
405.76        16.91551
406.21        16.83199
406.66        16.75014
407.11        16.70481
407.55        16.70756
408.00        16.73808
408.45        16.77684
408.90        16.78126
409.34        16.73829
409.79        16.66625
410.24        16.58305
410.68        16.50711
411.13        16.44988
411.58        16.40377
412.03        16.36734
412.47        16.34248
412.92        16.32328
413.37        16.31441
413.81        16.31187
414.26        16.32316
414.71        16.34207
415.15        16.37102
415.60        16.39515
416.05        16.40412
416.49        16.39711
416.94        16.37525
417.39        16.35227
417.83        16.34904
418.28        16.36754
418.73        16.39659
419.17        16.42759
419.62        16.44644
420.07        16.44831
420.51        16.43674
420.96        16.40755
421.41        16.35096
421.85        16.26498
422.30        16.14944
422.74        16.02632
423.19         15.9999
423.64        16.05152
424.08        16.07417
424.53        16.04436
424.98        16.04712
425.42         16.0868
425.87        16.06264
426.31        16.00005
426.76         16.0574
427.21         16.1945
427.65        16.17254
428.10        16.01967
428.54        15.95059
428.99         15.9808
429.44        16.04483
429.88        16.10052
430.33        16.01917
430.77        15.84978
431.22        15.88986
431.66         16.1051
432.11        16.16171
432.56         16.0488
433.00         15.9996
433.45        15.97771
433.89        15.81584
434.34        15.64507
434.78        15.36413
435.23        15.80919
435.67        15.92198
436.12        15.90786
436.57         15.8261
437.01        15.71445
437.46        15.64384
437.90        15.62295
438.35         15.5854
438.79        15.53226
439.24        15.51953
439.68        15.54769
440.13        15.60242
440.57        15.66038
441.02         15.6966
441.46        15.70126
441.91        15.64245
442.35        15.54696
442.80        15.60648
443.24        15.75978
443.69        15.72903
444.13        15.54214
444.58        15.49139
445.02        15.58427
445.47        15.66256
445.91        15.69883
446.36        15.72637
446.80        15.73505
447.24        15.72009
447.69        15.69307
448.13        15.66551
448.58        15.64768
449.02        15.63526
449.47        15.63663
449.91        15.65582
450.36        15.69569
450.80        15.75087
451.25        15.81249
451.69        15.85651
452.13         15.8784
452.58        15.87843
453.02        15.86546
453.47        15.85816
453.91        15.86031
454.36        15.86977
454.80        15.86717
455.24        15.82091
455.69        15.73391
456.13        15.60994
456.58        15.49801
457.02         15.4441
457.46        15.46353
457.91         15.5401
458.35        15.62173
458.79        15.62924
459.24        15.56204
459.68        15.43809
460.13        15.32569
460.57         15.2875
461.01        15.34828
461.46        15.46816
461.90        15.61774
462.34        15.73506
462.79        15.79071
463.23        15.80747
463.68        15.77607
464.12        15.69378
464.56         15.5709
465.01        15.43513
465.45         15.2993
465.89        15.22223
466.34        15.21092
466.78        15.24823
467.22        15.32148
467.67        15.38966
468.11        15.44554
468.55        15.49061
468.99        15.52547
469.44        15.55105
469.88        15.57003
470.32        15.57789
470.77        15.58066
471.21        15.59414
471.65        15.61961
472.10        15.65568
472.54        15.69227
472.98        15.71835
473.42        15.73057
473.87        15.73773
474.31        15.73335
474.75        15.72279
475.20        15.71263
475.64        15.69671
476.08        15.68514
476.52        15.68463
476.97        15.69717
477.41        15.72951
477.85        15.77884
478.29        15.81631
478.74        15.84995
479.18        15.92084
479.62        16.01657
480.06        16.09024
480.50         16.1407
480.95         16.1734
481.39        16.17567
481.83        16.28612
482.27        16.26493
482.72        16.30504
483.16          16.359
483.60        16.41268
484.04         16.4448
484.48        16.61435
484.93        16.92979
485.37        16.77618
485.81        16.69562
486.25        17.08167
486.69        16.78113
487.14        16.83416
487.58         17.6633
488.02         17.4047
488.46        17.11226
488.90        17.37262
489.34        17.41541
489.79         17.6714
490.23        17.72836
490.67        17.84744
491.11        17.98754
491.55        18.01383
491.99        17.97443
492.43        18.01655
492.88        18.16045
493.32        18.33269
493.76        18.50688
494.20        18.68193
494.64        18.85112
495.08        18.97604
495.52        19.06369
495.96        19.24196
496.41        19.47107
496.85        19.48124
497.29         19.3165
497.73        19.43814
498.17        19.59283
498.61        19.79103
499.05        19.91182
499.49        20.00366
499.93        20.02057
500.37        20.14951
500.82        20.35703
501.26        20.49574
501.70        20.55363
502.14        20.61499
502.58        20.70149
503.02        20.80608
503.46        20.93169
503.90        21.07897
504.34        21.21648
504.78        21.29246
505.22        21.29737
505.66        21.24765
506.10        21.18426
506.54        21.17303
506.98        21.23081
507.42        21.33941
507.86        21.46856
508.30        21.56692
508.74        21.61987
509.18        21.64465
509.62        21.66036
510.06        21.69758
510.50         21.7643
510.94        21.84575
511.38        21.93286
511.82        22.01299
512.26        22.08036
512.70         22.1411
513.14        22.18913
513.58        22.21415
514.02         22.2159
514.46        22.19457
514.90        22.16915
515.34         22.1712
515.78        22.20639
516.22         22.2678
516.66        22.32748
517.10         22.3388
517.54        22.29465
517.98         22.2128
518.42        22.12789
518.86        22.09499
519.30        22.12609
519.74        22.19988
520.18        22.28986
520.62        22.35483
521.06        22.38128
521.50        22.38265
521.93        22.36426
522.37        22.32701
522.81        22.27976
523.25        22.21938
523.69        22.16002
524.13        22.12548
524.57        22.11728
525.01        22.12718
525.45        22.13588
525.89        22.11006
526.32         22.0406
526.76        21.94686
527.20        21.83912
527.64        21.73551
528.08        21.64539
528.52        21.56386
528.96        21.50252
529.40        21.47908
529.83        21.49177
530.27        21.53493
530.71        21.57973
531.15        21.58195
531.59        21.53058
532.03        21.43511
532.46        21.31779
532.90        21.23055
533.34        21.18311
533.78         21.1532
534.22        21.12137
534.66        21.08285
535.09        21.01789
535.53        20.89003
535.97        20.73715
536.41        20.67048
536.85        20.70333
537.28         20.7843
537.72        20.88345
538.16        20.96746
538.60        21.02164
539.04          21.057
539.47          21.082
539.91        21.12448
540.35        21.18672
540.79        21.25801
541.22        21.33668
541.66         21.4292
542.10        21.53059
542.54        21.64215
542.97        21.74711
543.41        21.82706
543.85         21.8789
544.29         21.9137
544.72        21.95065
545.16        22.03473
545.60        22.17058
546.04        22.34808
546.47        22.55209
546.91        22.75173
547.35        22.93176
547.79        23.09891
548.22        23.25083
548.66        23.38072
549.10        23.51679
549.53        23.64616
549.97        23.77423
550.41         23.8572
550.84         23.9222
551.28        24.03828
551.72        24.17997
552.15        24.32399
552.59        24.49669
553.03        24.34745
553.46        24.62448
553.90         24.7141
554.34        24.83385
554.77        24.97444
555.21         25.1354
555.65        25.29404
556.08        25.43278
556.52        25.54452
556.96        25.62359
557.39        25.73227
557.83        25.85357
558.27        25.83797
558.70        25.72702
559.14         25.7432
559.57         25.8823
560.01        26.00694
560.45        26.09311
560.88        26.18475
561.32        26.28786
561.75        26.36285
562.19        26.42273
562.63        26.48338
563.06        26.54376
563.50        26.60237
563.93        26.63954
564.37        26.69393
564.80        26.77684
565.24        26.81789
565.68         26.7632
566.11        27.10883
566.55        26.88371
566.98        26.90242
567.42        26.93396
567.85         27.0401
568.29        27.23284
568.72        27.50387
569.16        27.84087
569.60        28.06451
570.03        28.26306
570.47        28.43689
570.90        28.61417
571.34         28.5898
571.77        28.81189
572.21        28.88009
572.64        28.89773
573.08        29.14393
573.51        29.31351
573.95        29.36983
574.38        29.28435
574.82        29.62333
