SpectraSmart Spectrum 2.9.0.0
--------- Device Information -----------
Spectrum Name :  反射率_0
Saving Time :  2024/04/26 23:03:31
Spectro-Module Model Name : SE2030-DUVN
Spectro-Module Serial Number : OS361AC55029948
Wavelength Start : 200
Wavelength End : 1025
Wavelength Unit : Wavelength(nm)
Spectrum Unit : Reflectance(%)
-----------Spectrum Setting ------------
Integration Time : 20ms
Average : 10
Boxcar : 0
Background removal :  enabled
linearity correction :  enabled
SC :  disabled
Intensity correction :  disabled
DWT denoise :  enabled
savitzky-golay :  disabled
FFT :  disabled
Running average :  disabled
Kalman :  disabled
High pass :  disabled
---------------BEGIN--------------------
Wavelength(nm)             Reflectance(%)
200.29               0
200.75        35.07555
201.21        36.97934
201.67        38.37624
202.13        38.50159
202.58        37.25671
203.04        35.25666
203.50        32.83002
203.96        31.10431
204.42        31.14846
204.88        32.72412
205.34         35.9019
205.80        40.34374
206.26        44.89095
206.72        48.67002
207.18        50.86885
207.64        51.03618
208.10        49.32853
208.55        45.98036
209.01        40.12553
209.47        34.25155
209.93        31.90129
210.39        32.41561
210.85        34.38785
211.31        37.39997
211.77        42.42248
212.23        53.06852
212.69         79.1632
213.14        123.7009
213.60        122.3821
214.06        91.41386
214.52        69.90206
214.98        59.55469
215.44        54.16482
215.90        49.87931
216.36        46.95561
216.81        46.38042
217.27        48.84919
217.73        56.11856
218.19        66.31981
218.65        68.24658
219.11        59.32523
219.57        47.28414
220.02        40.11605
220.48        42.07961
220.94        52.69321
221.40        73.15754
221.86        102.3245
222.32        119.6376
222.77        108.8627
223.23        84.65845
223.69        61.81802
224.15        48.20397
224.61        42.11499
225.06        39.41558
225.52        39.16412
225.98        40.61511
226.44        43.14544
226.90        46.98494
227.36        50.53928
227.81        50.89479
228.27        47.96709
228.73        42.93819
229.19          38.205
229.65        36.53036
230.10        38.01684
230.56          41.662
231.02        45.77236
231.48        47.61364
231.93        46.61199
232.39        44.12773
232.85        41.47894
233.31         40.3634
233.77        40.98695
234.22        42.68127
234.68        44.71388
235.14        46.11664
235.60        46.55429
236.05        46.41068
236.51        45.79861
236.97        44.95065
237.43         44.0976
237.88        43.20181
238.34        42.54938
238.80        42.86152
239.26        44.43377
239.71        47.70866
240.17        52.35835
240.63        57.11257
241.08        61.00264
241.54        63.46974
242.00        65.39632
242.46        69.41478
242.91        77.76748
243.37        91.18512
243.83        110.5876
244.28        129.0543
244.74        133.9711
245.20        124.1106
245.66        108.0812
246.11        94.05199
246.57        83.39153
247.03        73.78699
247.48        65.47604
247.94        60.32228
248.40        58.83824
248.85        59.69289
249.31        61.13014
249.77        61.26144
250.22        59.65308
250.68         56.0439
251.14        51.13328
251.59        48.28074
252.05        49.65946
252.51        54.18865
252.96        57.66666
253.42        56.49834
253.88        51.52102
254.33        44.67413
254.79        40.01302
255.25        40.82357
255.70         46.5789
256.16        55.62702
256.62        63.84353
257.07          65.057
257.53        60.58776
257.99        54.25559
258.44        49.16986
258.90        47.97158
259.35        49.52421
259.81        52.57763
260.27        55.44721
260.72        56.10121
261.18        54.72882
261.63        52.19555
262.09         49.7765
262.55        48.31102
263.00        47.73635
263.46        47.72546
263.91         47.7055
264.37        47.24798
264.83        46.28055
265.28        45.02134
265.74        43.88548
266.19        43.09061
266.65        42.72083
267.11        42.56427
267.56        42.46185
268.02        42.17881
268.47        41.65419
268.93        41.01833
269.38        40.28428
269.84        39.51771
270.30        38.74422
270.75        37.92236
271.21        37.20064
271.66        36.75908
272.12        36.59885
272.57        36.62288
273.03        36.58847
273.48         36.0946
273.94        35.13385
274.39        33.85375
274.85         32.5521
275.31        31.50759
275.76        30.77343
276.22        30.27683
276.67        29.93997
277.13        29.73222
277.58        29.56039
278.04        29.45131
278.49         29.2643
278.95        28.89545
279.40        28.29592
279.86        27.57919
280.31        26.80513
280.77         26.1617
281.22        25.65737
281.68        25.28901
282.13         25.0114
282.59        24.83317
283.04        24.70765
283.50        24.64785
283.95        24.59854
284.41        24.48109
284.86        24.27779
285.32          24.029
285.77        23.76687
286.22        23.59475
286.68        23.52927
287.13        23.50967
287.59        23.51208
288.04        23.45946
288.50        23.35262
288.95        23.19322
289.41        23.01164
289.86        22.79263
290.32        22.57622
290.77        22.36234
291.22        22.18983
291.68        22.10219
292.13        22.10663
292.59        22.21316
293.04        22.41997
293.50        22.73794
293.95        23.14878
294.40        23.63968
294.86        24.18098
295.31        24.72336
295.77        25.24914
296.22        25.74681
296.68        26.21894
297.13        26.66393
297.58        27.09127
298.04        27.50782
298.49        27.91407
298.95        28.32599
299.40        28.74469
299.85        29.17433
300.31         29.6262
300.76        30.10638
301.21        30.60854
301.67        31.12883
302.12        31.62183
302.58         32.0746
303.03        32.45254
303.48        32.77774
303.94        33.05576
304.39        33.26648
304.84        33.42642
305.30        33.55087
305.75        33.64979
306.20        33.79092
306.66        33.99003
307.11        34.21515
307.57        34.42869
308.02        34.52557
308.47        34.50001
308.93        34.39019
309.38        34.24619
309.83        34.19112
310.29        34.24697
310.74        34.37029
311.19        34.48625
311.65        34.46852
312.10        34.28729
312.55        33.99094
313.00        33.66495
313.46        33.43266
313.91         33.3113
314.36         33.2696
314.82        33.24625
315.27        33.15408
315.72        32.96469
316.18        32.71478
316.63         32.4378
317.08        32.19909
317.53        32.01094
317.99        31.84208
318.44         31.6661
318.89        31.43272
319.35        31.13328
319.80        30.79414
320.25        30.43989
320.70         30.1049
321.16        29.80391
321.61        29.54097
322.06        29.31699
322.51        29.13622
322.97        28.98847
323.42        28.86616
323.87        28.76361
324.32        28.67833
324.78        28.58723
325.23         28.4981
325.68        28.34518
326.13        28.03642
326.59        27.56807
327.04        26.99188
327.49        26.41192
327.94        25.98798
328.39        25.75322
328.85        25.65392
329.30        25.63947
329.75        25.56205
330.20        25.37595
330.66        25.12283
331.11        24.84629
331.56        24.59628
332.01        24.39014
332.46        24.19355
332.92        24.00577
333.37        23.87406
333.82        23.78905
334.27        23.75765
334.72        23.72305
335.17        23.58342
335.63        23.32111
336.08        22.97585
336.53        22.64249
336.98         22.4902
337.43         22.5528
337.88         22.7683
338.34        23.02325
338.79        23.14691
339.24        23.07137
339.69        22.85291
340.14        22.53712
340.59        22.20361
341.05         21.9048
341.50          21.622
341.95          21.394
342.40        21.27929
342.85         21.2812
343.30        21.38365
343.75        21.53155
344.20        21.62723
344.66        21.64219
345.11        21.59516
345.56        21.50388
346.01        21.40579
346.46        21.31924
346.91        21.23216
347.36        21.15879
347.81        21.12498
348.26        21.13092
348.72        21.17171
349.17        21.21661
349.62        21.22385
350.07        21.18257
350.52         21.1067
350.97        21.00428
351.42        20.89323
351.87        20.78276
352.32        20.66486
352.77        20.55824
353.22        20.48776
353.67          20.455
354.13        20.46223
354.58        20.46517
355.03        20.39452
355.48        20.24108
355.93        20.02538
356.38        19.82273
356.83        19.74714
357.28        19.81301
357.73        19.97962
358.18        20.15288
358.63        20.17894
359.08         20.0231
359.53        19.73952
359.98        19.41475
360.43        19.17777
360.88        19.06028
361.33         19.0193
361.78         19.0104
362.23        18.96383
362.68        18.85969
363.13        18.72893
363.58        18.58579
364.03        18.44683
364.48        18.31981
364.93        18.19311
365.38        18.08077
365.83        18.00937
366.28        17.98234
366.73        17.99616
367.18        18.01584
367.63        17.98548
368.08        17.89208
368.53        17.74436
368.98        17.58773
369.43        17.49635
369.88        17.48426
370.33        17.53213
370.78        17.57437
371.23        17.50282
371.68        17.29704
372.13        16.99452
372.58        16.68522
373.03        16.50984
373.48        16.50055
373.93         16.6131
374.38        16.76143
374.83         16.8081
375.28        16.71475
375.72        16.51695
376.17        16.29161
376.62        16.13249
377.07        16.06464
377.52        16.05952
377.97        16.06487
378.42        16.00199
378.87         15.8557
379.32        15.65441
379.77        15.46393
380.22        15.37556
380.67        15.40286
381.11        15.52195
381.56         15.6441
382.01        15.63461
382.46        15.46779
382.91        15.19822
383.36        14.92554
383.81        14.78712
384.26        14.80601
384.71        14.93412
385.15        15.09891
385.60        15.18412
386.05        15.15171
386.50        15.04004
386.95        14.89028
387.40        14.76643
387.85         14.6877
388.29        14.62029
388.74        14.56719
389.19        14.50135
389.64        14.41501
390.09        14.31801
390.54         14.2117
390.98        14.09279
391.43        13.97748
391.88        13.86939
392.33        13.77654
392.78         13.7095
393.23        13.66854
393.67        13.64094
394.12        13.63784
394.57        13.64851
395.02        13.66638
395.47        13.68533
395.91         13.6953
396.36        13.67177
396.81        13.61979
397.26        13.55046
397.71         13.4719
398.15        13.40447
398.60         13.3706
399.05        13.30951
399.50         13.2417
399.95        13.29364
400.39        13.42187
400.84        13.38407
401.29        13.19302
401.74        13.07889
402.18        13.05673
402.63        12.98951
403.08        12.89215
403.53        12.84739
403.97        12.85844
404.42        12.90276
404.87        12.94648
405.32        12.93241
405.76        12.84821
406.21        12.72159
406.66         12.5892
407.11        12.50965
407.55        12.50026
408.00        12.53467
408.45        12.58974
408.90        12.61805
409.34        12.60095
409.79        12.55525
410.24        12.49093
410.68        12.41573
411.13        12.33867
411.58        12.25524
412.03        12.17126
412.47        12.10319
412.92        12.05519
413.37         12.0308
413.81        12.02505
414.26        12.03829
414.71        12.06214
415.15        12.09473
415.60        12.12621
416.05        12.14913
416.49        12.15886
416.94        12.15436
417.39        12.12944
417.83        12.07547
418.28        11.99399
418.73        11.88935
419.17        11.78672
419.62        11.72606
420.07        11.71597
420.51        11.74218
420.96        11.77903
421.41        11.78273
421.85        11.73923
422.30        11.66068
422.74         11.5619
423.19        11.51812
423.64        11.51758
424.08        11.47882
424.53        11.40215
424.98        11.38096
425.42        11.42501
425.87         11.4573
426.31        11.46319
426.76        11.50328
427.21        11.53723
427.65        11.40998
428.10        11.18742
428.54        11.08872
428.99        11.13754
429.44        11.26639
429.88        11.40096
430.33        11.38259
430.77        11.23293
431.22        11.18453
431.66         11.2508
432.11        11.25707
432.56        11.21134
433.00        11.25574
433.45        11.33078
433.89        11.24978
434.34        11.08814
434.78        10.80442
435.23        11.01719
435.67        11.02295
436.12        10.97866
436.57        10.91047
437.01        10.84173
437.46        10.81827
437.90        10.83883
438.35         10.8564
438.79        10.85518
439.24        10.84762
439.68        10.83072
440.13        10.80187
440.57        10.76105
441.02        10.72236
441.46        10.69066
441.91        10.63513
442.35        10.56993
442.80        10.61719
443.24        10.73089
443.69        10.72581
444.13        10.61036
444.58        10.56817
445.02         10.6022
445.47        10.60892
445.91        10.58624
446.36        10.58399
446.80        10.59937
447.24        10.61787
447.69        10.63193
448.13        10.62426
448.58        10.59478
449.02        10.55055
449.47        10.50124
449.91        10.45612
450.36        10.42371
450.80         10.4018
451.25        10.39532
451.69        10.40634
452.13        10.43293
452.58        10.46839
453.02        10.50598
453.47        10.53683
453.91        10.55563
454.36        10.56577
454.80        10.55507
455.24        10.50369
455.69        10.41874
456.13        10.30525
456.58        10.20579
457.02        10.16563
457.46        10.19703
457.91        10.28138
458.35        10.37916
458.79        10.42733
459.24        10.41846
459.68        10.36406
460.13        10.30087
460.57        10.25582
461.01        10.24738
461.46        10.25585
461.90        10.27864
462.34        10.30241
462.79        10.31779
463.23         10.3332
463.68        10.33907
464.12        10.32524
464.56        10.28892
465.01        10.24629
465.45        10.19235
465.89        10.14927
466.34        10.12115
466.78        10.10209
467.22        10.09564
467.67        10.09797
468.11        10.11363
468.55        10.13869
468.99         10.1712
469.44        10.20624
469.88        10.24079
470.32        10.27294
470.77        10.30028
471.21        10.32296
471.65        10.33942
472.10        10.35195
472.54        10.35799
472.98         10.3588
473.42        10.35672
473.87        10.35717
474.31        10.35906
474.75        10.37058
475.20        10.39539
475.64        10.42625
476.08        10.46415
476.52        10.50451
476.97        10.54517
477.41        10.59151
477.85        10.64069
478.29        10.67273
478.74        10.69415
479.18        10.73334
479.62        10.78639
480.06        10.82977
480.50        10.86433
480.95        10.89134
481.39        10.90196
481.83        10.98794
482.27        10.98985
482.72        11.04367
483.16        11.11084
483.60        11.18146
484.04        11.24645
484.48        11.37751
484.93        11.59821
485.37        11.61659
485.81        11.75939
486.25        12.03322
486.69        11.69711
487.14        11.73697
487.58        12.51577
488.02        12.31503
488.46         12.1324
488.90        12.21631
489.34        12.16023
489.79        12.33401
490.23        12.45095
490.67        12.61417
491.11        12.75787
491.55        12.75041
491.99        12.64886
492.43        12.66706
492.88        12.82848
493.32        13.00494
493.76         13.1684
494.20        13.34105
494.64        13.51537
495.08        13.65736
495.52        13.76324
495.96        13.91932
496.41        14.09818
496.85        14.08886
497.29        13.94695
497.73        14.08612
498.17        14.30869
498.61        14.50978
499.05        14.59651
499.49        14.68923
499.93        14.75422
500.37        14.87828
500.82        15.03156
501.26        15.12478
501.70        15.15241
502.14        15.16973
502.58        15.21587
503.02        15.32312
503.46        15.49726
503.90        15.72816
504.34        15.95274
504.78        16.06456
505.22        16.04189
505.66        15.91963
506.10        15.77027
506.54        15.70998
506.98        15.77013
507.42        15.91682
507.86        16.10335
508.30        16.25157
508.74          16.335
509.18        16.37727
509.62        16.39935
510.06        16.43359
510.50        16.49069
510.94        16.55673
511.38        16.62081
511.82        16.66951
512.26        16.69985
512.70        16.71923
513.14        16.73914
513.58        16.77556
514.02        16.83076
514.46         16.8968
514.90        16.96017
515.34        16.99999
515.78        17.01073
516.22        16.99962
516.66        16.97396
517.10        16.94589
517.54        16.92069
517.98        16.89476
518.42        16.87152
518.86        16.85628
519.30        16.84878
519.74        16.84866
520.18        16.84649
520.62        16.82595
521.06        16.78462
521.50          16.728
521.93        16.66954
522.37        16.62547
522.81        16.60384
523.25        16.59888
523.69        16.60217
524.13        16.60047
524.57        16.58838
525.01        16.56743
525.45        16.54037
525.89        16.51207
526.32        16.48151
526.76        16.45007
527.20        16.41069
527.64          16.355
528.08        16.28342
528.52        16.20083
528.96        16.11975
529.40        16.05841
529.83        16.02065
530.27        16.00264
530.71        15.99165
531.15        15.96814
531.59        15.92776
532.03        15.87596
532.46        15.82109
532.90        15.78788
533.34        15.77743
533.78        15.77231
534.22        15.76268
534.66        15.75379
535.09        15.73097
535.53        15.66346
535.97         15.5661
536.41        15.50205
536.85        15.48084
537.28        15.47387
537.72        15.48157
538.16        15.51525
538.60        15.57156
539.04        15.64525
539.47        15.72502
539.91        15.80337
540.35        15.87377
540.79        15.93929
541.22        15.99871
541.66         16.0574
542.10        16.11584
542.54        16.17317
542.97        16.23591
543.41        16.32086
543.85        16.42832
544.29        16.55639
544.72        16.68822
545.16        16.80955
545.60          16.914
546.04        17.00812
546.47         17.1097
546.91        17.24365
547.35        17.41132
547.79        17.60302
548.22        17.79361
548.66         17.9424
549.10        18.06354
549.53         18.1604
549.97        18.25495
550.41        18.34062
550.84        18.44338
551.28        18.60332
551.72        18.78708
552.15        18.95627
552.59        19.12504
553.03         19.0278
553.46        19.25105
553.90        19.31787
554.34        19.40235
554.77          19.496
555.21        19.61044
555.65        19.74746
556.08        19.89472
556.52        20.03986
556.96        20.15901
557.39        20.27105
557.83        20.35667
558.27        20.30825
558.70        20.17523
559.14        20.15829
559.57        20.26282
560.01        20.37523
560.45        20.46906
560.88        20.56725
561.32        20.67048
561.75        20.74966
562.19        20.82029
562.63        20.90217
563.06        20.99429
563.50        21.09199
563.93        21.16614
564.37        21.22736
564.80        21.28305
565.24        21.28484
565.68        21.21134
566.11        21.48809
566.55        21.35118
566.98        21.43563
567.42        21.53842
567.85        21.67673
568.29        21.85342
568.72        22.07457
569.16        22.34302
569.60        22.53419
570.03        22.72305
570.47        22.90149
570.90        23.09559
571.34        23.12288
571.77        23.34909
572.21        23.47634
572.64        23.59333
573.08        23.73904
573.51        23.92904
573.95         24.0113
574.38        24.03273
574.82         24.2412
