SpectraSmart Spectrum 2.9.0.0
--------- Device Information -----------
Spectrum Name :  反射率_0
Saving Time :  2024/04/26 22:57:13
Spectro-Module Model Name : SE2030-DUVN
Spectro-Module Serial Number : OS361AC55029948
Wavelength Start : 200
Wavelength End : 1025
Wavelength Unit : Wavelength(nm)
Spectrum Unit : Reflectance(%)
-----------Spectrum Setting ------------
Integration Time : 20ms
Average : 10
Boxcar : 0
Background removal :  enabled
linearity correction :  enabled
SC :  disabled
Intensity correction :  disabled
DWT denoise :  enabled
savitzky-golay :  disabled
FFT :  disabled
Running average :  disabled
Kalman :  disabled
High pass :  disabled
---------------BEGIN--------------------
Wavelength(nm)             Reflectance(%)
200.29               0
200.75        36.80674
201.21        37.92808
201.67        38.73101
202.13        37.98166
202.58        35.38976
203.04         31.4316
203.50        26.64462
203.96        23.28265
204.42        23.22185
204.88        26.15257
205.34        31.01902
205.80         35.2494
206.26        37.40775
206.72        37.90472
207.18        37.02157
207.64        34.89498
208.10        31.39705
208.55        25.80493
209.01         17.6269
209.47        11.43586
209.93         11.1855
210.39        14.75299
210.85        18.57347
211.31        20.88501
211.77        22.15114
212.23        23.20118
212.69        26.26307
213.14         40.5922
213.60        55.39481
214.06        57.25412
214.52        53.95587
214.98        50.45869
215.44        46.82928
215.90        42.05658
216.36        37.63857
216.81        36.07669
217.27        38.59581
217.73        46.29604
218.19        57.48188
218.65        60.87312
219.11        53.07058
219.57        41.95847
220.02        35.02922
220.48        36.02942
220.94        44.52636
221.40         61.3839
221.86        86.20582
222.32        103.1627
222.77        97.99975
223.23        81.14736
223.69         64.0854
224.15        53.33026
224.61        47.98723
225.06         45.0633
225.52        43.99448
225.98        44.22591
226.44        45.36964
226.90        47.64253
227.36        50.15957
227.81        51.19997
228.27         50.6074
228.73        48.81382
229.19        47.15756
229.65        47.29529
230.10        49.25526
230.56        52.44851
231.02        55.54754
231.48        56.44862
231.93         54.8254
232.39        51.89888
232.85        48.93159
233.31        47.54885
233.77         47.9358
234.22        49.51122
234.68        51.52917
235.14        52.96197
235.60        53.44505
236.05         53.3064
236.51        52.69922
236.97        51.99712
237.43        51.42513
237.88         50.9065
238.34        50.40907
238.80        50.12535
239.26        50.13501
239.71        50.77334
240.17        51.93049
240.63        53.65283
241.08        55.94183
241.54        58.28257
242.00        60.94685
242.46        64.80123
242.91        70.87334
243.37        79.55532
243.83        90.25307
244.28        95.77235
244.74        88.13745
245.20        70.63103
245.66        53.29319
246.11        42.67543
246.57         38.4976
247.03        37.80584
247.48        40.53103
247.94        45.61951
248.40        50.75795
248.85        55.21134
249.31        57.66674
249.77        56.60629
250.22        51.84819
250.68        42.66804
251.14        30.66004
251.59        23.63502
252.05        26.67726
252.51        37.13783
252.96           47.52
253.42        50.88947
253.88         48.1295
254.33        42.27072
254.79        38.53114
255.25          41.547
255.70        50.73167
256.16        63.68844
256.62        75.01772
257.07        76.64497
257.53        70.35688
257.99        61.48243
258.44        54.04842
258.90        51.19892
259.35        51.66687
259.81        53.96484
260.27        56.37022
260.72        56.86976
261.18        55.59145
261.63        53.32183
262.09         51.2378
262.55        50.06435
263.00        49.71837
263.46        49.91027
263.91        50.03572
264.37        49.64676
264.83        48.67712
265.28         47.3432
265.74        46.15315
266.19        45.43745
266.65         45.2873
267.11        45.45689
267.56        45.65318
268.02        45.42697
268.47        44.67747
268.93         43.6029
269.38        42.39546
269.84        41.39655
270.30        40.68239
270.75        40.12922
271.21        39.70016
271.66        39.28592
272.12        38.84357
272.57        38.38926
273.03        37.87199
273.48        37.19128
273.94        36.39626
274.39        35.49227
274.85        34.63065
275.31        33.89362
275.76         33.2774
276.22        32.78352
276.67        32.34797
277.13        31.95979
277.58        31.55807
278.04         31.1819
278.49        30.75366
278.95        30.27484
279.40        29.70341
279.86        29.10675
280.31        28.49757
280.77        27.99469
281.22        27.57719
281.68        27.27102
282.13        26.99352
282.59        26.70709
283.04        26.37276
283.50        26.02025
283.95        25.69381
284.41        25.48309
284.86        25.39369
285.32        25.40303
285.77        25.41566
286.22        25.35387
286.68        25.20265
287.13        24.96461
287.59        24.70135
288.04        24.46574
288.50        24.29764
288.95        24.15443
289.41        24.03021
289.86        23.85638
290.32        23.65692
290.77        23.45092
291.22        23.28649
291.68        23.21623
292.13        23.24738
292.59         23.3788
293.04        23.60052
293.50         23.9173
293.95        24.30774
294.40        24.76231
294.86        25.25729
295.31        25.74953
295.77        26.22993
296.22        26.69703
296.68          27.154
297.13        27.59644
297.58        28.03864
298.04        28.48861
298.49        28.97097
298.95          29.539
299.40        30.18906
299.85        30.90166
300.31        31.63664
300.76        32.32166
301.21        32.93616
301.67        33.50592
302.12        34.02076
302.58        34.52717
303.03        35.00857
303.48        35.46922
303.94        35.91756
304.39        36.33417
304.84        36.72869
305.30        37.11546
305.75        37.47075
306.20        37.81262
306.66        38.14867
307.11        38.45737
307.57        38.73647
308.02        38.93113
308.47        39.04892
308.93        39.11332
309.38        39.14742
309.83        39.23948
310.29        39.40327
310.74        39.60587
311.19         39.7888
311.65           39.85
312.10        39.76042
312.55        39.55322
313.00        39.29769
313.46        39.09571
313.91        38.95923
314.36        38.87021
314.82        38.77482
315.27        38.59923
315.72         38.3256
316.18        37.99472
316.63        37.65362
317.08        37.38705
317.53        37.21194
317.99        37.09504
318.44          36.992
318.89        36.82151
319.35        36.55989
319.80        36.22672
320.25        35.86467
320.70        35.54156
321.16        35.27382
321.61        35.05946
322.06        34.84524
322.51         34.5486
322.97         34.1526
323.42        33.68766
323.87        33.24697
324.32        32.98475
324.78        32.91389
325.23        33.00105
325.68        33.08975
326.13        32.92484
326.59        32.44774
327.04         31.7573
327.49        31.01091
327.94        30.45537
328.39         30.1513
328.85        30.00995
329.30        29.97218
329.75        29.87266
330.20        29.65564
330.66        29.37385
331.11        29.06689
331.56         28.7653
332.01        28.48537
332.46        28.19953
332.92        27.90954
333.37        27.68006
333.82        27.50392
334.27        27.37316
334.72        27.25341
335.17        27.07838
335.63        26.83048
336.08        26.55091
336.53        26.25745
336.98        25.99006
337.43        25.76661
337.88        25.56767
338.34        25.41987
338.79        25.39394
339.24         25.4814
339.69        25.66502
340.14        25.84069
340.59        25.84019
341.05        25.63754
341.50        25.27666
341.95        24.88305
342.40        24.65341
342.85        24.63287
343.30        24.76053
343.75        24.93373
344.20        24.98615
344.66        24.87299
345.11        24.64437
345.56        24.37459
346.01        24.17787
346.46        24.09008
346.91        24.07955
347.36        24.08967
347.81        24.03856
348.26        23.90671
348.72        23.71896
349.17        23.53958
349.62        23.47727
350.07        23.54968
350.52        23.72466
350.97        23.88982
351.42        23.86924
351.87         23.6319
352.32        23.23467
352.77        22.82565
353.22        22.62291
353.67        22.66565
354.13        22.88892
354.58        23.14104
355.03        23.17291
355.48        22.92874
355.93        22.49905
356.38        22.03908
356.83        21.77848
357.28         21.7646
357.73        21.91202
358.18        22.10882
358.63         22.1754
359.08        22.05815
359.53        21.82328
359.98        21.52456
360.43        21.23711
360.88        20.98733
361.33        20.74314
361.78        20.51501
362.23         20.3271
362.68        20.18145
363.13        20.08497
363.58        19.99469
364.03        19.83383
364.48        19.59046
364.93        19.28431
365.38        18.98249
365.83        18.79932
366.28        18.75702
366.73        18.81408
367.18        18.89455
367.63        18.87867
368.08        18.73766
368.53         18.5138
368.98         18.2546
369.43        18.03632
369.88        17.88295
370.33        17.76337
370.78        17.67307
371.23        17.60728
371.68        17.55632
372.13         17.5291
372.58        17.48782
373.03        17.36674
373.48        17.15895
373.93        16.88356
374.38        16.60649
374.83         16.4381
375.28        16.40002
375.72        16.44855
376.17        16.52916
376.62         16.5369
377.07        16.44676
377.52        16.29357
377.97        16.11011
378.42        15.95209
378.87        15.84059
379.32        15.75408
379.77        15.69149
380.22        15.65266
380.67         15.6292
381.11        15.62675
381.56        15.61203
382.01        15.54286
382.46        15.41639
382.91        15.25363
383.36        15.08922
383.81        14.96966
384.26        14.90439
384.71        14.87968
385.15        14.88285
385.60        14.89664
386.05        14.90848
386.50        14.91906
386.95        14.92274
387.40        14.91172
387.85        14.88424
388.29        14.83287
388.74        14.77441
389.19        14.69949
389.64        14.60977
390.09         14.5061
390.54        14.40379
390.98        14.32474
391.43        14.28329
391.88        14.27137
392.33        14.26789
392.78        14.24068
393.23        14.18503
393.67        14.10528
394.12        14.03425
394.57        13.99245
395.02        13.98247
395.47        13.98788
395.91         13.9982
396.36        13.98714
396.81        13.95668
397.26        13.92154
397.71        13.87597
398.15        13.81852
398.60        13.77142
399.05        13.67899
399.50        13.58418
399.95        13.65008
400.39        13.83816
400.84        13.88838
401.29        13.78918
401.74        13.74003
402.18         13.7451
402.63        13.67144
403.08        13.55004
403.53        13.49329
403.97        13.51365
404.42        13.58019
404.87        13.65268
405.32        13.66447
405.76        13.59914
406.21        13.48746
406.66        13.37041
407.11        13.31215
407.55        13.33142
408.00        13.40098
408.45        13.48747
408.90        13.52493
409.34        13.49308
409.79        13.41744
410.24        13.32897
410.68        13.26621
411.13        13.24331
411.58        13.24428
412.03        13.25699
412.47        13.26326
412.92        13.25223
413.37        13.23772
413.81        13.22085
414.26        13.21238
414.71        13.21103
415.15        13.21499
415.60        13.22434
416.05        13.25119
416.49        13.29553
416.94        13.34987
417.39         13.3987
417.83         13.4181
418.28        13.40123
418.73        13.35183
419.17        13.28735
419.62        13.23704
420.07        13.21074
420.51        13.20176
420.96        13.19576
421.41         13.1664
421.85        13.10694
422.30        13.02551
422.74        12.94329
423.19        12.94987
423.64        13.03065
424.08        13.09278
424.53        13.11467
424.98        13.16468
425.42        13.24273
425.87        13.26453
426.31        13.24052
426.76        13.28714
427.21        13.37024
427.65        13.29933
428.10        13.11709
428.54        13.02826
428.99        13.05291
429.44        13.13055
429.88        13.21509
430.33         13.1823
430.77        13.06656
431.22        13.11686
431.66        13.31075
432.11         13.3838
432.56        13.32867
433.00         13.3209
433.45        13.32316
433.89        13.21191
434.34        13.07976
434.78        12.78642
435.23        13.05339
435.67         13.0879
436.12        13.07053
436.57        13.00904
437.01        12.92889
437.46        12.89429
437.90        12.90855
438.35        12.91572
438.79         12.9133
439.24        12.94307
439.68        13.00408
440.13        13.08129
440.57        13.15743
441.02        13.21683
441.46        13.24879
441.91        13.22169
442.35        13.14989
442.80        13.18364
443.24        13.27087
443.69        13.18513
444.13        12.96136
444.58        12.86072
445.02        12.89614
445.47         12.9349
445.91        12.95521
446.36        12.98443
446.80        13.01031
447.24        13.02448
447.69        13.03107
448.13        13.03078
448.58         13.0278
449.02        13.02056
449.47        13.00784
449.91        12.98244
450.36        12.94911
450.80        12.90928
451.25        12.87963
451.69        12.87713
452.13        12.90476
452.58        12.95374
453.02        13.00418
453.47        13.02636
453.91        13.01227
454.36        12.97213
454.80        12.91595
455.24        12.85938
455.69        12.81348
456.13        12.76545
456.58        12.72937
457.02        12.70542
457.46        12.69808
457.91        12.70574
458.35        12.70753
458.79        12.67169
459.24        12.60609
459.68        12.51473
460.13        12.43432
460.57        12.38718
461.01        12.38912
461.46        12.41843
461.90        12.47192
462.34        12.53167
462.79        12.58428
463.23        12.64002
463.68        12.67318
464.12        12.65123
464.56        12.57165
465.01        12.46214
465.45         12.3482
465.89        12.29979
466.34        12.32476
466.78         12.4011
467.22        12.49718
467.67         12.5438
468.11        12.52843
468.55        12.46678
468.99        12.38908
469.44        12.34239
469.88        12.34103
470.32         12.3683
470.77        12.40924
471.21         12.4433
471.65        12.46077
472.10        12.47194
472.54        12.47486
472.98        12.47061
473.42          12.461
473.87        12.44775
474.31        12.42965
474.75        12.41884
475.20         12.4205
475.64        12.42814
476.08        12.44023
476.52        12.44613
476.97        12.44471
477.41        12.44615
477.85         12.4585
478.29        12.47626
478.74        12.51002
479.18        12.58634
479.62        12.68797
480.06        12.76529
480.50         12.8141
480.95         12.8445
481.39         12.8482
481.83        12.93662
482.27        12.91992
482.72        12.95203
483.16        13.00098
483.60        13.05072
484.04        13.07856
484.48         13.2576
484.93        13.57865
485.37        13.43104
485.81        13.27897
486.25        13.74834
486.69        13.46171
487.14        13.65545
487.58        14.25771
488.02        13.97681
488.46        13.91203
488.90        14.08076
489.34        13.98994
489.79        14.20094
490.23        14.28506
490.67        14.50967
491.11        14.75669
491.55        14.80847
491.99        14.71292
492.43        14.73684
492.88        14.90455
493.32        15.05516
493.76        15.16645
494.20        15.28984
494.64        15.42515
495.08        15.52739
495.52          15.605
495.96        15.77427
496.41        16.00412
496.85        16.05033
497.29        15.94591
497.73        16.11718
498.17        16.33065
498.61         16.4812
499.05        16.49327
499.49         16.5548
499.93        16.64031
500.37         16.8274
500.82        17.06773
501.26        17.23604
501.70        17.31359
502.14        17.37262
502.58         17.4437
503.02        17.53998
503.46        17.66981
503.90        17.82961
504.34        17.98408
504.78        18.07494
505.22        18.09032
505.66        18.04848
506.10        17.99571
506.54        18.00482
506.98         18.0937
507.42        18.24278
507.86         18.4091
508.30        18.52149
508.74        18.56154
509.18         18.5505
509.62        18.52912
510.06        18.56278
510.50        18.66607
510.94        18.81488
511.38         18.9698
511.82        19.06953
512.26        19.09829
512.70         19.0773
513.14        19.03719
513.58        19.02619
514.02        19.05917
514.46        19.12071
514.90        19.19276
515.34        19.24761
515.78        19.27553
516.22        19.28473
516.66        19.28467
517.10        19.28887
517.54         19.3009
517.98        19.31605
518.42        19.32338
518.86        19.30706
519.30        19.26602
519.74        19.20779
520.18        19.15065
520.62        19.12173
521.06        19.12632
521.50        19.15565
521.93        19.19279
522.37        19.20232
522.81        19.17796
523.25        19.12906
523.69        19.06861
524.13        19.01749
524.57        18.97988
525.01        18.94548
525.45         18.9087
525.89        18.86158
526.32        18.80007
526.76        18.73603
527.20        18.66413
527.64        18.57595
528.08        18.47505
528.52        18.36636
528.96        18.27186
529.40        18.22522
529.83        18.23024
530.27        18.27508
530.71        18.32966
531.15        18.34822
531.59        18.31609
532.03        18.24103
532.46         18.1402
532.90        18.05527
533.34        17.99414
533.78        17.93969
534.22        17.87368
534.66        17.78963
535.09         17.6739
535.53         17.5001
535.97        17.31322
536.41        17.22525
536.85        17.25062
537.28        17.34033
537.72        17.45628
538.16        17.54874
538.60        17.59795
539.04        17.61752
539.47        17.62164
539.91        17.64509
540.35         17.6941
540.79         17.7582
541.22        17.83082
541.66        17.90983
542.10         17.9907
542.54        18.07735
542.97        18.16875
543.41        18.26855
543.85        18.37512
544.29         18.4893
544.72        18.60531
545.16        18.72855
545.60        18.85683
546.04        18.99204
546.47        19.14187
546.91          19.314
547.35        19.50431
547.79        19.70751
548.22        19.90811
548.66        20.07926
549.10        20.24141
549.53        20.39449
549.97        20.54822
550.41        20.67135
550.84        20.78866
551.28        20.95181
551.72        21.14553
552.15        21.36174
552.59        21.62074
553.03        21.60662
553.46        21.95417
553.90         22.0764
554.34        22.16239
554.77        22.21924
555.21        22.28513
555.65        22.40196
556.08        22.56824
556.52        22.75786
556.96        22.93272
557.39        23.09724
557.83        23.22386
558.27        23.19661
558.70        23.07111
559.14          23.075
559.57        23.21357
560.01        23.35229
560.45        23.46577
560.88        23.58991
561.32        23.72668
561.75        23.84229
562.19        23.94202
562.63        24.02842
563.06        24.09959
563.50        24.15876
563.93         24.1965
564.37        24.26207
564.80        24.37057
565.24         24.4527
565.68        24.45643
566.11        24.83699
566.55        24.70147
566.98        24.77873
567.42        24.85268
567.85        25.00502
568.29        25.23123
568.72        25.45903
569.16        25.69545
569.60        25.87028
570.03        26.07243
570.47        26.24591
570.90        26.43029
571.34        26.47246
571.77        26.73755
572.21        26.93647
572.64        27.13559
573.08        27.28623
573.51        27.41136
573.95        27.49213
574.38         27.6097
574.82        27.72661
