SpectraSmart Spectrum 2.9.0.0
--------- Device Information -----------
Spectrum Name :  反射率_0
Saving Time :  2024/04/26 22:53:11
Spectro-Module Model Name : SE2030-DUVN
Spectro-Module Serial Number : OS361AC55029948
Wavelength Start : 200
Wavelength End : 1025
Wavelength Unit : Wavelength(nm)
Spectrum Unit : Reflectance(%)
-----------Spectrum Setting ------------
Integration Time : 20ms
Average : 10
Boxcar : 0
Background removal :  enabled
linearity correction :  enabled
SC :  disabled
Intensity correction :  disabled
DWT denoise :  enabled
savitzky-golay :  disabled
FFT :  disabled
Running average :  disabled
Kalman :  disabled
High pass :  disabled
---------------BEGIN--------------------
Wavelength(nm)             Reflectance(%)
200.29               0
200.75        44.52035
201.21        47.92104
201.67        51.41589
202.13         53.2302
202.58         53.2584
203.04        52.48784
203.50        51.80943
203.96        53.17313
204.42        57.76138
204.88         64.9243
205.34        72.62893
205.80        77.57549
206.26        78.50615
206.72        76.00455
207.18        72.63132
207.64        70.68647
208.10         70.4093
208.55        72.31445
209.01        74.06441
209.47        70.16606
209.93        61.59986
210.39        53.66001
210.85        49.88285
211.31        51.96703
211.77        61.21106
212.23        84.40165
212.69        144.5183
213.14        249.7235
213.60        253.3657
214.06        185.0188
214.52        136.2042
214.98        112.8756
215.44        101.3019
215.90        92.65649
216.36        86.62621
216.81        84.38874
217.27        86.57946
217.73         95.9566
218.19        110.6425
218.65        115.7919
219.11        106.6984
219.57        92.73767
220.02        84.27084
220.48        87.71181
220.94        102.7873
221.40        131.3738
221.86        172.7292
222.32        200.2171
222.77        190.3289
223.23        160.8761
223.69        131.5378
224.15         113.354
224.61        104.5896
225.06        100.0023
225.52        98.49627
225.98        98.63555
226.44        99.79704
226.90        102.4948
227.36        105.5583
227.81        106.6825
228.27        105.7255
228.73        103.1436
229.19        100.8448
229.65        101.2325
230.10        104.2567
230.56        109.0947
231.02        113.6426
231.48        114.6057
231.93         111.554
232.39        106.5244
232.85        101.4655
233.31        98.89489
233.77        99.09575
234.22        101.0548
234.68        103.9112
235.14        106.4299
235.60        108.0968
236.05        109.4698
236.51        110.0336
236.97        109.0623
237.43        106.4587
237.88         102.338
238.34        97.87921
238.80        95.45345
239.26         95.9103
239.71        99.95664
240.17        106.4196
240.63         111.978
241.08        114.5043
241.54        113.1228
242.00         111.106
242.46        115.8158
242.91         132.433
243.37        163.9241
243.83         210.028
244.28        245.6882
244.74         237.197
245.20        188.1623
245.66        132.3784
246.11        97.25212
246.57        82.76053
247.03        80.78899
247.48         84.9491
247.94        85.44889
248.40        81.14812
248.85        76.17838
249.31        73.41691
249.77         74.3313
250.22        78.71562
250.68        85.89193
251.14        94.37386
251.59        98.38962
252.05         95.0507
252.51        88.08039
252.96          80.215
253.42        74.27416
253.88         70.5612
254.33        67.79645
254.79        67.76571
255.25        71.74049
255.70         78.9606
256.16        88.67912
256.62         96.8503
257.07        97.31992
257.53        91.96389
257.99        84.71401
258.44        78.77486
258.90         77.1043
259.35        78.38526
259.81        81.50482
260.27        84.70844
260.72        85.89874
261.18        85.26595
261.63        83.39022
262.09        81.70663
262.55        81.02874
263.00        81.20114
263.46        81.99516
263.91        82.49025
264.37        82.02567
264.83        80.54895
265.28        78.43746
265.74        76.57944
266.19         75.6257
266.65        75.74136
267.11        76.49234
267.56         77.3887
268.02        77.67653
268.47        77.13763
268.93        76.09678
269.38         74.7512
269.84        73.49666
270.30        72.44315
270.75        71.42364
271.21        70.56153
271.66        69.96389
272.12        69.61419
272.57        69.44876
273.03        69.18472
273.48        68.31377
273.94        66.86295
274.39        64.98515
274.85        63.13288
275.31        61.71722
275.76        60.78231
276.22        60.23355
276.67        59.84138
277.13        59.45368
277.58        58.90453
278.04        58.29288
278.49        57.53365
278.95        56.68309
279.40        55.69216
279.86        54.68155
280.31        53.58927
280.77        52.52147
281.22        51.44635
281.68        50.45676
282.13        49.58658
282.59        49.03028
283.04        48.71778
283.50        48.61205
283.95        48.51012
284.41        48.13913
284.86        47.43412
285.32        46.53015
285.77        45.56695
286.22        44.83437
286.68        44.38239
287.13        44.07583
287.59        43.81678
288.04        43.38636
288.50        42.78216
288.95        42.04855
289.41        41.30843
289.86        40.63349
290.32         40.0975
290.77        39.63824
291.22        39.24718
291.68        38.89395
292.13        38.54599
292.59        38.23103
293.04         37.9606
293.50        37.78265
293.95        37.68899
294.40        37.66593
294.86        37.66763
295.31        37.61153
295.77        37.49549
296.22        37.33891
296.68        37.20728
297.13        37.17762
297.58        37.27586
298.04        37.47625
298.49         37.7317
298.95        37.98959
299.40        38.21704
299.85        38.42854
300.31        38.63357
300.76        38.83117
301.21        39.02525
301.67        39.22135
302.12        39.38745
302.58        39.54686
303.03        39.67253
303.48        39.78266
303.94         39.8969
304.39        40.00214
304.84        40.11019
305.30        40.23147
305.75        40.33086
306.20        40.41431
306.66        40.49429
307.11        40.56095
307.57        40.62981
308.02         40.6685
308.47        40.68879
308.93        40.70021
309.38        40.71905
309.83        40.82637
310.29        41.02453
310.74        41.27592
311.19        41.49616
311.65        41.54327
312.10        41.38404
312.55        41.06818
313.00        40.69971
313.46        40.43277
313.91        40.29493
314.36        40.25771
314.82        40.25261
315.27        40.17962
315.72        40.00599
316.18        39.77158
316.63        39.52638
317.08        39.36253
317.53        39.29518
317.99        39.28668
318.44        39.26833
318.89        39.12053
319.35        38.82064
319.80        38.40972
320.25        37.97875
320.70        37.67237
321.16         37.5219
321.61        37.49478
322.06        37.50328
322.51        37.40541
322.97        37.15734
323.42        36.80756
323.87        36.43283
324.32        36.16289
324.78         36.0189
325.23        35.98166
325.68        35.95683
326.13        35.79962
326.59        35.47815
327.04         35.0571
327.49        34.63534
327.94        34.36902
328.39        34.28928
328.85        34.32836
329.30        34.43072
329.75        34.42839
330.20        34.27087
330.66        34.00412
331.11        33.70018
331.56        33.44719
332.01        33.27533
332.46        33.14428
332.92        33.02845
333.37        32.94206
333.82         32.8598
334.27        32.80066
334.72        32.73096
335.17        32.58506
335.63        32.35662
336.08        32.08424
336.53        31.83932
336.98        31.75628
337.43        31.86007
337.88        32.09328
338.34        32.37704
338.79        32.60895
339.24         32.7251
339.69        32.75806
340.14        32.67984
340.59        32.45348
341.05        32.11217
341.50         31.6778
341.95        31.27442
342.40        31.09196
342.85        31.16556
343.30        31.43677
343.75        31.79491
344.20        32.04905
344.66        32.13802
345.11        32.11049
345.56        32.00206
346.01        31.87627
346.46        31.76872
346.91        31.66307
347.36        31.58177
347.81        31.56779
348.26        31.62261
348.72        31.73233
349.17        31.86759
349.62        31.98927
350.07        32.07589
350.52        32.13529
350.97        32.12886
351.42        32.00264
351.87        31.76004
352.32        31.42347
352.77        31.08363
353.22        30.87042
353.67        30.81083
354.13        30.88035
354.58        30.98872
355.03        30.98211
355.48        30.82221
355.93         30.5481
356.38        30.27068
356.83        30.15809
357.28        30.23302
357.73        30.43297
358.18        30.61604
358.63        30.55632
359.08         30.2107
359.53        29.66691
359.98        29.07742
360.43        28.66443
360.88        28.47985
361.33        28.45312
361.78        28.48803
362.23        28.43236
362.68        28.24142
363.13        27.96651
363.58        27.66064
364.03         27.3995
364.48         27.2044
364.93        27.04659
365.38        26.89588
365.83        26.71162
366.28        26.48741
366.73        26.24478
367.18        26.01739
367.63        25.85164
368.08        25.75449
368.53        25.70617
368.98        25.67154
369.43        25.59542
369.88        25.46267
370.33        25.28971
370.78        25.09673
371.23        24.92153
371.68        24.77587
372.13        24.64226
372.58        24.51948
373.03        24.40511
373.48         24.2935
373.93        24.19127
374.38        24.07104
374.83         23.8885
375.28         23.6426
375.72        23.34303
376.17        23.06132
376.62        22.87561
377.07        22.80107
377.52        22.81567
377.97        22.85725
378.42        22.82617
378.87        22.69815
379.32        22.49858
379.77        22.29407
380.22        22.18209
380.67        22.17813
381.11        22.25874
381.56         22.3319
382.01        22.26796
382.46        22.04646
382.91        21.72571
383.36        21.41024
383.81        21.24149
384.26        21.24029
384.71        21.35491
385.15         21.5075
385.60        21.57102
386.05        21.50614
386.50        21.35634
386.95        21.16409
387.40         20.9952
387.85        20.87469
388.29        20.76898
388.74        20.69862
389.19        20.64499
389.64        20.60065
390.09        20.56818
390.54        20.54032
390.98        20.49667
391.43        20.44544
391.88        20.38821
392.33        20.32718
392.78        20.26671
393.23        20.21041
393.67        20.14898
394.12        20.10997
394.57        20.09425
395.02        20.10035
395.47         20.1182
395.91        20.14256
396.36        20.15207
396.81        20.15067
397.26        20.14584
397.71        20.12553
398.15        20.08606
398.60        20.05364
399.05         19.9466
399.50        19.81228
399.95        19.86518
400.39        20.04653
400.84        19.98888
401.29        19.70486
401.74        19.52666
402.18        19.47657
402.63        19.35888
403.08         19.2045
403.53        19.14579
403.97        19.19129
404.42        19.30538
404.87        19.43736
405.32          19.503
405.76        19.47803
406.21        19.39448
406.66        19.29952
407.11        19.27131
407.55        19.33299
408.00        19.45044
408.45        19.57783
408.90        19.62545
409.34        19.56656
409.79         19.4355
410.24        19.28522
410.68        19.18207
411.13        19.14897
411.58        19.16776
412.03        19.20291
412.47        19.19654
412.92        19.12812
413.37        19.02349
413.81        18.92738
414.26        18.91851
414.71        19.00285
415.15         19.1657
415.60        19.33839
416.05        19.41879
416.49        19.37969
416.94        19.24639
417.39        19.09869
417.83        19.05936
418.28        19.15315
418.73        19.33921
419.17        19.53839
419.62        19.62424
420.07         19.5675
420.51         19.4088
420.96        19.22305
421.41        19.11856
421.85        19.11543
422.30        19.17078
422.74        19.22915
423.19        19.29951
423.64        19.33572
424.08        19.24048
424.53        19.06114
424.98        19.02425
425.42        19.16746
425.87         19.3336
426.31        19.46446
426.76        19.61521
427.21        19.70638
427.65        19.49147
428.10        19.10364
428.54        18.94787
428.99        19.07207
429.44        19.34678
429.88        19.63699
430.33        19.65984
430.77        19.44557
431.22        19.39751
431.66        19.53553
432.11        19.56253
432.56        19.49368
433.00          19.565
433.45        19.67602
433.89        19.55292
434.34        19.31106
434.78         18.7962
435.23        19.11485
435.67        19.15389
436.12        19.18903
436.57        19.20983
437.01          19.215
437.46        19.23176
437.90        19.24516
438.35        19.19978
438.79        19.10974
439.24        19.06211
439.68        19.06917
440.13        19.10386
440.57        19.16282
441.02         19.2599
441.46         19.3797
441.91        19.45977
442.35        19.48313
442.80        19.62127
443.24        19.78995
443.69        19.67029
444.13        19.32527
444.58        19.15825
445.02        19.19656
445.47        19.23534
445.91        19.25081
446.36        19.29663
446.80        19.35463
447.24        19.41297
447.69        19.45406
448.13        19.43935
448.58         19.3716
449.02        19.26426
449.47        19.15178
449.91        19.07964
450.36        19.06741
450.80         19.0962
451.25        19.16102
451.69        19.24039
452.13        19.32309
452.58        19.40537
453.02        19.46963
453.47        19.49083
453.91        19.46495
454.36        19.40547
454.80        19.31635
455.24        19.20624
455.69        19.09347
456.13        18.96815
456.58        18.88177
457.02        18.87843
457.46        18.96756
457.91        19.13084
458.35        19.29053
458.79        19.32808
459.24        19.23804
459.68        19.04777
460.13        18.85513
460.57        18.75953
461.01        18.79823
461.46        18.92191
461.90        19.08835
462.34        19.21066
462.79         19.2528
463.23        19.24833
463.68        19.20178
464.12          19.133
464.56        19.05209
465.01        18.97499
465.45        18.89277
465.89        18.84791
466.34        18.84416
466.78        18.87075
467.22        18.92015
467.67        18.95701
468.11        18.98189
468.55        18.99446
468.99        19.00247
469.44        19.01778
469.88        19.04375
470.32        19.07048
470.77        19.09511
471.21         19.1182
471.65        19.13555
472.10        19.15153
472.54        19.15368
472.98        19.12874
473.42        19.07862
473.87        19.01749
474.31         18.9546
474.75        18.92186
475.20        18.92995
475.64        18.96157
476.08        19.01026
476.52        19.05516
476.97         19.0886
477.41        19.12422
477.85        19.16354
478.29        19.18139
478.74         19.1926
479.18         19.2448
479.62         19.3225
480.06        19.37033
480.50        19.38771
480.95        19.38057
481.39        19.34059
481.83        19.44334
482.27         19.4022
482.72        19.44187
483.16         19.4887
483.60        19.51304
484.04        19.49312
484.48        19.58237
484.93        19.79329
485.37        19.59559
485.81        19.61385
486.25        19.91195
486.69        19.35854
487.14        19.73083
487.58        20.29528
488.02        20.23095
488.46        20.11027
488.90        20.02813
489.34        20.24909
489.79         20.4487
490.23        20.55284
490.67        20.64319
491.11         20.6977
491.55        20.68009
491.99        20.62349
492.43        20.61533
492.88        20.67413
493.32         20.7603
493.76        20.86275
494.20        20.99272
494.64        21.14951
495.08        21.28705
495.52        21.39305
495.96        21.58735
496.41        21.81917
496.85        21.76381
497.29        21.49614
497.73        21.63423
498.17        21.87074
498.61        22.05208
499.05        22.05636
499.49        22.10088
499.93         22.1423
500.37        22.29466
500.82        22.51123
501.26        22.65426
501.70        22.70794
502.14         22.7611
502.58        22.83584
503.02        22.92188
503.46        23.02366
503.90        23.14198
504.34        23.25703
504.78         23.3356
505.22         23.3696
505.66        23.36935
506.10        23.35213
506.54         23.3461
506.98        23.36073
507.42        23.38932
507.86         23.4275
508.30        23.46695
508.74        23.50561
509.18        23.54958
509.62        23.59842
510.06        23.65041
510.50        23.70481
510.94         23.7576
511.38        23.81485
511.82        23.88728
512.26        23.97459
512.70        24.07365
513.14        24.16482
513.58        24.21712
514.02        24.22524
514.46        24.19716
514.90        24.16172
515.34        24.16624
515.78        24.21978
516.22        24.30689
516.66        24.39492
517.10        24.43098
517.54        24.40341
517.98        24.33202
518.42        24.24402
518.86         24.1822
519.30        24.16026
519.74        24.16464
520.18        24.18551
520.62        24.20714
521.06        24.22317
521.50        24.24056
521.93        24.25757
522.37          24.261
522.81        24.25278
523.25        24.23216
523.69        24.20824
524.13        24.19809
524.57        24.20228
525.01        24.21167
525.45        24.21444
525.89         24.1913
526.32        24.13556
526.76        24.06331
527.20        23.97545
527.64         23.8752
528.08        23.76942
528.52        23.65902
528.96        23.56502
529.40        23.51943
529.83        23.52392
530.27        23.56851
530.71        23.61823
531.15         23.6189
531.59        23.55749
532.03        23.44858
532.46        23.31735
532.90        23.22127
533.34        23.17136
533.78        23.14073
534.22        23.11249
534.66        23.08887
535.09        23.04749
535.53        22.94541
535.97        22.81071
536.41        22.74491
536.85        22.75978
537.28        22.80568
537.72        22.86623
538.16        22.93255
538.60        22.99398
539.04        23.05162
539.47        23.10183
539.91        23.15446
540.35        23.20692
540.79        23.25789
541.22        23.30567
541.66        23.35739
542.10        23.41139
542.54        23.46663
542.97        23.52421
543.41        23.59502
543.85        23.67725
544.29        23.77262
544.72        23.86585
545.16        23.94944
545.60        24.01854
546.04        24.08001
546.47        24.15697
546.91        24.28178
547.35        24.45628
547.79        24.66905
548.22        24.88606
548.66        25.05067
549.10        25.18139
549.53        25.28149
549.97        25.37736
550.41        25.45568
550.84        25.55116
551.28        25.71822
551.72        25.91507
552.15        26.09598
552.59        26.28191
553.03        26.10807
553.46        26.37093
553.90         26.4021
554.34        26.43961
554.77        26.47759
555.21        26.54848
555.65        26.68119
556.08         26.8645
556.52        27.07347
556.96        27.25669
557.39        27.40847
557.83        27.49568
558.27        27.38418
558.70        27.15439
559.14        27.09582
559.57        27.22032
560.01         27.3684
560.45        27.49305
560.88        27.60722
561.32        27.70817
561.75        27.76464
562.19        27.80551
562.63        27.86926
563.06        27.95778
563.50        28.05947
563.93        28.13342
564.37        28.19075
564.80        28.23927
565.24        28.21735
565.68        28.09021
566.11        28.41134
566.55        28.16811
566.98        28.19927
567.42        28.25032
567.85         28.3649
568.29        28.54759
568.72        28.80714
569.16        29.13553
569.60        29.28921
570.03        29.35242
570.47        29.45388
570.90        29.68291
571.34        29.33414
571.77        29.74565
572.21        29.91755
572.64         30.0115
573.08        30.23212
573.51        30.22175
573.95        30.36026
574.38        30.58027
574.82        30.63958
