SpectraSmart Spectrum 2.9.0.0
--------- Device Information -----------
Spectrum Name :  反射率_0
Saving Time :  2024/04/26 22:55:22
Spectro-Module Model Name : SE2030-DUVN
Spectro-Module Serial Number : OS361AC55029948
Wavelength Start : 200
Wavelength End : 1025
Wavelength Unit : Wavelength(nm)
Spectrum Unit : Reflectance(%)
-----------Spectrum Setting ------------
Integration Time : 20ms
Average : 10
Boxcar : 0
Background removal :  enabled
linearity correction :  enabled
SC :  disabled
Intensity correction :  disabled
DWT denoise :  enabled
savitzky-golay :  disabled
FFT :  disabled
Running average :  disabled
Kalman :  disabled
High pass :  disabled
---------------BEGIN--------------------
Wavelength(nm)             Reflectance(%)
200.29               0
200.75        10.00407
201.21        15.21321
201.67        20.56629
202.13        24.19549
202.58        26.02816
203.04        27.24824
203.50        28.01865
203.96        28.23828
204.42         27.8132
204.88        26.11852
205.34        23.86355
205.80        22.83327
206.26         23.3027
206.72         24.7887
207.18        25.86333
207.64        24.92758
208.10        21.59903
208.55        15.45134
209.01        6.671518
209.47        1.534383
209.93        3.894235
210.39        10.01399
210.85        15.22469
211.31        17.43562
211.77        17.00167
212.23        13.31428
212.69        4.775855
213.14        3.867347
213.60        26.27154
214.06        43.99294
214.52        48.89245
214.98        46.99116
215.44        41.48471
215.90        33.17721
216.36        24.13986
216.81          17.517
217.27        14.69416
217.73        15.14485
218.19        18.58802
218.65        21.77837
219.11        22.35311
219.57        21.69538
220.02         21.9647
220.48        25.21527
220.94        31.98476
221.40        43.15153
221.86        58.08361
222.32        66.30839
222.77        59.89027
223.23        46.89407
223.69         34.9199
224.15         27.8578
224.61        24.81104
225.06        23.63556
225.52        24.09871
225.98        26.16909
226.44        29.46621
226.90        33.99807
227.36        38.29189
227.81        39.63847
228.27         37.8189
228.73        33.89385
229.19        30.04306
229.65        28.78383
230.10        30.26092
230.56        33.61662
231.02        37.25523
231.48        38.60939
231.93        37.22208
232.39        34.39186
232.85        31.57448
233.31        30.63353
233.77        31.74074
234.22        34.16932
234.68        36.91668
235.14        38.56063
235.60        38.65808
236.05        37.68736
236.51        36.04223
236.97        34.55624
237.43        33.71683
237.88        33.32218
238.34        33.47339
238.80        34.53001
239.26        36.66967
239.71        40.49057
240.17        45.57588
240.63        50.28272
241.08        53.36181
241.54        53.96463
242.00        53.50363
242.46        55.79925
242.91        63.40988
243.37        77.49855
243.83        97.55454
244.28        111.0479
244.74         103.009
245.20        77.23434
245.66        49.99108
246.11        33.15359
246.57        26.43705
247.03         25.5125
247.48        28.69344
247.94        32.70198
248.40        35.56654
248.85        37.86847
249.31        39.35232
249.77        39.55789
250.22        38.48779
250.68        35.76199
251.14        32.10454
251.59         30.7237
252.05        33.33254
252.51        38.56216
252.96        42.79966
253.42        42.94104
253.88        39.73088
254.33        34.88517
254.79        31.42409
255.25        31.74023
255.70        35.51478
256.16        41.49174
256.62         47.1016
257.07        48.41148
257.53        46.10598
257.99        42.53283
258.44        39.42888
258.90        38.41495
259.35        38.81493
259.81        40.00947
260.27        41.16137
260.72         41.3189
261.18        40.58986
261.63        39.28522
262.09        38.03949
262.55        37.16317
263.00        36.60012
263.46        36.25494
263.91        35.82613
264.37        35.13142
264.83        34.17142
265.28        33.08002
265.74        32.12298
266.19        31.40554
266.65        30.97966
267.11        30.68626
267.56        30.50255
268.02        30.39106
268.47        30.30768
268.93         30.2882
269.38        30.12935
269.84        29.56084
270.30        28.56951
270.75        27.25504
271.21        25.99316
271.66        25.31853
272.12        25.31716
272.57         25.7825
273.03        26.34503
273.48         26.4042
273.94        25.85299
274.39        24.89257
274.85        23.81724
275.31        22.92478
275.76        22.29606
276.22         21.8502
276.67        21.53102
277.13        21.32469
277.58        21.16199
278.04        21.05425
278.49        20.91961
278.95        20.70984
279.40        20.37568
279.86        19.99237
280.31        19.51566
280.77        18.95955
281.22        18.33894
281.68         17.7115
282.13        17.17945
282.59         16.9305
283.04        16.95351
283.50        17.18537
283.95        17.47629
284.41        17.58096
284.86        17.44009
285.32        17.15247
285.77        16.80729
286.22        16.57401
286.68        16.49191
287.13        16.47563
287.59        16.51077
288.04        16.55066
288.50        16.58325
288.95        16.60848
289.41        16.59835
289.86        16.46057
290.32        16.22191
290.77        15.91857
291.22        15.64073
291.68        15.51675
292.13        15.57075
292.59        15.76851
293.04        16.07919
293.50        16.46444
293.95        16.88566
294.40        17.35008
294.86        17.80505
295.31        18.16455
295.77        18.42452
296.22        18.60574
296.68         18.7855
297.13        19.08244
297.58        19.52828
298.04        20.08605
298.49          20.705
298.95        21.31235
299.40        21.86909
299.85        22.39095
300.31        22.86756
300.76        23.28259
301.21          23.636
301.67        23.93583
302.12        24.18853
302.58        24.45324
303.03        24.72513
303.48        25.01288
303.94        25.30247
304.39         25.5477
304.84        25.74912
305.30        25.92618
305.75         26.0906
306.20        26.30289
306.66        26.57144
307.11        26.86147
307.57        27.12406
308.02        27.25369
308.47        27.24164
308.93         27.1254
309.38        26.96766
309.83        26.90185
310.29        26.95351
310.74        27.08058
311.19        27.20073
311.65         27.1748
312.10        26.97367
312.55        26.65214
313.00        26.30697
313.46        26.07856
313.91        25.98769
314.36        25.99228
314.82        26.02171
315.27        25.96998
315.72        25.80461
316.18        25.57108
316.63        25.30255
317.08        25.05988
317.53        24.86042
317.99        24.67501
318.44        24.50148
318.89        24.33136
319.35          24.158
319.80        23.98673
320.25        23.80051
320.70        23.56876
321.16        23.28644
321.61        22.97082
322.06        22.64537
322.51        22.35331
322.97        22.10641
323.42        21.89796
323.87        21.72117
324.32         21.5666
324.78        21.41754
325.23        21.28547
325.68        21.13963
326.13        20.93731
326.59        20.67487
327.04        20.37661
327.49        20.07996
327.94        19.84613
328.39         19.6862
328.85        19.57183
329.30         19.4965
329.75        19.41219
330.20        19.30163
330.66        19.17181
331.11         19.0279
331.56        18.86313
332.01        18.67647
332.46        18.46191
332.92         18.2208
333.37        17.99172
333.82        17.78024
334.27        17.59509
334.72        17.43004
335.17        17.26746
335.63        17.10485
336.08         16.9559
336.53        16.84607
336.98        16.82279
337.43        16.88575
337.88         17.0053
338.34        17.12232
338.79        17.15744
339.24        17.07773
339.69        16.90925
340.14        16.67504
340.59        16.41911
341.05        16.17511
341.50        15.93605
341.95        15.73546
342.40        15.62055
342.85        15.59474
343.30         15.6446
343.75        15.72223
344.20        15.74532
344.66         15.6952
345.11        15.59288
345.56        15.46747
346.01        15.37032
346.46        15.32012
346.91        15.29892
347.36        15.30376
347.81        15.33396
348.26        15.37948
348.72        15.43585
349.17        15.47986
349.62        15.48296
350.07        15.43781
350.52        15.35604
350.97        15.23758
351.42        15.08652
351.87         14.9175
352.32        14.73868
352.77        14.58882
353.22        14.52076
353.67        14.54049
354.13        14.63506
354.58        14.75347
355.03        14.81545
355.48        14.79628
355.93         14.7135
356.38        14.60641
356.83        14.53906
357.28        14.52211
357.73        14.52859
358.18         14.5219
358.63         14.4459
359.08        14.29053
359.53        14.08492
359.98        13.85785
360.43        13.64644
360.88        13.46371
361.33        13.29868
361.78         13.1559
362.23        13.04313
362.68        12.95948
363.13        12.90647
363.58        12.86089
364.03        12.78357
364.48        12.66634
364.93        12.51624
365.38        12.36434
365.83        12.26497
366.28        12.22867
366.73        12.23589
367.18        12.24877
367.63        12.20862
368.08        12.10137
368.53        11.94692
368.98        11.77519
369.43        11.63209
369.88        11.53347
370.33        11.46933
370.78        11.42345
371.23        11.36969
371.68         11.3002
372.13        11.22112
372.58        11.15194
373.03        11.12194
373.48        11.13168
373.93        11.16599
374.38        11.18604
374.83        11.13334
375.28        10.99831
375.72        10.80054
376.17        10.59151
376.62        10.43246
377.07        10.34029
377.52         10.2983
377.97        10.28273
378.42        10.25505
378.87         10.2032
379.32        10.13856
379.77        10.07565
380.22        10.03349
380.67        10.01469
381.11         10.0139
381.56        10.00716
382.01         9.96708
382.46        9.891546
382.91        9.794466
383.36        9.705177
383.81        9.663311
384.26        9.672988
384.71         9.71906
385.15        9.773814
385.60        9.796557
386.05         9.77371
386.50        9.721813
386.95        9.656141
387.40        9.600698
387.85        9.564818
388.29        9.534159
388.74        9.521651
389.19        9.526789
389.64        9.544903
390.09        9.571681
390.54        9.592052
390.98        9.577381
391.43        9.529525
391.88         9.45933
392.33        9.378847
392.78        9.304901
393.23        9.245493
393.67        9.194019
394.12         9.16658
394.57        9.167434
395.02        9.194938
395.47        9.242756
395.91        9.300646
396.36        9.341653
396.81        9.362121
397.26        9.367266
397.71        9.356015
398.15        9.334821
398.60        9.319396
399.05        9.270039
399.50        9.207551
399.95        9.229857
400.39        9.310151
400.84        9.278668
401.29        9.145368
401.74        9.069868
402.18        9.061993
402.63        9.029127
403.08        8.978337
403.53        8.961329
403.97        8.980723
404.42        9.022798
404.87        9.068201
405.32        9.084089
405.76        9.061805
406.21         9.01501
406.66        8.968139
407.11        8.962162
407.55        9.007044
408.00        9.084029
408.45         9.16398
408.90        9.190088
409.34         9.14729
409.79        9.058743
410.24         8.95502
410.68        8.874604
411.13        8.831527
411.58        8.812204
412.03        8.810431
412.47        8.816921
412.92        8.822291
413.37         8.83273
413.81         8.84097
414.26        8.841424
414.71         8.83118
415.15        8.812457
415.60        8.788727
416.05        8.774137
416.49        8.773184
416.94        8.779623
417.39        8.791347
417.83         8.80453
418.28         8.81484
418.73        8.822584
419.17        8.821846
419.62        8.802827
420.07        8.766104
420.51        8.714716
420.96        8.660219
421.41        8.619342
421.85        8.592806
422.30        8.573765
422.74        8.554331
423.19        8.562943
423.64        8.583545
424.08        8.567375
424.53        8.515475
424.98        8.499727
425.42         8.53012
425.87         8.54463
426.31        8.544736
426.76        8.597826
427.21        8.676966
427.65        8.661102
428.10         8.57179
428.54         8.53303
428.99        8.556743
429.44        8.604156
429.88        8.650127
430.33         8.62442
430.77        8.550732
431.22        8.586335
431.66        8.715045
432.11        8.754949
432.56         8.70005
433.00        8.677067
433.45        8.658765
433.89        8.538798
434.34        8.392838
434.78        8.176455
435.23        8.354923
435.67         8.39262
436.12        8.402817
436.57        8.407018
437.01        8.407064
437.46        8.409036
437.90        8.407223
438.35        8.374727
438.79        8.321682
439.24        8.291657
439.68        8.290548
440.13        8.305193
440.57        8.325295
441.02        8.342166
441.46        8.350323
441.91        8.331148
442.35        8.293115
442.80        8.327833
443.24        8.401386
443.69        8.369851
444.13        8.251875
444.58        8.211363
445.02        8.254644
445.47        8.296816
445.91        8.324313
446.36        8.356146
446.80        8.385506
447.24        8.407278
447.69        8.424056
448.13        8.435291
448.58         8.44427
449.02        8.450723
449.47        8.456024
449.91        8.459546
450.36        8.462934
450.80        8.463614
451.25        8.467111
451.69        8.478292
452.13        8.496021
452.58        8.516119
453.02        8.525639
453.47        8.505315
453.91        8.453437
454.36        8.381076
454.80         8.30083
455.24        8.230712
455.69        8.181829
456.13        8.144145
456.58        8.129882
457.02        8.142277
457.46        8.181461
457.91        8.241562
458.35        8.295673
458.79        8.300918
459.24        8.258221
459.68         8.17591
460.13        8.092448
460.57        8.041584
461.01         8.04095
461.46        8.073291
461.90        8.129172
462.34        8.182554
462.79        8.220111
463.23        8.249862
463.68        8.268722
464.12        8.277485
464.56        8.273441
465.01        8.263788
465.45        8.235908
465.89        8.197441
466.34        8.151555
466.78        8.098806
467.22        8.050757
467.67        8.019914
468.11        8.015482
468.55        8.030037
468.99        8.058496
469.44        8.089776
469.88        8.118621
470.32        8.147717
470.77        8.170549
471.21        8.180349
471.65        8.174578
472.10        8.153399
472.54        8.127481
472.98        8.119506
473.42        8.133105
473.87        8.166207
474.31        8.193664
474.75        8.184262
475.20        8.137342
475.64        8.063412
476.08        7.994603
476.52        7.972656
476.97        8.005985
477.41         8.08777
477.85        8.195942
478.29        8.255674
478.74        8.300712
479.18        8.331766
479.62        8.362201
480.06        8.381865
480.50        8.394384
480.95         8.38958
481.39         8.37071
481.83        8.430318
482.27        8.448335
482.72        8.522012
483.16        8.596581
483.60        8.642574
484.04        8.643636
484.48        8.639391
484.93        8.705189
485.37        8.748192
485.81        8.898026
486.25        9.288419
486.69        8.558863
487.14        8.587092
487.58        9.554845
488.02        9.553053
488.46        9.228433
488.90        9.168993
489.34        9.129391
489.79        9.313054
490.23        9.481439
490.67        9.638824
491.11        9.726377
491.55        9.710572
491.99        9.644509
492.43        9.666192
492.88        9.793593
493.32         9.93696
493.76        10.06549
494.20        10.18213
494.64        10.28056
495.08        10.33808
495.52        10.37339
495.96        10.48709
496.41        10.66477
496.85        10.73513
497.29        10.71049
497.73        10.86568
498.17        11.04025
498.61         11.1658
499.05        11.19334
499.49        11.25324
499.93        11.32999
500.37        11.47726
500.82        11.65804
501.26        11.78048
501.70        11.83214
502.14        11.86351
502.58        11.90965
503.02        12.00216
503.46        12.14818
503.90        12.33657
504.34        12.51839
504.78        12.61195
505.22        12.60131
505.66        12.51603
506.10        12.41157
506.54        12.37588
506.98        12.43291
507.42        12.55526
507.86        12.71178
508.30         12.8499
508.74        12.94923
509.18        13.02563
509.62        13.08151
510.06        13.12053
510.50         13.1472
510.94        13.15626
511.38         13.1595
511.82        13.17931
512.26        13.22066
512.70         13.2808
513.14         13.3456
513.58        13.38949
514.02        13.40627
514.46        13.40281
514.90        13.39402
515.34         13.4038
515.78        13.43795
516.22        13.48934
516.66        13.54193
517.10        13.57069
517.54         13.5699
517.98        13.54682
518.42        13.51914
518.86        13.51495
519.30        13.53914
519.74        13.58088
520.18        13.62025
520.62        13.62631
521.06        13.59293
521.50        13.53269
521.93        13.46327
522.37        13.40774
522.81        13.37736
523.25        13.36382
523.69        13.36229
524.13        13.36565
524.57        13.36758
525.01        13.36708
525.45        13.35785
525.89        13.32942
526.32        13.27886
526.76        13.21398
527.20        13.13612
527.64        13.04931
528.08        12.95945
528.52        12.86865
528.96        12.79125
529.40        12.74846
529.83        12.74112
530.27        12.76015
530.71        12.78442
531.15        12.78074
531.59         12.7397
532.03        12.67037
532.46        12.58082
532.90        12.49463
533.34        12.41834
533.78        12.34087
534.22        12.26732
534.66        12.21946
535.09        12.19036
535.53        12.15413
535.97        12.10945
536.41        12.08435
536.85        12.07927
537.28        12.07245
537.72        12.07656
538.16        12.12142
538.60        12.20575
539.04        12.31707
539.47        12.42077
539.91        12.47263
540.35        12.46419
540.79        12.41438
541.22        12.35798
541.66        12.35519
542.10         12.4195
542.54        12.53221
542.97        12.67061
543.41        12.80279
543.85        12.91559
544.29        13.02142
544.72         13.1186
545.16        13.21422
545.60        13.30947
546.04         13.4018
546.47        13.50433
546.91        13.63687
547.35        13.79896
547.79        13.98442
548.22        14.16982
548.66         14.3163
549.10        14.43451
549.53        14.52876
549.97        14.62084
550.41          14.712
550.84        14.82472
551.28        14.98959
551.72        15.17637
552.15          15.349
552.59        15.51661
553.03        15.46293
553.46         15.6678
553.90        15.74896
554.34        15.84894
554.77         15.9607
555.21        16.08482
555.65         16.2086
556.08        16.32052
556.52        16.41468
556.96        16.48971
557.39        16.58871
557.83        16.70004
558.27        16.72654
558.70        16.68348
559.14        16.69712
559.57        16.76413
560.01        16.80338
560.45        16.81945
560.88        16.87053
561.32        16.96685
561.75        17.07381
562.19        17.18254
562.63        17.27599
563.06        17.34522
563.50        17.39573
563.93        17.42649
564.37        17.48083
564.80         17.5712
565.24        17.64649
565.68        17.65816
566.11        17.91542
566.55        17.77428
566.98        17.77871
567.42        17.79678
567.85         17.9005
568.29        18.10225
568.72         18.3842
569.16        18.70374
569.60        18.91037
570.03        19.06091
570.47        19.13078
570.90        19.16425
571.34        19.25418
571.77        19.37332
572.21        19.51595
572.64        19.65222
573.08        19.82637
573.51        20.03177
573.95        20.14115
574.38        20.18013
574.82        20.27405
