SpectraSmart Spectrum 2.9.0.0
--------- Device Information -----------
Spectrum Name :  反射率_0
Saving Time :  2024/04/26 22:57:58
Spectro-Module Model Name : SE2030-DUVN
Spectro-Module Serial Number : OS361AC55029948
Wavelength Start : 200
Wavelength End : 1025
Wavelength Unit : Wavelength(nm)
Spectrum Unit : Reflectance(%)
-----------Spectrum Setting ------------
Integration Time : 20ms
Average : 10
Boxcar : 0
Background removal :  enabled
linearity correction :  enabled
SC :  disabled
Intensity correction :  disabled
DWT denoise :  enabled
savitzky-golay :  disabled
FFT :  disabled
Running average :  disabled
Kalman :  disabled
High pass :  disabled
---------------BEGIN--------------------
Wavelength(nm)             Reflectance(%)
200.29               0
200.75        29.39164
201.21        33.01229
201.67        36.38121
202.13        38.47688
202.58        39.38583
203.04        39.82681
203.50        40.34428
203.96        42.05687
204.42        45.32221
204.88        49.19656
205.34        52.66154
205.80        54.39841
206.26        53.91343
206.72        51.91325
207.18        48.64712
207.64        43.53033
208.10        36.01905
208.55        24.96344
209.01        10.80083
209.47         3.81182
209.93         9.53571
210.39         21.0295
210.85        31.38472
211.31        38.76838
211.77        45.44407
212.23        55.29731
212.69        77.11339
213.14         118.668
213.60        126.4078
214.06        104.1526
214.52        85.58762
214.98        74.68999
215.44        66.89928
215.90        58.88785
216.36        52.28571
216.81        50.22589
217.27        54.15784
217.73        66.11558
218.19        83.04053
218.65        86.75453
219.11        72.59724
219.57        53.51432
220.02        41.69621
220.48         42.9046
220.94          56.306
221.40        83.39705
221.86        123.2857
222.32        149.7821
222.77        140.2428
223.23        112.0017
223.69        84.46507
224.15        68.63543
224.61        62.56294
225.06        60.85106
225.52        61.82193
225.98        63.90713
226.44        66.57439
226.90        70.51149
227.36        74.78145
227.81        77.31667
228.27        77.78248
228.73        76.41091
229.19        74.82822
229.65         75.1712
230.10        77.46103
230.56        81.03128
231.02        84.08052
231.48        83.79821
231.93        79.99886
232.39        74.55829
232.85        69.36366
233.31        66.78847
233.77         67.0587
234.22        69.21207
234.68         72.3456
235.14        75.16693
235.60        77.15599
236.05        78.84599
236.51        79.81282
236.97        79.36497
237.43        77.40079
237.88        73.94268
238.34        70.19193
238.80        68.56002
239.26        69.90145
239.71        74.79496
240.17        82.03128
240.63        87.75147
241.08        89.37575
241.54        86.18741
242.00        81.25261
242.46        81.46239
242.91        91.17746
243.37        112.3725
243.83        144.9157
244.28        170.2866
244.74        164.4379
245.20        130.7959
245.66        93.29628
246.11        71.54479
246.57        65.45779
247.03        68.19098
247.48        74.74509
247.94        76.93325
248.40        73.64175
248.85        68.96707
249.31        64.87785
249.77        61.46467
250.22        58.11658
250.68        53.74058
251.14        48.44385
251.59        44.64438
252.05        44.56326
252.51        47.88245
252.96        51.93887
253.42        54.30279
253.88        54.92738
254.33        54.30276
254.79        54.67516
255.25         57.8331
255.70        63.50254
256.16        70.94695
256.62        77.13312
257.07        77.49979
257.53        73.51723
257.99        68.14652
258.44        63.84381
258.90        62.94963
259.35        64.37677
259.81        67.24582
260.27        70.04403
260.72        70.94591
261.18        70.14877
261.63        68.22552
262.09         66.4587
262.55        65.61903
263.00         65.5808
263.46        66.09675
263.91        66.39999
264.37        65.91782
264.83        64.60073
265.28        62.77234
265.74        61.12688
266.19        60.14705
266.65        59.96715
267.11        60.24684
267.56          60.653
268.02        60.67709
268.47        60.16845
268.93        59.35659
269.38         58.3334
269.84        57.30811
270.30        56.34945
270.75        55.36735
271.21        54.51077
271.66        53.94294
272.12        53.66573
272.57        53.58961
273.03        53.46791
273.48        52.87186
273.94        51.79628
274.39         50.3616
274.85        48.89703
275.31        47.68111
275.76        46.76167
276.22        46.10104
276.67        45.56724
277.13        45.10135
277.58        44.59656
278.04         44.1083
278.49        43.57844
278.95        43.06343
279.40        42.50105
279.86         41.9619
280.31        41.33284
280.77        40.60482
281.22        39.74603
281.68        38.86589
282.13        38.04688
282.59        37.51538
283.04        37.24051
283.50        37.17261
283.95        37.14862
284.41        36.93902
284.86        36.48514
285.32        35.89774
285.77        35.27434
286.22         34.8247
286.68        34.58533
287.13        34.44851
287.59        34.34784
288.04        34.12922
288.50        33.79171
288.95        33.36262
289.41        32.92326
289.86        32.50624
290.32        32.16994
290.77        31.87801
291.22          31.646
291.68        31.48253
292.13         31.3709
292.59        31.32661
293.04          31.346
293.50        31.44504
293.95        31.61089
294.40        31.84304
294.86        32.11193
295.31         32.3619
295.77        32.59407
296.22        32.81514
296.68        33.07833
297.13        33.44765
297.58        33.94075
298.04        34.53297
298.49        35.16592
298.95        35.76992
299.40        36.30335
299.85         36.7714
300.31        37.19929
300.76        37.61533
301.21        38.02819
301.67        38.44318
302.12        38.78995
302.58        39.03041
303.03         39.1402
303.48        39.16776
303.94        39.21316
304.39        39.38044
304.84        39.69831
305.30         40.1362
305.75        40.57178
306.20        40.87737
306.66        41.03286
307.11         41.0645
307.57        41.05558
308.02        41.07849
308.47        41.16635
308.93        41.29163
309.38        41.41273
309.83        41.52457
310.29        41.61761
310.74        41.69646
311.19        41.73241
311.65        41.66931
312.10        41.49826
312.55        41.23511
313.00        40.95764
313.46        40.78231
313.91        40.71655
314.36        40.74091
314.82        40.76622
315.27        40.65753
315.72        40.38334
316.18        39.99971
316.63        39.59467
317.08         39.3221
317.53        39.21301
317.99        39.21058
318.44        39.23613
318.89        39.14944
319.35        38.91307
319.80        38.57368
320.25        38.19246
320.70        37.86656
321.16        37.62304
321.61        37.44205
322.06        37.28698
322.51        37.10407
322.97        36.87196
323.42        36.61493
323.87        36.36319
324.32        36.16811
324.78          36.026
325.23        35.93823
325.68        35.83572
326.13        35.61911
326.59        35.27308
327.04        34.84718
327.49        34.42445
327.94        34.13813
328.39        34.01315
328.85        33.99128
329.30        34.03181
329.75        33.99207
330.20        33.82802
330.66        33.57482
331.11        33.28582
331.56        33.02006
332.01        32.79922
332.46        32.59312
332.92        32.38638
333.37        32.21072
333.82        32.05199
334.27        31.92649
334.72        31.80676
335.17        31.63711
335.63        31.40922
336.08        31.15486
336.53        30.93394
336.98        30.85946
337.43        30.94967
337.88        31.15625
338.34        31.39413
338.79        31.55193
339.24        31.57208
339.69        31.49004
340.14        31.31826
340.59        31.08526
341.05        30.82903
341.50        30.54424
341.95        30.29292
342.40        30.16891
342.85        30.18608
343.30        30.31819
343.75        30.49499
344.20        30.59502
344.66         30.5854
345.11        30.49654
345.56        30.36443
346.01        30.25167
346.46        30.18512
346.91        30.14831
347.36        30.13789
347.81        30.15446
348.26        30.18843
348.72        30.23223
349.17         30.2784
349.62         30.3253
350.07        30.36571
350.52        30.40558
350.97        30.39218
351.42        30.24665
351.87        29.97091
352.32        29.59655
352.77        29.24472
353.22        29.09137
353.67        29.16291
354.13        29.40919
354.58        29.68988
355.03        29.76815
355.48        29.58619
355.93        29.21858
356.38        28.80871
356.83         28.5734
357.28        28.55828
357.73        28.68761
358.18         28.8482
358.63         28.8594
359.08        28.67298
359.53        28.35498
359.98        27.98848
360.43         27.6902
360.88        27.49104
361.33        27.35143
361.78        27.22901
362.23        27.06208
362.68        26.83772
363.13         26.5866
363.58        26.34016
364.03        26.13902
364.48        25.99212
364.93        25.88057
365.38        25.78559
365.83        25.68174
366.28        25.55826
366.73        25.42068
367.18        25.27263
367.63        25.11851
368.08        24.96172
368.53         24.8042
368.98        24.64247
369.43        24.47147
369.88        24.29313
370.33        24.10951
370.78        23.94265
371.23        23.82844
371.68        23.77197
372.13          23.761
372.58        23.75598
373.03        23.69388
373.48        23.55738
373.93        23.35963
374.38        23.13777
374.83        22.95511
375.28        22.82825
375.72        22.73536
376.17         22.6555
376.62        22.52588
377.07        22.34181
377.52        22.13354
377.97        21.94182
378.42        21.83385
378.87        21.81994
379.32        21.85778
379.77        21.92451
380.22        21.99101
380.67        22.03487
381.11         22.0693
381.56        22.02812
382.01        21.82729
382.46        21.47925
382.91        21.04306
383.36        20.62996
383.81        20.38916
384.26        20.34392
384.71        20.44165
385.15        20.62786
385.60        20.80685
386.05        20.92872
386.50        21.01241
386.95        21.02486
387.40        20.92151
387.85        20.71448
388.29        20.41446
388.74        20.12106
389.19        19.92634
389.64        19.84582
390.09        19.84825
390.54         19.8901
390.98        19.88948
391.43        19.83493
391.88        19.75287
392.33        19.65631
392.78        19.56208
393.23         19.4791
393.67        19.38929
394.12          19.326
394.57        19.30322
395.02        19.32059
395.47        19.36782
395.91        19.42403
396.36        19.44023
396.81        19.41456
397.26        19.36168
397.71        19.29437
398.15        19.24523
398.60        19.24346
399.05        19.19765
399.50        19.12568
399.95        19.19489
400.39        19.34291
400.84        19.23005
401.29        18.89631
401.74        18.70596
402.18        18.69166
402.63        18.64711
403.08        18.58147
403.53        18.59286
403.97        18.67463
404.42        18.79581
404.87        18.90286
405.32        18.90727
405.76        18.79157
406.21        18.59868
406.66        18.38416
407.11        18.23711
407.55        18.18816
408.00        18.20255
408.45        18.26321
408.90         18.3276
409.34         18.3713
409.79        18.40667
410.24        18.42383
410.68        18.40214
411.13        18.34645
411.58        18.25795
412.03        18.15028
412.47        18.05763
412.92        17.99128
413.37        17.95398
413.81        17.94334
414.26        17.96931
414.71        18.02192
415.15        18.10088
415.60         18.1868
416.05        18.25984
416.49        18.30978
416.94         18.3361
417.39        18.33412
417.83        18.29871
418.28        18.23409
418.73        18.14254
419.17        18.05446
419.62        18.01875
420.07        18.04563
420.51        18.11802
420.96        18.20329
421.41        18.24421
421.85        18.22161
422.30        18.14736
422.74        18.04453
423.19        18.02971
423.64        18.08455
424.08        18.08216
424.53         18.0147
424.98        18.01126
425.42        18.08432
425.87        18.11727
426.31        18.10567
426.76        18.17355
427.21        18.26602
427.65        18.13113
428.10        17.85398
428.54        17.75319
428.99        17.86034
429.44        18.07806
429.88        18.30389
430.33        18.30689
430.77         18.1236
431.22          18.117
431.66        18.29743
432.11        18.36722
432.56        18.33163
433.00        18.43292
433.45          18.567
433.89        18.42034
434.34         18.1186
434.78          17.602
435.23        17.90551
435.67         17.9241
436.12         17.9185
436.57        17.91942
437.01        17.93101
437.46        17.96797
437.90        18.01228
438.35        18.00674
438.79        17.95642
439.24        17.93184
439.68        17.94093
440.13        17.96409
440.57        17.98604
441.02         18.0037
441.46        18.01123
441.91        17.96299
442.35        17.88529
442.80        17.99138
443.24        18.20703
443.69        18.21612
444.13        18.03087
444.58        17.95799
445.02        18.00605
445.47        18.00354
445.91        17.95969
446.36         17.9767
446.80        18.05334
447.24        18.16024
447.69        18.26937
448.13        18.32907
448.58        18.33058
449.02        18.28573
449.47        18.22141
449.91        18.17076
450.36        18.14943
450.80        18.14409
451.25         18.1451
451.69        18.12518
452.13        18.08212
452.58        18.02448
453.02        17.96667
453.47         17.9325
453.91        17.92732
454.36        17.94608
454.80        17.96756
455.24        17.95724
455.69        17.91448
456.13        17.83915
456.58         17.7733
457.02        17.75169
457.46        17.78779
457.91         17.8655
458.35        17.93919
458.79        17.94237
459.24        17.87846
459.68        17.76154
460.13        17.65195
460.57        17.59525
461.01         17.6162
461.46        17.68002
461.90        17.77502
462.34        17.86646
462.79        17.93306
463.23        17.99372
463.68        18.01835
464.12        17.96992
464.56          17.849
465.01        17.69296
465.45        17.53607
465.89        17.47427
466.34        17.51758
466.78        17.63521
467.22        17.78325
467.67        17.86469
468.11        17.86071
468.55        17.79177
468.99        17.69617
469.44        17.63422
469.88        17.62628
470.32        17.65159
470.77        17.69441
471.21        17.73379
471.65        17.75914
472.10         17.7823
472.54        17.80087
472.98        17.81544
473.42        17.82642
473.87        17.83574
474.31        17.83592
474.75        17.83487
475.20         17.8389
475.64        17.84178
476.08        17.84766
476.52        17.85254
476.97        17.85598
477.41        17.86644
477.85         17.8921
478.29        17.91928
478.74        17.96157
479.18        18.06223
479.62        18.18847
480.06        18.25837
480.50        18.26646
480.95        18.22679
481.39        18.15563
481.83        18.25548
482.27        18.26553
482.72        18.38499
483.16        18.52054
483.60        18.61115
484.04        18.62956
484.48        18.71298
484.93        18.90125
485.37        18.74528
485.81        18.82493
486.25        19.08234
486.69        18.61446
487.14        18.79539
487.58        19.69034
488.02        19.56643
488.46        19.25849
488.90        19.36133
489.34        19.53231
489.79        19.83427
490.23        19.95242
490.67        20.03087
491.11        20.04793
491.55        19.99098
491.99        19.92333
492.43        19.93757
492.88        20.05846
493.32        20.25385
493.76        20.47954
494.20        20.68223
494.64        20.84936
495.08        20.95737
495.52        21.02157
495.96        21.20511
496.41        21.47165
496.85         21.4827
497.29         21.3006
497.73         21.5254
498.17        21.84513
498.61        22.10985
499.05        22.17883
499.49        22.23957
499.93        22.24677
500.37        22.32718
500.82        22.45994
501.26        22.55207
501.70        22.60132
502.14          22.683
502.58        22.81106
503.02        22.95988
503.46        23.12494
503.90        23.31283
504.34        23.48721
504.78        23.58684
505.22        23.60068
505.66        23.54571
506.10        23.47036
506.54        23.45457
506.98        23.51871
507.42        23.64072
507.86        23.78587
508.30        23.89464
508.74        23.94972
509.18        23.97197
509.62        23.98088
510.06        24.00677
510.50        24.05971
510.94        24.12629
511.38         24.2017
511.82        24.28087
512.26         24.3586
512.70         24.4366
513.14        24.50741
513.58        24.55727
514.02         24.5845
514.46        24.59366
514.90        24.59302
515.34        24.59748
515.78        24.61193
516.22        24.63144
516.66        24.65692
517.10        24.68907
517.54        24.72499
517.98        24.76434
518.42        24.79516
518.86        24.79779
519.30        24.77045
519.74        24.72104
520.18        24.66655
520.62        24.63348
521.06        24.62977
521.50        24.64892
521.93        24.68318
522.37        24.71054
522.81        24.72533
523.25        24.72761
523.69        24.72009
524.13        24.70797
524.57        24.69019
525.01        24.66296
525.45        24.61493
525.89        24.52964
526.32        24.40679
526.76        24.26453
527.20        24.12368
527.64        24.01704
528.08        23.95293
528.52        23.92083
528.96        23.91124
529.40        23.90767
529.83        23.90119
530.27        23.89722
530.71         23.8833
531.15        23.84336
531.59         23.7759
532.03         23.6815
532.46        23.57791
532.90        23.51178
533.34        23.48675
533.78        23.47911
534.22        23.46323
534.66        23.42671
535.09        23.34725
535.53        23.18828
535.97        22.99179
536.41        22.88237
536.85        22.87823
537.28        22.92252
537.72        22.99809
538.16        23.09297
538.60        23.19214
539.04          23.298
539.47        23.39148
539.91        23.45929
540.35        23.49577
540.79        23.50422
541.22        23.50777
541.66        23.55404
542.10        23.64962
542.54        23.78306
542.97        23.92486
543.41        24.03739
543.85         24.1094
544.29        24.15804
544.72         24.2022
545.16        24.28707
545.60        24.41762
546.04        24.58217
546.47        24.76884
546.91        24.95341
547.35        25.12353
547.79        25.28735
548.22        25.44097
548.66        25.57288
549.10        25.71433
549.53         25.8547
549.97        26.00396
550.41        26.11994
550.84        26.23206
551.28        26.41065
551.72         26.6231
552.15        26.83748
552.59        27.07792
553.03        26.95454
553.46        27.29084
553.90        27.40195
554.34        27.52942
554.77        27.66702
555.21        27.81947
555.65        27.97031
556.08        28.10457
556.52        28.21338
556.96        28.29486
557.39        28.42323
557.83        28.57882
558.27        28.59439
558.70        28.50458
559.14        28.53741
559.57        28.68587
560.01        28.80488
560.45        28.87839
560.88         28.9725
561.32        29.09663
561.75        29.19718
562.19        29.28724
562.63        29.38215
563.06        29.47734
563.50        29.57482
563.93          29.635
564.37          29.673
564.80        29.70098
565.24        29.65066
565.68        29.50088
566.11        29.85628
566.55        29.65577
566.98        29.77757
567.42        29.92271
567.85         30.0897
568.29        30.27817
568.72        30.49988
569.16        30.76967
569.60        30.96852
570.03        31.21075
570.47         31.4136
570.90          31.577
571.34         31.7218
571.77        31.79565
572.21        31.90901
572.64        32.02861
573.08         32.1756
573.51        32.23594
573.95        32.36206
574.38        32.58101
574.82        32.61569
