SpectraSmart Spectrum 2.9.0.0
--------- Device Information -----------
Spectrum Name :  反射率_0
Saving Time :  2024/04/26 23:03:51
Spectro-Module Model Name : SE2030-DUVN
Spectro-Module Serial Number : OS361AC55029948
Wavelength Start : 200
Wavelength End : 1025
Wavelength Unit : Wavelength(nm)
Spectrum Unit : Reflectance(%)
-----------Spectrum Setting ------------
Integration Time : 20ms
Average : 10
Boxcar : 0
Background removal :  enabled
linearity correction :  enabled
SC :  disabled
Intensity correction :  disabled
DWT denoise :  enabled
savitzky-golay :  disabled
FFT :  disabled
Running average :  disabled
Kalman :  disabled
High pass :  disabled
---------------BEGIN--------------------
Wavelength(nm)             Reflectance(%)
200.29               0
200.75        16.11736
201.21        16.82043
201.67        17.46242
202.13        17.00132
202.58        15.17403
203.04        12.35516
203.50        8.989232
203.96        6.894396
204.42        7.594616
204.88        10.97243
205.34        16.23478
205.80        21.33526
206.26        24.93515
206.72         26.8914
207.18        27.81749
207.64        28.73235
208.10        30.05822
208.55        32.23859
209.01        34.15826
209.47        32.72321
209.93        28.13282
210.39        23.39989
210.85        20.69843
211.31        20.82499
211.77        24.12924
212.23        33.43464
212.69        58.17645
213.14        102.0788
213.60        103.1184
214.06        73.82368
214.52        53.65337
214.98        45.39959
215.44        42.87175
215.90        42.24115
216.36         41.9059
216.81         39.5996
217.27         34.8433
217.73        28.29962
218.19        20.58545
218.65        17.07137
219.11        20.61321
219.57        26.42338
220.02        32.77821
220.48        41.30085
220.94        53.67043
221.40        72.85492
221.86         97.6761
222.32         109.977
222.77         97.0605
223.23        72.61376
223.69        51.26724
224.15         40.7542
224.61        38.54792
225.06        40.11798
225.52         43.3868
225.98        46.36728
226.44        48.66965
226.90         51.2402
227.36        53.31091
227.81         53.3374
228.27        51.47197
228.73        48.15549
229.19        45.33987
229.65        45.40532
230.10        48.34084
230.56        53.33842
231.02        58.34459
231.48        60.01921
231.93        57.84367
232.39        53.55363
232.85        49.16116
233.31         47.2303
233.77        48.06826
234.22        50.76589
234.68        54.10635
235.14        56.32445
235.60        56.81772
236.05        56.06906
236.51         54.5843
236.97        53.48699
237.43        53.26806
237.88        53.64741
238.34        54.02557
238.80        53.63377
239.26         52.2163
239.71        50.18684
240.17         47.8812
240.63        47.10466
241.08        49.19304
241.54        53.68653
242.00        60.38161
242.46         68.9446
242.91        80.23738
243.37        95.87823
243.83        115.2181
244.28        127.4078
244.74        118.8824
245.20        91.68506
245.66        63.17683
246.11        46.59934
246.57        41.43981
247.03        43.70689
247.48        49.22581
247.94        50.55171
248.40        47.14174
248.85        42.53485
249.31        38.95429
249.77        37.39231
250.22        37.50223
250.68        38.69468
251.14        40.64671
251.59        42.28689
252.05         43.1085
252.51         43.7935
252.96        44.10224
253.42        44.08261
253.88         43.9594
254.33        43.51542
254.79        44.21447
255.25         47.1887
255.70        52.15854
256.16        58.60907
256.62        64.19602
257.07        65.21397
257.53        62.65755
257.99        58.80638
258.44        55.48776
258.90        54.56058
259.35        55.21362
259.81        56.86016
260.27        58.48834
260.72        58.91987
261.18        58.30764
261.63        56.94979
262.09        55.70437
262.55        54.98915
263.00        54.71146
263.46        54.78025
263.91        54.67635
264.37        54.06437
264.83        52.92327
265.28        51.44941
265.74        50.16992
266.19        49.42475
266.65        49.31174
267.11        49.57741
267.56        49.94275
268.02        49.97099
268.47        49.54095
268.93        48.83273
269.38        47.95677
269.84        47.14754
270.30        46.45769
270.75        45.77994
271.21        45.17161
271.66        44.66721
272.12        44.25245
272.57        43.90037
273.03        43.45982
273.48        42.66528
273.94        41.55711
274.39        40.22339
274.85        38.94767
275.31        37.96861
275.76         37.3117
276.22         36.9295
276.67         36.6758
277.13        36.43996
277.58        36.11939
278.04        35.77043
278.49        35.35431
278.95        34.94024
279.40        34.48341
279.86        34.03392
280.31        33.50712
280.77         32.9089
281.22        32.21345
281.68         31.5066
282.13        30.84524
282.59        30.39303
283.04        30.12804
283.50        30.02518
283.95        29.96585
284.41        29.77936
284.86        29.43114
285.32        29.00879
285.77        28.60113
286.22        28.39616
286.68         28.4151
287.13        28.54625
287.59        28.70871
288.04        28.73445
288.50        28.60546
288.95         28.3535
289.41        28.03436
289.86        27.65913
290.32        27.29001
290.77        26.91295
291.22        26.59727
291.68        26.43097
292.13        26.41871
292.59        26.55899
293.04        26.79805
293.50        27.06364
293.95        27.32299
294.40         27.5967
294.86        27.90721
295.31        28.28505
295.77        28.73891
296.22        29.23367
296.68        29.75323
297.13        30.26318
297.58        30.75752
298.04        31.24785
298.49        31.72581
298.95        32.19629
299.40        32.65119
299.85        33.08594
300.31        33.51334
300.76        33.94413
301.21         34.3782
301.67         34.8219
302.12        35.22681
302.58        35.57676
303.03        35.84637
303.48         36.0734
303.94        36.29345
304.39        36.52448
304.84        36.78386
305.30        37.06096
305.75        37.33479
306.20        37.63057
306.66        37.94602
307.11        38.25695
307.57         38.5117
308.02        38.58096
308.47        38.46748
308.93        38.22152
309.38        37.94272
309.83        37.83468
310.29        37.93421
310.74        38.17574
311.19        38.43213
311.65        38.48794
312.10        38.28805
312.55        37.90494
313.00        37.46626
313.46        37.16038
313.91        37.01775
314.36        36.98603
314.82        36.97184
315.27        36.83776
315.72        36.54953
316.18        36.17588
316.63        35.78299
317.08        35.48286
317.53        35.30178
317.99        35.18933
318.44        35.11522
318.89        35.02229
319.35        34.88531
319.80          34.722
320.25         34.5193
320.70        34.25578
321.16        33.93244
321.61        33.56485
322.06        33.18701
322.51        32.86411
322.97        32.60875
323.42        32.40706
323.87        32.24015
324.32        32.07743
324.78        31.89204
325.23        31.71407
325.68        31.49747
326.13        31.17972
326.59         30.7634
327.04        30.28132
327.49        29.82374
327.94        29.53646
328.39        29.44036
328.85        29.47702
329.30        29.57099
329.75        29.52563
330.20         29.2816
330.66        28.88881
331.11        28.43528
331.56        28.03929
332.01        27.74436
332.46        27.51635
332.92        27.32095
333.37        27.14707
333.82        26.96986
334.27        26.80776
334.72        26.67319
335.17          26.575
335.63        26.50998
336.08        26.48434
336.53        26.46434
336.98        26.41103
337.43        26.31295
337.88        26.16653
338.34        26.01645
338.79        25.96997
339.24        26.03262
339.69        26.17574
340.14        26.29674
340.59        26.22891
341.05        25.95569
341.50        25.54303
341.95        25.11512
342.40        24.85991
342.85        24.82213
343.30        24.93156
343.75        25.12276
344.20        25.28993
344.66        25.38647
345.11        25.43952
345.56        25.42146
346.01        25.28866
346.46        25.05623
346.91        24.74874
347.36        24.44379
347.81         24.2698
348.26        24.25314
348.72         24.3501
349.17        24.51456
349.62        24.67885
350.07        24.80761
350.52        24.92146
350.97        24.96716
351.42        24.86282
351.87        24.61203
352.32         24.2447
352.77        23.88111
353.22        23.70263
353.67        23.74154
354.13         23.9483
354.58        24.20828
355.03        24.32586
355.48        24.24608
355.93        24.02941
356.38        23.76736
356.83        23.59847
357.28        23.55556
357.73        23.58718
358.18        23.63402
358.63        23.60619
359.08        23.47823
359.53        23.28571
359.98        23.06806
360.43        22.87652
360.88        22.72549
361.33        22.59934
361.78        22.47802
362.23        22.33237
362.68        22.16187
363.13        21.98636
363.58        21.82951
364.03        21.72432
364.48         21.6733
364.93        21.65383
365.38        21.65261
365.83        21.64981
366.28        21.63275
366.73        21.60872
367.18        21.54815
367.63        21.40664
368.08        21.18475
368.53        20.89647
368.98        20.61074
369.43        20.43781
369.88        20.39977
370.33        20.46765
370.78        20.56125
371.23        20.54337
371.68        20.37892
372.13        20.10953
372.58        19.81227
373.03        19.61074
373.48          19.537
373.93        19.54997
374.38        19.59174
374.83        19.57224
375.28        19.46551
375.72        19.29722
376.17        19.11795
376.62        18.97583
377.07        18.88635
377.52        18.83418
377.97        18.79411
378.42        18.73072
378.87        18.63639
379.32        18.52161
379.77        18.42024
380.22        18.37925
380.67        18.40232
381.11        18.47829
381.56        18.54196
382.01        18.50412
382.46        18.35036
382.91        18.11909
383.36        17.88393
383.81        17.74517
384.26        17.71992
384.71        17.77639
385.15        17.86286
385.60        17.89562
386.05        17.84884
386.50        17.75014
386.95        17.63249
387.40        17.54713
387.85        17.50545
388.29        17.47278
388.74        17.45065
389.19        17.40351
389.64        17.32199
390.09        17.21473
390.54        17.08597
390.98        16.93886
391.43        16.79408
391.88        16.65535
392.33        16.52844
392.78        16.41947
393.23        16.32947
393.67        16.24807
394.12        16.19573
394.57        16.16875
395.02        16.16206
395.47        16.16774
395.91        16.16973
396.36        16.13268
396.81        16.06118
397.26         15.9698
397.71        15.87492
398.15         15.8107
398.60        15.80175
399.05        15.76894
399.50        15.72338
399.95        15.79821
400.39        15.93775
400.84        15.85854
401.29        15.58583
401.74        15.40903
402.18        15.35274
402.63        15.25403
403.08        15.12639
403.53        15.05773
403.97        15.05141
404.42        15.08703
404.87        15.13312
405.32         15.1354
405.76        15.07812
406.21        14.98141
406.66        14.87873
407.11        14.82617
407.55         14.8387
408.00         14.8911
408.45        14.94506
408.90         14.9275
409.34         14.8215
409.79        14.65899
410.24        14.48857
410.68         14.3702
411.13         14.3223
411.58        14.32648
412.03        14.35497
412.47        14.36171
412.92        14.32737
413.37        14.27048
413.81        14.21378
414.26        14.20106
414.71        14.23412
415.15        14.30186
415.60        14.36871
416.05        14.38708
416.49        14.34438
416.94        14.25329
417.39        14.14974
417.83        14.08755
418.28        14.07775
418.73        14.10277
419.17        14.13324
419.62        14.12192
420.07        14.05861
420.51        13.95899
420.96        13.85047
421.41        13.77067
421.85        13.72482
422.30        13.69639
422.74        13.66642
423.19        13.67062
423.64        13.68194
424.08        13.62289
424.53        13.50918
424.98        13.47448
425.42        13.53778
425.87        13.59487
426.31        13.62484
426.76        13.69699
427.21        13.76081
427.65        13.63463
428.10        13.38479
428.54        13.25458
428.99        13.27064
429.44        13.35649
429.88        13.44768
430.33        13.39272
430.77        13.22372
431.22        13.20711
431.66        13.32896
432.11        13.33677
432.56        13.23009
433.00        13.18125
433.45        13.16088
433.89        13.05181
434.34        12.94851
434.78        12.72515
435.23        13.06793
435.67        13.12337
436.12        13.06285
436.57        12.91781
437.01        12.74173
437.46        12.64294
437.90         12.6389
438.35        12.66092
438.79         12.6839
439.24        12.71353
439.68         12.7405
440.13        12.76375
440.57        12.78001
441.02        12.79628
441.46         12.8105
441.91        12.78328
442.35        12.72336
442.80        12.77063
443.24        12.87116
443.69        12.80593
444.13        12.60425
444.58        12.51274
445.02        12.54224
445.47        12.56525
445.91        12.56318
446.36        12.56718
446.80        12.56871
447.24        12.56081
447.69        12.55062
448.13        12.54313
448.58        12.54233
449.02        12.54351
449.47        12.54363
449.91        12.53261
450.36        12.51186
450.80         12.4826
451.25         12.4532
451.69        12.42901
452.13        12.41261
452.58        12.39981
453.02        12.38597
453.47        12.36566
453.91        12.33769
454.36        12.30757
454.80        12.27285
455.24        12.22735
455.69         12.1774
456.13        12.11841
456.58        12.07529
457.02        12.06546
457.46        12.09528
457.91        12.15372
458.35        12.21082
458.79        12.22073
459.24        12.18554
459.68        12.11413
460.13        12.04308
460.57        11.99558
461.01        11.98931
461.46        12.00191
461.90        12.03793
462.34        12.09322
462.79        12.15703
463.23        12.23623
463.68        12.29322
464.12        12.27463
464.56        12.17471
465.01        12.02981
465.45        11.87805
465.89        11.80439
466.34        11.81941
466.78        11.89562
467.22        11.99712
467.67        12.04836
468.11        12.03353
468.55        11.97107
468.99        11.89066
469.44        11.83779
469.88        11.82768
470.32        11.84485
470.77        11.87732
471.21        11.90984
471.65        11.93393
472.10        11.95729
472.54        11.97794
472.98        11.99659
473.42        12.01276
473.87        12.02711
474.31        12.03163
474.75        12.02779
475.20        12.02029
475.64        12.00726
476.08        11.99648
476.52        11.99257
476.97        11.99741
477.41          12.015
477.85        12.04885
478.29        12.08542
478.74        12.13242
479.18        12.22107
479.62        12.32847
480.06        12.39812
480.50        12.42505
480.95        12.41672
481.39        12.38832
481.83        12.48199
482.27        12.52227
482.72        12.65375
483.16        12.79741
483.60        12.87833
484.04        12.87246
484.48        12.89832
484.93        13.01854
485.37        12.93061
485.81        13.08062
486.25        13.47183
486.69        13.32555
487.14        13.50896
487.58         14.0807
488.02        13.77121
488.46        13.50004
488.90        13.61981
489.34        13.67426
489.79        13.81252
490.23        13.76994
490.67        13.91495
491.11        14.16833
491.55        14.17572
491.99        13.99714
492.43        13.99163
492.88        14.18841
493.32        14.39343
493.76        14.56501
494.20        14.72781
494.64         14.8724
495.08        14.96574
495.52        15.02208
495.96        15.16251
496.41        15.36209
496.85        15.38223
497.29         15.2634
497.73        15.42641
498.17        15.64821
498.61        15.82661
499.05        15.86971
499.49        15.92491
499.93        15.96234
500.37        16.06739
500.82        16.21833
501.26        16.33631
501.70        16.41427
502.14        16.50867
502.58        16.62824
503.02        16.75314
503.46        16.88064
503.90        17.01485
504.34        17.13487
504.78        17.20595
505.22        17.22277
505.66         17.1969
506.10        17.15701
506.54        17.14976
506.98         17.1882
507.42        17.26031
507.86         17.3502
508.30        17.42945
508.74        17.48852
509.18        17.53712
509.62        17.57902
510.06        17.62023
510.50         17.6633
510.94        17.70267
511.38        17.74278
511.82        17.79235
512.26        17.85216
512.70        17.92194
513.14        17.98928
513.58        18.03319
514.02        18.05001
514.46        18.04455
514.90        18.03565
515.34        18.05462
515.78        18.10601
516.22        18.17742
516.66        18.24479
517.10        18.26983
517.54        18.24389
517.98        18.18137
518.42        18.10012
518.86        18.02874
519.30        17.97777
519.74        17.93917
520.18        17.91236
520.62        17.89502
521.06        17.88552
521.50        17.88932
521.93        17.89803
522.37        17.88924
522.81        17.86236
523.25        17.81927
523.69        17.78051
524.13        17.77996
524.57        17.82007
525.01        17.88635
525.45         17.9469
525.89        17.95074
526.32        17.88533
526.76        17.77375
527.20        17.64293
527.64        17.53644
528.08        17.46823
528.52        17.42579
528.96        17.40186
529.40        17.38435
529.83        17.36674
530.27        17.35495
530.71        17.34124
531.15        17.31328
531.59         17.2699
532.03        17.21251
532.46        17.14887
532.90        17.10605
533.34          17.085
533.78        17.06735
534.22        17.04543
534.66        17.02759
535.09        16.99902
535.53        16.92808
535.97        16.82331
536.41        16.74163
536.85        16.69162
537.28        16.64316
537.72        16.61452
538.16        16.64631
538.60        16.73885
539.04         16.8789
539.47        17.02254
539.91        17.11286
540.35        17.13552
540.79        17.10919
541.22        17.07333
541.66        17.09916
542.10         17.1991
542.54        17.34803
542.97        17.51114
543.41        17.64063
543.85        17.72241
544.29        17.78076
544.72        17.82528
545.16         17.8819
545.60        17.95745
546.04        18.04342
546.47        18.15853
546.91        18.33023
547.35        18.55269
547.79        18.81385
548.22        19.06508
548.66         19.2281
549.10        19.31342
549.53        19.33597
549.97        19.34176
550.41        19.36338
550.84        19.44141
551.28        19.60724
551.72        19.81772
552.15        20.01848
552.59        20.21671
553.03        20.13447
553.46        20.38622
553.90        20.45696
554.34        20.53039
554.77        20.60092
555.21         20.6864
555.65        20.80014
556.08        20.93323
556.52        21.06836
556.96        21.18521
557.39        21.31001
557.83        21.42093
558.27        21.40344
558.70        21.29082
559.14        21.26546
559.57        21.32921
560.01        21.37152
560.45        21.39211
560.88        21.45645
561.32        21.57326
561.75        21.70023
562.19         21.8271
562.63        21.93275
563.06        22.00669
563.50        22.05721
563.93        22.07876
564.37        22.12117
564.80        22.20032
565.24        22.25165
565.68        22.22804
566.11         22.5408
566.55        22.38061
566.98        22.42156
567.42        22.47262
567.85        22.59106
568.29        22.78256
568.72        23.03305
569.16        23.34212
569.60        23.53014
570.03        23.64982
570.47        23.82558
570.90        24.13728
571.34        23.88378
571.77        24.19744
572.21        24.61231
572.64        24.63523
573.08        24.80371
573.51        24.92826
573.95        24.94828
574.38        24.93046
574.82        25.24569
