SpectraSmart Spectrum 2.9.0.0
--------- Device Information -----------
Spectrum Name :  反射率_0
Saving Time :  2024/04/26 22:57:30
Spectro-Module Model Name : SE2030-DUVN
Spectro-Module Serial Number : OS361AC55029948
Wavelength Start : 200
Wavelength End : 1025
Wavelength Unit : Wavelength(nm)
Spectrum Unit : Reflectance(%)
-----------Spectrum Setting ------------
Integration Time : 20ms
Average : 10
Boxcar : 0
Background removal :  enabled
linearity correction :  enabled
SC :  disabled
Intensity correction :  disabled
DWT denoise :  enabled
savitzky-golay :  disabled
FFT :  disabled
Running average :  disabled
Kalman :  disabled
High pass :  disabled
---------------BEGIN--------------------
Wavelength(nm)             Reflectance(%)
200.29               0
200.75        44.82829
201.21        39.13158
201.67        34.91491
202.13        33.87548
202.58        35.94948
203.04        41.47141
203.50        49.90558
203.96        57.50352
204.42        61.23005
204.88         60.9775
205.34        58.23201
205.80        57.27337
206.26        59.01105
206.72        61.03284
207.18        62.47701
207.64        62.79453
208.10        61.92462
208.55        61.04982
209.01        58.18744
209.47        51.06761
209.93        42.99075
210.39        37.17719
210.85        35.17049
211.31        37.64615
211.77        45.81347
212.23         66.0454
212.69        118.7933
213.14        213.1086
213.60        219.9859
214.06        160.7075
214.52        117.8532
214.98         98.3037
215.44        89.86178
215.90        84.58211
216.36        81.17559
216.81        78.87203
217.27        77.61456
217.73         79.4854
218.19        83.92344
218.65        85.42702
219.11         82.6755
219.57        78.30869
220.02        76.93576
220.48        83.00257
220.94        97.12085
221.40        121.5178
221.86        155.4364
222.32        176.6057
222.77         166.119
223.23        139.5101
223.69        113.3755
224.15        96.69969
224.61        87.99877
225.06        83.09265
225.52        81.17763
225.98        81.15161
226.44        82.44273
226.90        85.35847
227.36        88.74476
227.81        90.38248
228.27        90.00361
228.73        87.97621
229.19        86.06818
229.65        86.52126
230.10        89.31041
230.56        93.69884
231.02         97.6387
231.48        97.94148
231.93        94.29819
232.39        88.70146
232.85        83.26552
233.31        80.68506
233.77        81.21708
234.22        83.79396
234.68        87.26904
235.14        89.94955
235.60        91.19336
236.05        91.59079
236.51        90.98149
236.97        89.34027
237.43        86.86147
237.88        83.53548
238.34        80.06367
238.80        77.92884
239.26        77.62686
239.71        79.71887
240.17        83.52942
240.63         87.2586
241.08        89.77551
241.54        90.45002
242.00        91.03202
242.46        95.60787
242.91          107.38
243.37        128.0082
243.83        157.5633
244.28        181.0906
244.74        177.5227
245.20        148.4611
245.66        114.4442
246.11        92.43707
246.57        82.71733
247.03         79.9836
247.48        80.51479
247.94        78.89348
248.40        74.89845
248.85        71.09006
249.31        68.47358
249.77        66.73351
250.22        65.31854
250.68        63.38816
251.14        61.04482
251.59        59.65442
252.05        60.21951
252.51         62.6026
252.96        64.27935
253.42        63.16511
253.88        59.81152
254.33        55.30537
254.79        52.57893
255.25        53.86301
255.70        58.72648
256.16        66.00842
256.62        72.61548
257.07        73.83859
257.53        70.70615
257.99        66.00014
258.44        61.95486
258.90        60.73481
259.35        61.39564
259.81        63.22464
260.27        64.95027
260.72        65.10168
261.18        63.92399
261.63        61.88675
262.09        60.14144
262.55        59.35925
263.00        59.40666
263.46        60.06699
263.91        60.58517
264.37        60.35578
264.83        59.32563
265.28         57.7943
265.74        56.48266
266.19        55.95245
266.65        56.33099
267.11        57.25972
267.56        58.29267
268.02        58.73335
268.47        58.38527
268.93        57.51738
269.38        56.36983
269.84        55.38365
270.30        54.67167
270.75        54.07831
271.21        53.59001
271.66        53.11982
272.12        52.64293
272.57        52.18563
273.03        51.69027
273.48        51.02129
273.94        50.22397
274.39        49.28042
274.85        48.37982
275.31        47.61997
275.76        46.99003
276.22        46.51311
276.67          46.043
277.13        45.49763
277.58        44.79675
278.04         44.0136
278.49        43.19237
278.95        42.54736
279.40        42.03558
279.86        41.66953
280.31        41.24259
280.77        40.60397
281.22        39.69633
281.68        38.68741
282.13        37.69964
282.59        37.01049
283.04        36.60728
283.50        36.41669
283.95        36.29673
284.41        36.05648
284.86        35.63607
285.32        35.13204
285.77        34.58545
286.22        34.12226
286.68        33.76294
287.13        33.42005
287.59        33.08235
288.04        32.68456
288.50        32.24847
288.95        31.78519
289.41        31.31753
289.86        30.79441
290.32        30.26299
290.77        29.71761
291.22         29.2533
291.68        28.99504
292.13        28.93924
292.59        29.05445
293.04        29.23045
293.50        29.31691
293.95        29.26587
294.40        29.12814
294.86        28.97906
295.31        28.93067
295.77        29.02209
296.22        29.20619
296.68        29.45003
297.13        29.68622
297.58         29.9013
298.04        30.12309
298.49        30.35957
298.95        30.63702
299.40        30.95022
299.85        31.28071
300.31        31.62194
300.76        31.95907
301.21         32.2845
301.67        32.61242
302.12         32.9032
302.58        33.15289
303.03        33.34031
303.48        33.49207
303.94        33.64548
304.39        33.82626
304.84        34.04684
305.30        34.29484
305.75        34.53116
306.20         34.7479
306.66        34.94505
307.11         35.1218
307.57        35.25664
308.02        35.27011
308.47        35.17412
308.93        34.99612
309.38        34.82642
309.83          34.852
310.29        35.09375
310.74        35.48445
311.19        35.86504
311.65        35.96906
312.10        35.73715
312.55        35.26388
313.00        34.71849
313.46        34.35373
313.91        34.22118
314.36        34.25203
314.82        34.34505
315.27        34.34546
315.72        34.20169
316.18        33.97764
316.63         33.7204
317.08         33.5117
317.53        33.37387
317.99        33.26947
318.44        33.17331
318.89        33.04128
319.35        32.86158
319.80        32.65086
320.25         32.4345
320.70        32.25016
321.16        32.10268
321.61        31.98747
322.06         31.8711
322.51        31.70317
322.97        31.46999
323.42        31.19525
323.87        30.91953
324.32        30.71343
324.78        30.58262
325.23        30.52164
325.68        30.47207
326.13        30.34521
326.59         30.1195
327.04        29.83593
327.49         29.5428
327.94        29.31991
328.39        29.18399
328.85        29.09381
329.30          29.043
329.75        28.96523
330.20        28.84087
330.66        28.68506
331.11        28.52193
331.56        28.36451
332.01        28.22001
332.46        28.07774
332.92        27.92544
333.37        27.79247
333.82        27.66941
334.27         27.5618
334.72        27.46754
335.17        27.37708
335.63        27.28814
336.08        27.22163
336.53        27.18223
336.98         27.1867
337.43        27.23708
337.88        27.31804
338.34         27.4213
338.79        27.56383
339.24        27.72223
339.69        27.88264
340.14        27.99746
340.59         27.9959
341.05        27.87746
341.50        27.66933
341.95        27.42985
342.40        27.24763
342.85        27.15237
343.30        27.12096
343.75        27.14443
344.20        27.20599
344.66        27.29222
345.11        27.40271
345.56        27.50233
346.01        27.53459
346.46        27.49469
346.91         27.4033
347.36        27.29627
347.81        27.23724
348.26        27.24066
348.72         27.2794
349.17        27.34683
349.62        27.44383
350.07        27.55847
350.52        27.69818
350.97        27.79445
351.42        27.73742
351.87         27.5195
352.32        27.17727
352.77        26.83932
353.22        26.69782
353.67        26.78432
354.13        27.04217
354.58        27.33496
355.03        27.43243
355.48        27.27775
355.93        26.94901
356.38        26.57308
356.83        26.34103
357.28        26.29495
357.73         26.3624
358.18        26.46376
358.63        26.47339
359.08        26.35232
359.53        26.15177
359.98        25.90005
360.43        25.63082
360.88        25.36333
361.33        25.08552
361.78        24.82412
362.23        24.62798
362.68        24.50677
363.13        24.45309
363.58         24.4265
364.03        24.35696
364.48        24.22558
364.93        24.04653
365.38        23.85471
365.83        23.71199
366.28        23.63221
366.73        23.59233
367.18        23.55499
367.63        23.46292
368.08        23.30448
368.53        23.10389
368.98         22.8921
369.43        22.71555
369.88        22.58882
370.33        22.49653
370.78        22.42793
371.23        22.36626
371.68        22.30232
372.13        22.24079
372.58        22.17508
373.03        22.09295
373.48        21.99201
373.93        21.87288
374.38        21.74256
374.83        21.61703
375.28        21.49973
375.72        21.37831
376.17         21.2654
376.62        21.15163
377.07        21.03656
377.52        20.92882
377.97        20.81712
378.42        20.68562
378.87        20.53581
379.32        20.36865
379.77        20.22161
380.22        20.14838
380.67         20.1515
381.11        20.22181
381.56        20.28033
382.01        20.21452
382.46        20.00858
382.91        19.71109
383.36        19.41652
383.81        19.25487
384.26        19.24618
384.71        19.34517
385.15        19.48341
385.60         19.5493
386.05         19.5061
386.50        19.38939
386.95        19.23527
387.40        19.09962
387.85         19.0032
388.29         18.9177
388.74        18.85586
389.19        18.79289
389.64        18.72267
390.09        18.64911
390.54        18.58097
390.98        18.52592
391.43        18.49391
391.88        18.47513
392.33        18.44872
392.78        18.38527
393.23        18.28421
393.67        18.15185
394.12        18.02879
394.57        17.93863
395.02        17.88487
395.47        17.84712
395.91        17.82348
396.36        17.79939
396.81        17.77936
397.26        17.77697
397.71        17.75987
398.15         17.6901
398.60        17.59164
399.05        17.40492
399.50        17.21555
399.95        17.27457
400.39         17.5403
400.84        17.67053
401.29        17.61553
401.74        17.57294
402.18        17.53424
402.63         17.3459
403.08        17.08494
403.53        16.95117
403.97        16.97479
404.42        17.10159
404.87        17.24966
405.32        17.28564
405.76        17.17735
406.21        16.97933
406.66        16.77313
407.11        16.68414
407.55        16.74506
408.00        16.90677
408.45        17.09585
408.90        17.17521
409.34        17.10316
409.79        16.92949
410.24        16.72687
410.68         16.5905
411.13        16.54938
411.58        16.57347
412.03        16.62218
412.47        16.62924
412.92        16.57105
413.37        16.47907
413.81        16.39101
414.26        16.37184
414.71        16.42644
415.15        16.53686
415.60          16.657
416.05        16.72218
416.49        16.71336
416.94        16.64958
417.39        16.56755
417.83        16.52298
418.28        16.52972
418.73        16.56655
419.17        16.61774
419.62        16.65797
420.07        16.67885
420.51        16.68995
420.96        16.68921
421.41        16.66822
421.85        16.62326
422.30        16.54794
422.74         16.4625
423.19        16.47358
423.64        16.56067
424.08         16.6129
424.53        16.59945
424.98        16.59765
425.42         16.6112
425.87        16.54163
426.31        16.42782
426.76        16.45084
427.21        16.57689
427.65        16.56038
428.10         16.4244
428.54        16.38012
428.99        16.43707
429.44        16.52278
429.88        16.60221
430.33        16.55603
430.77        16.43824
431.22        16.55618
431.66        16.84488
432.11        16.93623
432.56        16.81708
433.00        16.64802
433.45        16.45428
433.89        16.40623
434.34        16.55166
434.78        16.26672
435.23        16.45359
435.67        16.46416
436.12        16.52104
436.57        16.42434
437.01        16.22254
437.46        16.13192
437.90        16.16806
438.35        16.21962
438.79        16.25499
439.24        16.28582
439.68        16.30228
440.13        16.30665
440.57        16.30227
441.02        16.30765
441.46        16.32506
441.91         16.3063
442.35        16.25535
442.80        16.34081
443.24        16.49262
443.69        16.43125
444.13         16.2025
444.58         16.1351
445.02         16.2437
445.47        16.35666
445.91        16.43093
446.36        16.48026
446.80        16.48868
447.24        16.45542
447.69        16.40907
448.13        16.38784
448.58        16.40489
449.02        16.44512
449.47        16.49114
449.91        16.50643
450.36        16.48881
450.80        16.45059
451.25        16.41158
451.69        16.39064
452.13        16.39469
452.58        16.40956
453.02        16.43124
453.47         16.4572
453.91        16.48184
454.36        16.50993
454.80        16.51719
455.24         16.4632
455.69        16.35319
456.13        16.19447
456.58        16.05006
457.02        15.98782
457.46         16.0266
457.91        16.14061
458.35        16.26925
458.79        16.31942
459.24        16.28273
459.68        16.17901
460.13        16.07033
460.57        16.00822
461.01           16.02
461.46        16.07217
461.90        16.15001
462.34        16.21724
462.79        16.25332
463.23        16.27385
463.68        16.26811
464.12        16.22782
464.56        16.15417
465.01        16.07331
465.45         15.9789
465.89        15.90649
466.34        15.86218
466.78        15.83479
467.22        15.83348
467.67        15.85784
468.11        15.91238
468.55        15.98633
468.99        16.06014
469.44        16.10056
469.88        16.10075
470.32        16.06874
470.77        16.02075
471.21        15.98808
471.65        15.97968
472.10        15.99015
472.54        16.01266
472.98        16.04196
473.42        16.07379
473.87         16.1145
474.31        16.14985
474.75        16.17263
475.20        16.18415
475.64        16.18078
476.08        16.17846
476.52        16.17332
476.97        16.16555
477.41        16.20227
477.85        16.29074
478.29        16.21478
478.74        16.30641
479.18        16.34993
479.62        16.43275
480.06        16.50647
480.50        16.56977
480.95         16.6175
481.39         16.6247
481.83        16.72586
482.27        16.67231
482.72        16.66611
483.16        16.65825
483.60        16.65218
484.04        16.64956
484.48        16.74598
484.93         16.9407
485.37        16.87223
485.81        17.08789
486.25        17.21647
486.69        16.81292
487.14        17.17628
487.58        17.95108
488.02        17.69962
488.46        17.36015
488.90        17.51383
489.34        17.52428
489.79        17.74615
490.23        17.80352
490.67        17.94297
491.11        18.10681
491.55        18.12953
491.99        18.06136
492.43        18.08925
492.88        18.23417
493.32        18.39509
493.76        18.53893
494.20        18.67044
494.64        18.78576
495.08        18.84627
495.52        18.87707
495.96        19.04186
496.41        19.30784
496.85        19.37105
497.29        19.25242
497.73        19.43871
498.17        19.64053
498.61        19.73892
499.05        19.66096
499.49        19.66028
499.93        19.71542
500.37        19.91101
500.82        20.17778
501.26        20.34806
501.70        20.39561
502.14        20.41389
502.58        20.44864
503.02        20.53058
503.46        20.67127
503.90         20.8563
504.34        21.03754
504.78         21.1365
505.22        21.13568
505.66        21.06391
506.10        20.96764
506.54        20.91941
506.98        20.94222
507.42        21.01646
507.86         21.1232
508.30        21.23013
508.74         21.3238
509.18        21.41379
509.62        21.50096
510.06        21.58572
510.50        21.66719
510.94        21.73858
511.38        21.79876
511.82        21.84993
512.26        21.89293
512.70        21.92977
513.14        21.95984
513.58        21.98108
514.02          21.995
514.46        22.00357
514.90        22.01444
515.34        22.03896
515.78        22.07841
516.22        22.12867
516.66        22.17829
517.10        22.20897
517.54        22.21591
517.98        22.20387
518.42        22.18183
518.86        22.16495
519.30        22.15754
519.74        22.15501
520.18        22.15246
520.62        22.14145
521.06        22.12106
521.50        22.09732
521.93        22.07495
522.37        22.05286
522.81        22.03529
523.25        22.01842
523.69        22.00604
524.13        22.00538
524.57        22.01276
525.01        22.02115
525.45        22.01536
525.89        21.97138
526.32        21.88433
526.76        21.77283
527.20        21.64785
527.64        21.52796
528.08        21.42381
528.52        21.33263
528.96        21.26864
529.40        21.25227
529.83        21.28127
530.27        21.34766
530.71        21.41819
531.15        21.44165
531.59        21.40471
532.03        21.31834
532.46         21.2053
532.90        21.11959
533.34        21.07121
533.78        21.03538
534.22        20.99674
534.66        20.95627
535.09        20.89585
535.53        20.78154
535.97        20.63983
536.41        20.56347
536.85        20.56418
537.28        20.59444
537.72        20.64922
538.16        20.73574
538.60        20.84318
539.04        20.96624
539.47        21.07561
539.91        21.14053
540.35        21.15419
540.79        21.13051
541.22        21.09998
541.66        21.12078
542.10        21.20325
542.54        21.32816
542.97        21.47435
543.41         21.6159
543.85        21.73922
544.29        21.85803
544.72        21.96068
545.16        22.04387
545.60        22.10788
546.04        22.15632
546.47         22.2228
546.91        22.35917
547.35        22.56874
547.79        22.83251
548.22        23.10165
548.66        23.29605
549.10         23.4276
549.53        23.51073
549.97        23.57871
550.41        23.63304
550.84        23.71436
551.28        23.87049
551.72        24.07078
552.15        24.28606
552.59        24.53335
553.03        24.46157
553.46         24.7996
553.90        24.89585
554.34        24.96622
554.77         25.0136
555.21        25.06825
555.65        25.15891
556.08        25.28163
556.52        25.41426
556.96        25.53119
557.39        25.66211
557.83        25.78009
558.27        25.74754
558.70        25.61045
559.14        25.59636
559.57        25.70593
560.01        25.80075
560.45        25.86329
560.88         25.9483
561.32        26.06215
561.75        26.16076
562.19        26.25119
562.63        26.33863
563.06        26.41823
563.50        26.49256
563.93        26.53724
564.37         26.5839
564.80        26.64543
565.24        26.65378
565.68        26.57249
566.11        26.92064
566.55        26.73659
566.98        26.82002
567.42        26.91908
567.85        27.05938
568.29        27.24795
568.72        27.48919
569.16        27.78096
569.60        27.99077
570.03        28.20984
570.47        28.38252
570.90        28.53315
571.34        28.67171
571.77        28.73114
572.21        29.03037
572.64        29.02491
573.08        29.20809
573.51        29.24579
573.95        29.32161
574.38        29.44933
574.82        29.56029
