SpectraSmart Spectrum 2.9.0.0
--------- Device Information -----------
Spectrum Name :  反射率_0
Saving Time :  2024/04/26 23:02:27
Spectro-Module Model Name : SE2030-DUVN
Spectro-Module Serial Number : OS361AC55029948
Wavelength Start : 200
Wavelength End : 1025
Wavelength Unit : Wavelength(nm)
Spectrum Unit : Reflectance(%)
-----------Spectrum Setting ------------
Integration Time : 20ms
Average : 10
Boxcar : 0
Background removal :  enabled
linearity correction :  enabled
SC :  disabled
Intensity correction :  disabled
DWT denoise :  enabled
savitzky-golay :  disabled
FFT :  disabled
Running average :  disabled
Kalman :  disabled
High pass :  disabled
---------------BEGIN--------------------
Wavelength(nm)             Reflectance(%)
200.29               0
200.75        30.59785
201.21         25.0558
201.67        20.13918
202.13        17.32105
202.58        16.44778
203.04        17.37497
203.50        20.00002
203.96        23.34267
204.42        26.52415
204.88        29.52208
205.34        32.34796
205.80        35.35559
206.26        38.15767
206.72        39.73822
207.18        40.16793
207.64        39.82275
208.10        38.83101
208.55        37.56418
209.01        35.05825
209.47        31.13349
209.93        27.80328
210.39        26.07984
210.85        26.05303
211.31        27.82804
211.77        32.08233
212.23        41.88965
212.69        66.77823
213.14        110.8014
213.60        112.1067
214.06        83.55635
214.52        62.94791
214.98        52.64188
215.44        46.86139
215.90        41.84156
216.36        37.90413
216.81        36.12657
217.27        37.18592
217.73        42.47429
218.19          50.218
218.65        50.91308
219.11        42.72614
219.57        32.27587
220.02        26.36555
220.48        28.51348
220.94        38.47602
221.40        57.76921
221.86        85.33645
222.32        101.7962
222.77        92.06829
223.23        69.73515
223.69        49.53991
224.15         39.6654
224.61        37.90286
225.06        39.55527
225.52        42.78896
225.98         45.9984
226.44        48.74451
226.90         51.7961
227.36        54.19476
227.81        54.04582
228.27        51.44917
228.73        47.10638
229.19        42.97723
229.65        41.32447
230.10         42.2174
230.56        44.97238
231.02        48.01607
231.48         48.8159
231.93        46.98676
232.39        43.85073
232.85        40.95329
233.31         40.2937
233.77        42.04963
234.22        45.46531
234.68        49.40357
235.14        52.21972
235.60        53.39765
236.05        53.43147
236.51        52.83335
236.97        52.70693
237.43         53.5154
237.88        54.90486
238.34        56.53262
238.80        58.18887
239.26        59.90391
239.71        62.37964
240.17        65.45776
240.63        68.85097
241.08        72.37588
241.54        75.22672
242.00        78.61148
242.46        85.68984
242.91        99.27757
243.37        121.4256
243.83        152.3737
244.28         177.132
244.74        174.2372
245.20        144.9924
245.66        109.4213
246.11        83.94154
246.57        69.20293
247.03        60.43618
247.48        56.38098
247.94        55.87618
248.40        57.37286
248.85        59.86187
249.31        62.35255
249.77        63.72995
250.22        63.97703
250.68        63.26768
251.14        61.29401
251.59        58.34653
252.05        55.83433
252.51        54.49802
252.96        54.61992
253.42        56.53061
253.88        59.64882
254.33        63.02212
254.79        67.05657
255.25        71.83663
255.70        77.12018
256.16        82.86409
256.62        87.07909
257.07        86.76386
257.53        83.32536
257.99        78.80402
258.44        74.82645
258.90        73.20434
259.35        73.02306
259.81        73.93362
260.27        74.90511
260.72        74.79825
261.18        73.84523
261.63         72.1623
262.09        70.80055
262.55        70.28286
263.00         70.4023
263.46        71.02893
263.91        71.24709
264.37        70.31487
264.83        68.23427
265.28        65.42059
265.74        62.86243
266.19        61.40536
266.65        61.20588
267.11        61.80781
267.56        62.58685
268.02         62.5656
268.47        61.50626
268.93        59.79879
269.38        57.86074
269.84        56.39691
270.30         55.5574
270.75        55.05778
271.21        54.73837
271.66        54.30258
272.12        53.65181
272.57        52.87391
273.03        51.93559
273.48        50.74237
273.94        49.40767
274.39         47.9516
274.85        46.62456
275.31        45.61051
275.76        44.89932
276.22         44.4499
276.67        44.11966
277.13        43.82287
277.58        43.43653
278.04        43.01433
278.49        42.43922
278.95        41.68958
279.40        40.73395
279.86         39.7053
280.31        38.64745
280.77        37.76029
281.22        37.03659
281.68        36.49494
282.13        36.08742
282.59        35.85232
283.04         35.7234
283.50        35.71206
283.95        35.71325
284.41        35.58404
284.86         35.2935
285.32        34.91415
285.77        34.52402
286.22        34.31796
286.68        34.31964
287.13        34.41372
287.59        34.53499
288.04        34.52687
288.50        34.37762
288.95        34.11468
289.41        33.77887
289.86        33.34184
290.32        32.87901
290.77        32.40219
291.22        32.02159
291.68        31.88054
292.13        31.99491
292.59        32.34284
293.04        32.86346
293.50        33.47675
293.95        34.12496
294.40        34.81485
294.86        35.52134
295.31        36.19993
295.77        36.85221
296.22        37.47147
296.68         38.0859
297.13        38.72905
297.58        39.42456
298.04        40.16566
298.49        40.95913
298.95        41.83442
299.40        42.76457
299.85        43.72679
300.31        44.66536
300.76        45.47532
301.21        46.14315
301.67        46.72184
302.12        47.21531
302.58        47.70991
303.03        48.20103
303.48        48.69428
303.94        49.23356
304.39        49.83257
304.84        50.49717
305.30        51.21725
305.75        51.89757
306.20        52.46141
306.66        52.90305
307.11          53.233
307.57        53.49176
308.02        53.67096
308.47          53.807
308.93        53.90638
309.38        54.01881
309.83          54.292
310.29        54.73646
310.74        55.29987
311.19        55.83138
311.65        56.07117
312.10        55.95847
312.55        55.57842
313.00        55.11249
313.46        54.83619
313.91        54.79846
314.36        54.93203
314.82        55.10693
315.27        55.12695
315.72        54.92962
316.18        54.59483
316.63        54.20415
317.08        53.90294
317.53        53.72533
317.99        53.61359
318.44        53.50239
318.89         53.2766
319.35        52.91054
319.80        52.45023
320.25        51.96603
320.70        51.56554
321.16        51.27307
321.61        51.07012
322.06        50.89592
322.51        50.65683
322.97        50.32148
323.42        49.92678
323.87        49.52829
324.32        49.22288
324.78        49.01346
325.23        48.89536
325.68        48.77439
326.13        48.51265
326.59        48.08424
327.04        47.55509
327.49        47.02013
327.94        46.63394
328.39         46.4236
328.85        46.31086
329.30        46.26379
329.75        46.13134
330.20        45.87083
330.66         45.5288
331.11        45.15029
331.56         44.7655
332.01        44.39642
332.46        44.01785
332.92        43.65879
333.37        43.44675
333.82        43.37523
334.27        43.42608
334.72         43.4929
335.17        43.38937
335.63        43.06984
336.08        42.61278
336.53        42.12773
336.98        41.81771
337.43        41.73794
337.88        41.81417
338.34        41.96887
338.79        42.11428
339.24        42.18031
339.69        42.19876
340.14        42.12706
340.59        41.89802
341.05        41.53237
341.50        41.05226
341.95        40.56994
342.40        40.26252
342.85        40.16527
343.30        40.21998
343.75        40.34966
344.20        40.42046
344.66        40.39056
345.11         40.3073
345.56        40.16319
346.01        39.94883
346.46        39.68789
346.91        39.38342
347.36        39.12785
347.81        39.07212
348.26        39.22992
348.72        39.54613
349.17        39.88829
349.62        40.06003
350.07         40.0054
350.52        39.78119
350.97        39.45197
351.42        39.13182
351.87        38.87118
352.32        38.64521
352.77        38.45911
353.22        38.31396
353.67        38.20451
354.13        38.14057
354.58        38.10457
355.03         38.0588
355.48        37.98625
355.93        37.87843
356.38        37.75615
356.83        37.65533
357.28        37.57843
357.73        37.51812
358.18        37.41813
358.63        37.19284
359.08        36.83874
359.53        36.39014
359.98        35.95421
360.43         35.6861
360.88        35.60663
361.33        35.66471
361.78        35.73902
362.23        35.63483
362.68        35.31184
363.13        34.83898
363.58        34.32737
364.03        33.94687
364.48        33.74187
364.93        33.65746
365.38        33.62901
365.83        33.55454
366.28        33.39934
366.73        33.19535
367.18         32.9711
367.63        32.76626
368.08        32.59193
368.53        32.43168
368.98        32.26217
369.43        32.05142
369.88        31.79513
370.33        31.50773
370.78        31.22671
371.23        31.01264
371.68        30.88026
372.13        30.81058
372.58        30.76119
373.03        30.66293
373.48        30.49451
373.93        30.27219
374.38        30.02481
374.83        29.80238
375.28        29.61917
375.72        29.45303
376.17        29.30156
376.62        29.12331
377.07         28.9187
377.52        28.71522
377.97        28.53339
378.42        28.40808
378.87        28.34405
379.32        28.30708
379.77        28.30834
380.22         28.3679
380.67        28.47145
381.11        28.62256
381.56        28.69975
382.01        28.53234
382.46        28.11157
382.91        27.51996
383.36         26.9432
383.81        26.63547
384.26        26.63595
384.71        26.86417
385.15        27.18007
385.60        27.34452
386.05        27.28127
386.50        27.05875
386.95        26.76004
387.40        26.51645
387.85        26.36852
388.29        26.25689
388.74         26.1727
389.19        26.04362
389.64        25.85762
390.09        25.64008
390.54        25.43464
390.98        25.30047
391.43        25.26646
391.88         25.3049
392.33        25.36248
392.78        25.36528
393.23        25.29931
393.67        25.17326
394.12        25.05754
394.57        25.00772
395.02        25.03049
395.47         25.0919
395.91        25.14728
396.36        25.11078
396.81        24.97979
397.26        24.79702
397.71        24.59401
398.15        24.42806
398.60        24.34652
399.05        24.23122
399.50        24.11786
399.95        24.23744
400.39         24.5079
400.84        24.48585
401.29        24.18702
401.74        24.02102
402.18         24.0123
402.63        23.90946
403.08        23.73782
403.53        23.64694
403.97        23.64566
404.42        23.69736
404.87        23.75418
405.32        23.73553
405.76        23.62158
406.21        23.45041
406.66        23.27453
407.11        23.17759
407.55        23.18451
408.00        23.25828
408.45        23.35218
408.90        23.37334
409.34        23.29352
409.79        23.14788
410.24        22.98601
410.68        22.86869
411.13        22.81718
411.58        22.81204
412.03        22.82023
412.47        22.79026
412.92        22.70381
413.37        22.58838
413.81        22.48189
414.26         22.4572
414.71        22.51542
415.15        22.63917
415.60        22.77103
416.05        22.83283
416.49        22.80317
416.94        22.70611
417.39        22.58433
417.83        22.50215
418.28        22.47674
418.73        22.48124
419.17        22.50729
419.62        22.54243
420.07        22.57594
420.51        22.60947
420.96        22.61948
421.41        22.56269
421.85        22.43094
422.30        22.23279
422.74        22.01168
423.19        21.92958
423.64        21.96719
424.08        21.97197
424.53        21.91533
424.98        21.91627
425.42         21.9806
425.87         21.9726
426.31        21.91668
426.76        22.01179
427.21        22.19794
427.65        22.14768
428.10        21.91507
428.54        21.81833
428.99        21.88382
429.44        22.01978
429.88        22.14302
430.33         22.0367
430.77        21.76396
431.22        21.74454
431.66        21.97391
432.11         22.0633
432.56        21.99795
433.00        22.11663
433.45         22.3142
433.89        22.11229
434.34        21.63132
434.78        21.31295
435.23        21.48866
435.67        21.55477
436.12        21.55788
436.57        21.56195
437.01        21.55336
437.46        21.53809
437.90        21.50742
438.35        21.39335
438.79        21.24653
439.24        21.21564
439.68        21.31498
440.13        21.49641
440.57        21.68799
441.02        21.79157
441.46        21.77665
441.91        21.62833
442.35        21.41512
442.80        21.43636
443.24        21.61986
443.69        21.58282
444.13        21.35178
444.58          21.299
445.02         21.4297
445.47        21.53813
445.91        21.59488
446.36        21.65488
446.80        21.70387
447.24        21.72709
447.69        21.72654
448.13        21.69966
448.58        21.65585
449.02        21.59506
449.47        21.53832
449.91        21.50614
450.36        21.50863
450.80        21.53476
451.25        21.57285
451.69        21.58765
452.13        21.57444
452.58         21.5404
453.02        21.49573
453.47        21.46026
453.91        21.44101
454.36        21.43648
454.80        21.43379
455.24         21.4131
455.69        21.37531
456.13        21.30827
456.58        21.25234
457.02         21.2342
457.46        21.26501
457.91        21.33557
458.35        21.38123
458.79        21.30818
459.24        21.12724
459.68        20.86557
460.13        20.63226
460.57        20.53585
461.01        20.61259
461.46        20.80706
461.90        21.06035
462.34        21.25515
462.79        21.34173
463.23        21.35628
463.68        21.30494
464.12        21.21594
464.56         21.1055
465.01        20.99302
465.45        20.87133
465.89        20.79001
466.34        20.75397
466.78        20.75024
467.22        20.77799
467.67        20.81023
468.11        20.84921
468.55        20.89276
468.99        20.93052
469.44        20.94446
469.88        20.93463
470.32        20.90175
470.77        20.87096
471.21        20.88814
471.65        20.95864
472.10        21.07047
472.54        21.18517
472.98        21.24937
473.42        21.25064
473.87        21.21247
474.31        21.15238
474.75         21.1179
475.20        21.12598
475.64         21.1545
476.08        21.19361
476.52        21.21726
476.97        21.21882
477.41        21.21827
477.85        21.23063
478.29        21.24637
478.74        21.28689
479.18        21.40252
479.62        21.55861
480.06        21.66539
480.50        21.71524
480.95         21.7198
481.39        21.69343
481.83        21.86902
482.27        21.93276
482.72        22.12943
483.16        22.33426
483.60        22.45923
484.04         22.4813
484.48        22.53214
484.93        22.66865
485.37        22.51818
485.81        22.81338
486.25        22.97273
486.69        22.56674
487.14        22.94114
487.58        23.68728
488.02        23.68395
488.46        23.40364
488.90        23.61807
489.34        23.68705
489.79        23.93706
490.23        24.02532
490.67        24.20712
491.11         24.4064
491.55        24.34564
491.99        24.12035
492.43        24.11057
492.88        24.35884
493.32        24.66098
493.76        24.95054
494.20        25.22503
494.64        25.46562
495.08         25.6185
495.52        25.70936
495.96        25.95161
496.41        26.30199
496.85        26.34869
497.29        26.14314
497.73        26.38162
498.17         26.6791
498.61        26.86699
499.05        26.82642
499.49        26.86812
499.93        26.95204
500.37        27.20267
500.82        27.53756
501.26        27.74835
501.70        27.80526
502.14        27.82957
502.58          27.874
503.02        27.96602
503.46        28.11967
503.90        28.32293
504.34        28.52419
504.78        28.63783
505.22        28.64522
505.66        28.57801
506.10         28.4865
506.54        28.44923
506.98        28.49066
507.42        28.58823
507.86        28.72096
508.30        28.85402
508.74        28.97128
509.18        29.08117
509.62        29.18279
510.06        29.27365
510.50        29.35356
510.94        29.41959
511.38        29.47043
511.82        29.50793
512.26        29.53528
512.70         29.5546
513.14        29.57788
513.58        29.62263
514.02        29.69152
514.46        29.77937
514.90        29.86898
515.34        29.93225
515.78        29.96118
516.22        29.96166
516.66        29.94765
517.10        29.94275
517.54        29.95316
517.98        29.97202
518.42         29.9865
518.86        29.97659
519.30        29.93875
519.74        29.88135
520.18        29.82043
520.62        29.77875
521.06        29.76302
521.50         29.7692
521.93        29.78425
522.37        29.77667
522.81        29.74353
523.25        29.68965
523.69        29.63532
524.13        29.61308
524.57        29.62384
525.01        29.65064
525.45        29.66212
525.89        29.60887
526.32        29.48046
526.76        29.30896
527.20        29.11843
527.64        28.94776
528.08        28.81359
528.52        28.70477
528.96        28.63349
529.40        28.61771
529.83        28.65006
530.27        28.72305
530.71        28.79187
531.15        28.78686
531.59        28.69455
532.03        28.53616
532.46        28.34825
532.90        28.21151
533.34        28.14309
533.78        28.10596
534.22        28.08606
534.66        28.09477
535.09        28.10221
535.53        28.05256
535.97        27.95514
536.41        27.89576
536.85        27.88356
537.28         27.8694
537.72        27.86592
538.16        27.91667
538.60        28.02052
539.04        28.16044
539.47         28.3024
539.91        28.41219
540.35        28.47523
540.79        28.50663
541.22        28.52051
541.66        28.55053
542.10        28.60394
542.54        28.67073
542.97        28.75186
543.41        28.86049
543.85        28.99298
544.29        29.15506
544.72        29.31932
545.16        29.46146
545.60        29.57323
546.04        29.66352
546.47        29.77431
546.91        29.96983
547.35        30.25147
547.79        30.59035
548.22        30.92111
548.66        31.13926
549.10        31.26252
549.53        31.31255
549.97        31.33576
550.41        31.33763
550.84        31.37668
551.28        31.51866
551.72         31.7286
552.15        31.97532
552.59        32.28134
553.03        32.18079
553.46        32.62541
553.90        32.74669
554.34        32.82461
554.77        32.86573
555.21        32.90929
555.65        32.99349
556.08        33.11585
556.52        33.24851
556.96        33.36595
557.39        33.51764
557.83        33.67092
558.27        33.64497
558.70        33.48947
559.14        33.48469
559.57        33.62381
560.01        33.72689
560.45        33.78393
560.88        33.87127
561.32        33.99735
561.75        34.14815
562.19        34.30624
562.63         34.3329
563.06        34.26889
563.50        34.36261
563.93         34.5605
564.37        34.66586
564.80        34.68572
565.24        34.66865
565.68        34.56363
566.11        34.98397
566.55        34.67981
566.98        34.69627
567.42        34.73066
567.85        34.87094
568.29        35.11908
568.72        35.43719
569.16        35.81384
569.60        36.00568
570.03        36.12207
570.47        36.24597
570.90        36.46752
571.34        36.14471
571.77         36.6395
572.21        36.77966
572.64        36.84259
573.08        37.25937
573.51        36.99282
573.95        37.18674
574.38        37.55495
574.82         37.4952
