SpectraSmart Spectrum 2.9.0.0
--------- Device Information -----------
Spectrum Name :  反射率_0
Saving Time :  2024/04/26 23:04:27
Spectro-Module Model Name : SE2030-DUVN
Spectro-Module Serial Number : OS361AC55029948
Wavelength Start : 200
Wavelength End : 1025
Wavelength Unit : Wavelength(nm)
Spectrum Unit : Reflectance(%)
-----------Spectrum Setting ------------
Integration Time : 20ms
Average : 10
Boxcar : 0
Background removal :  enabled
linearity correction :  enabled
SC :  disabled
Intensity correction :  disabled
DWT denoise :  enabled
savitzky-golay :  disabled
FFT :  disabled
Running average :  disabled
Kalman :  disabled
High pass :  disabled
---------------BEGIN--------------------
Wavelength(nm)             Reflectance(%)
200.29               0
200.75        49.44389
201.21        49.20834
201.67         49.2825
202.13        48.89796
202.58        47.91568
203.04        46.67994
203.50        46.22178
203.96        49.04271
204.42        56.29401
204.88        67.13973
205.34        78.00871
205.80        82.97635
206.26        80.69962
206.72        73.41593
207.18        65.24029
207.64        59.24154
208.10        55.33868
208.55        52.88036
209.01        50.75242
209.47        48.50195
209.93        47.09475
210.39        47.15685
210.85        48.91107
211.31        53.39765
211.77        62.54658
212.23        82.38802
212.69        130.6465
213.14        209.7475
213.60        203.2095
214.06        144.8785
214.52         105.941
214.98        88.11078
215.44        79.94733
215.90        74.79314
216.36        72.22136
216.81        72.80696
217.27        77.06873
217.73        87.44864
218.19        102.3214
218.65        107.9346
219.11        99.56627
219.57        86.12617
220.02        77.12717
220.48        77.96355
220.94        87.92849
221.40        107.9219
221.86        137.4852
222.32        157.7908
222.77        151.6288
223.23        131.4283
223.69        110.8029
224.15        97.37689
224.61        90.23684
225.06        86.00208
225.52        84.09921
225.98        83.62038
226.44        84.13915
226.90        85.84095
227.36        88.17271
227.81        89.93484
228.27        90.82463
228.73        90.73267
229.19        90.33378
229.65        90.55613
230.10        91.42223
230.56        92.82681
231.02        93.72929
231.48        92.61323
231.93        89.49255
232.39        85.54095
232.85        82.20284
233.31        81.40698
233.77          83.177
234.22        86.69109
234.68        90.67589
235.14        93.16973
235.60        93.53171
236.05        92.38194
236.51         89.8981
236.97        86.90826
237.43        84.02055
237.88        81.11996
238.34        78.76228
238.80        78.09357
239.26         79.4818
239.71        83.71481
240.17        89.88103
240.63        95.22097
241.08        97.91245
241.54        97.11452
242.00        95.04739
242.46        97.04668
242.91        106.9002
243.37        126.1637
243.83        156.1291
244.28        184.5671
244.74         190.998
245.20        173.8942
245.66        148.9376
246.11        131.3609
246.57        122.6244
247.03        118.2034
247.48        114.4047
247.94        107.0997
248.40        98.05395
248.85        90.22314
249.31        84.97547
249.77        81.68934
250.22        79.33582
250.68        76.99873
251.14        74.30107
251.59         71.4483
252.05        69.59678
252.51        69.68445
252.96        70.10867
253.42        69.55457
253.88        68.02255
254.33        65.53551
254.79        64.78272
255.25        67.87774
255.70        74.22511
256.16         82.8092
256.62        89.48868
257.07        88.32942
257.53        81.52109
257.99        73.15265
258.44        66.52895
258.90        64.45512
259.35        65.55287
259.81        68.59385
260.27        71.65197
260.72        72.42451
261.18        71.12033
261.63        68.52521
262.09        66.22652
262.55         65.3028
263.00        65.57266
263.46        66.60379
263.91        67.35574
264.37        66.91145
264.83        65.22639
265.28        62.81362
265.74        60.59688
266.19        59.33945
266.65        59.21619
267.11        59.78186
267.56        60.59083
268.02        60.95646
268.47        60.66164
268.93         59.9821
269.38        59.04883
269.84        58.13099
270.30        57.30908
270.75         56.4583
271.21        55.69277
271.66        55.13286
272.12        54.78289
272.57        54.58709
273.03        54.34859
273.48        53.70953
273.94        52.68183
274.39        51.35454
274.85        50.03217
275.31        48.95658
275.76        48.15773
276.22        47.60763
276.67        47.15131
277.13        46.70236
277.58        46.15317
278.04        45.56906
278.49        44.93147
278.95        44.36198
279.40        43.80593
279.86        43.31618
280.31        42.73721
280.77        42.00056
281.22        41.06944
281.68        40.08793
282.13         39.1702
282.59        38.58945
283.04        38.31971
283.50        38.28633
283.95        38.31821
284.41        38.17492
284.86        37.78323
285.32        37.25695
285.77        36.65778
286.22        36.14774
286.68        35.76341
287.13        35.41235
287.59        35.09007
288.04         34.7379
288.50        34.37451
288.95        33.99957
289.41        33.63129
289.86          33.205
290.32        32.76414
290.77         32.3074
291.22        31.91032
291.68        31.66818
292.13        31.58126
292.59        31.63344
293.04        31.76744
293.50        31.91924
293.95        32.05059
294.40        32.17636
294.86        32.31047
295.31         32.4658
295.77        32.65639
296.22        32.86831
296.68        33.09443
297.13        33.30732
297.58        33.51478
298.04        33.73124
298.49        33.99044
298.95        34.36129
299.40         34.8383
299.85         35.3931
300.31        35.96218
300.76        36.43604
301.21        36.79047
301.67         37.0652
302.12        37.27699
302.58        37.52031
303.03        37.78434
303.48        38.05522
303.94        38.32089
304.39        38.52628
304.84        38.67452
305.30        38.79945
305.75        38.88053
306.20        38.94067
306.66        39.00101
307.11        39.04441
307.57        39.09685
308.02        39.14686
308.47        39.20089
308.93        39.25646
309.38        39.30307
309.83        39.37606
310.29        39.47416
310.74        39.58697
311.19        39.64928
311.65        39.55194
312.10        39.28167
312.55        38.87832
313.00        38.47657
313.46        38.27571
313.91          38.298
314.36         38.4951
314.82        38.72062
315.27        38.74364
315.72        38.50425
316.18         38.0845
316.63        37.61419
317.08        37.31277
317.53        37.22981
317.99        37.28769
318.44        37.38162
318.89        37.33168
319.35        37.08932
319.80        36.71624
320.25        36.29786
320.70        35.96531
321.16        35.75574
321.61        35.64128
322.06        35.55881
322.51        35.41259
322.97        35.17095
323.42        34.86577
323.87        34.56644
324.32        34.38771
324.78        34.33781
325.23         34.3987
325.68        34.44165
326.13        34.26326
326.59        33.82581
327.04        33.21668
327.49        32.59424
327.94         32.2063
328.39        32.10929
328.85        32.21593
329.30        32.43792
329.75        32.54643
330.20        32.46128
330.66        32.23944
331.11         31.9582
331.56        31.71676
332.01        31.55205
332.46        31.42157
332.92        31.29055
333.37         31.1622
333.82         31.0135
334.27        30.86374
334.72        30.72356
335.17        30.59683
335.63        30.48505
336.08        30.40732
336.53        30.34824
336.98        30.29551
337.43        30.24598
337.88        30.19092
338.34        30.16105
338.79        30.24087
339.24         30.4232
339.69        30.68162
340.14        30.91008
340.59        30.94176
341.05        30.75568
341.50        30.40349
341.95        30.01784
342.40        29.80307
342.85        29.80799
343.30        29.96989
343.75        30.19257
344.20        30.31647
344.66        30.29766
345.11        30.18921
345.56        30.04225
346.01        29.93523
346.46        29.89894
346.91        29.90626
347.36        29.94495
347.81        30.00499
348.26        30.07288
348.72        30.14531
349.17          30.215
349.62        30.28038
350.07        30.33585
350.52        30.38625
350.97        30.38545
351.42          30.266
351.87        30.02965
352.32        29.70258
352.77        29.39533
353.22        29.26748
353.67        29.34387
354.13        29.58324
354.58        29.85066
355.03        29.91892
355.48        29.73436
355.93        29.36559
356.38        28.96716
356.83        28.77247
357.28        28.82757
357.73        29.05534
358.18        29.30879
358.63        29.35171
359.08        29.12554
359.53        28.70947
359.98        28.24081
360.43         27.9201
360.88        27.79098
361.33        27.78816
361.78        27.80342
362.23        27.66789
362.68        27.34993
363.13        26.92229
363.58        26.48713
364.03        26.19386
364.48        26.07771
364.93         26.0816
365.38        26.14415
365.83        26.16854
366.28        26.11922
366.73        26.02839
367.18        25.90153
367.63        25.74618
368.08        25.57208
368.53        25.36953
368.98        25.16945
369.43        25.02641
369.88        24.94905
370.33        24.92684
370.78        24.91305
371.23        24.82601
371.68        24.64691
372.13        24.39966
372.58        24.13617
373.03        23.94013
373.48        23.83061
373.93        23.77908
374.38        23.74208
374.83        23.65075
375.28        23.48907
375.72        23.28035
376.17        23.06751
376.62        22.88334
377.07        22.74186
377.52        22.63052
377.97        22.54848
378.42        22.49888
378.87        22.47394
379.32        22.46409
379.77        22.45676
380.22        22.43169
380.67        22.38008
381.11        22.31321
381.56         22.2038
382.01        22.03782
382.46        21.82972
382.91        21.59995
383.36        21.39844
383.81         21.2897
384.26        21.27856
384.71        21.34179
385.15        21.43463
385.60        21.48247
386.05        21.45803
386.50        21.37821
386.95        21.26117
387.40        21.13915
387.85        21.02686
388.29        20.90604
388.74        20.80006
389.19        20.69095
389.64        20.57688
390.09        20.46077
390.54        20.35582
390.98        20.27726
391.43        20.23851
391.88        20.22791
392.33        20.22049
392.78        20.18078
393.23        20.10366
393.67        19.99217
394.12        19.88861
394.57         19.8151
395.02        19.77727
395.47        19.76038
395.91        19.75403
396.36        19.73063
396.81        19.69306
397.26        19.65059
397.71        19.60354
398.15        19.56334
398.60        19.55496
399.05        19.49387
399.50        19.40028
399.95        19.44721
400.39        19.57216
400.84        19.42568
401.29        19.06016
401.74         18.8637
402.18        18.87135
402.63        18.87188
403.08        18.84737
403.53        18.85224
403.97        18.87637
404.42        18.90833
404.87        18.93137
405.32        18.91676
405.76        18.85751
406.21        18.76713
406.66        18.67733
407.11        18.64331
407.55        18.67941
408.00        18.76084
408.45        18.84571
408.90        18.84944
409.34        18.75161
409.79        18.58817
410.24        18.41088
410.68        18.28476
411.13        18.23149
411.58        18.23014
412.03        18.25797
412.47        18.27736
412.92        18.26795
413.37        18.24726
413.81        18.22453
414.26        18.22882
414.71        18.25829
415.15        18.30671
415.60        18.35196
416.05        18.37541
416.49        18.37225
416.94        18.34756
417.39        18.31617
417.83        18.29823
418.28        18.29895
418.73        18.31051
419.17        18.32879
419.62        18.34769
420.07          18.363
420.51        18.37125
420.96        18.37202
421.41        18.35891
421.85        18.32677
422.30        18.27545
422.74        18.20122
423.19        18.18145
423.64        18.18845
424.08        18.10508
424.53        17.95806
424.98         17.9258
425.42         18.0305
425.87        18.16167
426.31        18.26137
426.76         18.3173
427.21        18.28264
427.65        18.05473
428.10        17.74858
428.54        17.61972
428.99        17.70662
429.44         17.9536
429.88         18.2446
430.33        18.29782
430.77        18.14433
431.22        18.17137
431.66        18.36973
432.11        18.43013
432.56        18.36308
433.00         18.3334
433.45        18.30379
433.89        18.28543
434.34         18.3263
434.78        17.89458
435.23        18.04832
435.67        18.01348
436.12        18.05602
436.57        17.99667
437.01        17.85809
437.46        17.79477
437.90        17.81046
438.35        17.81738
438.79        17.80581
439.24        17.82254
439.68        17.86568
440.13        17.92021
440.57        17.98935
441.02        18.08606
441.46        18.19772
441.91        18.28631
442.35         18.3246
442.80        18.41413
443.24         18.4984
443.69        18.38599
444.13        18.13264
444.58        18.01852
445.02        18.06368
445.47        18.13333
445.91        18.19041
446.36        18.23456
446.80         18.2472
447.24        18.23556
447.69        18.20675
448.13        18.16266
448.58        18.11393
449.02        18.05563
449.47        18.00775
449.91        17.99437
450.36        18.02263
450.80        18.08005
451.25        18.14834
451.69        18.18523
452.13        18.18432
452.58        18.15615
453.02        18.11481
453.47        18.08702
453.91        18.08088
454.36        18.08925
454.80        18.10286
455.24         18.1063
455.69        18.09964
456.13        18.07558
456.58        18.05451
457.02        18.03788
457.46        18.03467
457.91        18.04199
458.35        18.03576
458.79        17.98387
459.24        17.90089
459.68        17.79222
460.13        17.70742
460.57        17.67576
461.01        17.71742
461.46        17.80244
461.90         17.9235
462.34        18.05244
462.79        18.16636
463.23        18.27581
463.68        18.34044
464.12        18.30928
464.56        18.17967
465.01        17.99668
465.45        17.79962
465.89        17.69018
466.34        17.68204
466.78         17.7445
467.22        17.84272
467.67        17.89586
468.11        17.88973
468.55        17.84148
468.99        17.77768
469.44        17.73827
469.88        17.73719
470.32         17.7575
470.77        17.79034
471.21         17.8272
471.65        17.86045
472.10        17.89699
472.54        17.92884
472.98        17.94832
473.42        17.95514
473.87        17.95688
474.31        17.95123
474.75        17.95299
475.20        17.97069
475.64        17.99489
476.08        18.02966
476.52         18.0715
476.97        18.11738
477.41        18.17331
477.85        18.24008
478.29        18.29169
478.74         18.3387
479.18        18.42892
479.62         18.5346
480.06        18.58059
480.50        18.56542
480.95        18.50861
481.39        18.42951
481.83        18.52281
482.27        18.52338
482.72        18.68343
483.16        18.83336
483.60        18.95248
484.04        18.97611
484.48        19.07964
484.93        19.31338
485.37        19.11118
485.81         19.0985
486.25        19.57813
486.69        19.20926
487.14        19.38303
487.58        19.90668
488.02        19.74039
488.46        19.47049
488.90        19.89912
489.34        19.94945
489.79        20.21515
490.23        20.23872
490.67        20.30157
491.11        20.38711
491.55        20.37919
491.99        20.32949
492.43        20.35684
492.88        20.48306
493.32        20.66474
493.76        20.86815
494.20        21.05609
494.64        21.21696
495.08        21.33744
495.52        21.43039
495.96        21.60098
496.41        21.83001
496.85        21.90882
497.29        21.84746
497.73        22.04343
498.17        22.18372
498.61         22.2894
499.05         22.2705
499.49        22.28795
499.93        22.31121
500.37        22.49765
500.82        22.78239
501.26        22.97338
501.70        23.04376
502.14        23.09774
502.58        23.17014
503.02        23.26948
503.46         23.4045
503.90        23.56788
504.34        23.72424
504.78         23.8171
505.22        23.83483
505.66        23.79769
506.10        23.74442
506.54        23.73632
506.98        23.78986
507.42        23.88603
507.86        24.00234
508.30        24.10101
508.74        24.16896
509.18        24.21956
509.62         24.2577
510.06        24.29063
510.50        24.32333
510.94        24.35121
511.38        24.38302
511.82        24.43435
512.26        24.50749
512.70        24.59983
513.14        24.69623
513.58        24.77082
514.02        24.81654
514.46        24.83753
514.90        24.84916
515.34        24.87796
515.78        24.92817
516.22        24.98962
516.66        25.04258
517.10        25.05565
517.54        25.02425
517.98        24.96382
518.42        24.89385
518.86         24.8442
519.30        24.82493
519.74        24.82626
520.18        24.84571
520.62        24.87856
521.06        24.91945
521.50        24.96984
521.93        25.01537
522.37        25.02369
522.81        24.99189
523.25        24.92416
523.69        24.84375
524.13        24.78904
524.57        24.76661
525.01        24.76444
525.45        24.75772
525.89        24.70556
526.32        24.59902
526.76        24.46321
527.20        24.32091
527.64        24.20809
528.08        24.13585
528.52        24.09163
528.96        24.07039
529.40        24.06444
529.83        24.06546
530.27        24.07524
530.71        24.07704
531.15        24.04693
531.59        23.98101
532.03        23.88445
532.46        23.77246
532.90        23.68722
533.34        23.63587
533.78        23.59874
534.22        23.56417
534.66        23.54166
535.09        23.51006
535.53        23.42064
535.97        23.30032
536.41        23.25142
536.85        23.28384
537.28        23.34663
537.72        23.41798
538.16        23.48083
538.60        23.52383
539.04        23.55157
539.47        23.56825
539.91        23.59615
540.35        23.63621
540.79        23.68492
541.22        23.73812
541.66        23.79719
542.10        23.86071
542.54        23.93359
542.97        24.01665
543.41        24.12022
543.85        24.24171
544.29        24.37727
544.72        24.52084
545.16        24.68116
545.60        24.85173
546.04        25.03314
546.47        25.21731
546.91        25.38611
547.35        25.53321
547.79        25.66437
548.22        25.78778
548.66        25.91199
549.10        26.06991
549.53        26.24388
549.97        26.42748
550.41        26.54918
550.84        26.63218
551.28          26.759
551.72        26.90573
552.15        27.05502
552.59        27.23953
553.03        27.06541
553.46        27.36856
553.90         27.4733
554.34        27.62239
554.77         27.8064
555.21        28.01402
555.65        28.20234
556.08        28.34764
556.52         28.4433
556.96        28.50107
557.39        28.61875
557.83        28.78053
558.27        28.81143
558.70          28.727
559.14        28.72769
559.57        28.80356
560.01        28.82208
560.45        28.79706
560.88        28.83681
561.32        28.95983
561.75        29.10113
562.19        29.24631
562.63        29.36853
563.06        29.45152
563.50        29.50595
563.93        29.52034
564.37        29.55374
564.80         29.6287
565.24        29.66478
565.68        29.59941
566.11        29.99131
566.55        29.76758
566.98         29.7887
567.42        29.81511
567.85        30.02375
568.29        30.38627
568.72         30.6945
569.16        30.93919
569.60        31.13203
570.03        31.38034
570.47        31.50259
570.90         31.5464
571.34        31.65187
571.77        31.76308
572.21        31.95001
572.64        32.13479
573.08        32.20472
573.51        32.20553
573.95        32.25833
574.38        32.43533
574.82        32.64512
