SpectraSmart Spectrum 2.9.0.0
--------- Device Information -----------
Spectrum Name :  反射率_0
Saving Time :  2024/04/26 23:01:41
Spectro-Module Model Name : SE2030-DUVN
Spectro-Module Serial Number : OS361AC55029948
Wavelength Start : 200
Wavelength End : 1025
Wavelength Unit : Wavelength(nm)
Spectrum Unit : Reflectance(%)
-----------Spectrum Setting ------------
Integration Time : 20ms
Average : 10
Boxcar : 0
Background removal :  enabled
linearity correction :  enabled
SC :  disabled
Intensity correction :  disabled
DWT denoise :  enabled
savitzky-golay :  disabled
FFT :  disabled
Running average :  disabled
Kalman :  disabled
High pass :  disabled
---------------BEGIN--------------------
Wavelength(nm)             Reflectance(%)
200.29               0
200.75         48.6717
201.21        44.36093
201.67        40.55727
202.13        38.57505
202.58        38.36649
203.04        40.17185
203.50        43.57822
203.96        46.51928
204.42        47.61421
204.88        46.80169
205.34        46.12074
205.80        49.52822
206.26        56.70629
206.72        64.54758
207.18         70.2113
207.64        71.78413
208.10        69.32679
208.55        63.54615
209.01        53.20153
209.47        42.66817
209.93        38.22306
210.39        38.73171
210.85        41.24247
211.31        44.10918
211.77        47.93821
212.23        55.76147
212.69        75.72427
213.14        114.6371
213.60        121.5971
214.06        100.6164
214.52        83.51747
214.98        74.17839
215.44        68.22483
215.90        62.43807
216.36        57.70058
216.81        55.92308
217.27         58.1117
217.73        65.87304
218.19        77.29529
218.65        80.30946
219.11         71.4918
219.57        58.94554
220.02        51.26105
220.48        53.04219
220.94        63.81182
221.40        85.07904
221.86        115.3968
222.32        132.7774
222.77        120.5967
223.23        94.48378
223.69        71.35928
224.15        60.48943
224.61        59.07335
225.06        61.59902
225.52        65.65902
225.98        68.86166
226.44        70.85072
226.90        72.86227
227.36        74.32641
227.81        73.96589
228.27        72.06304
228.73        68.90139
229.19        66.36214
229.65        66.78564
230.10        70.07367
230.56        75.39242
231.02        80.56983
231.48        82.08934
231.93        79.42998
232.39        74.54593
232.85        69.41692
233.31        66.57439
233.77         66.3447
234.22        67.77416
234.68        70.01227
235.14        71.86522
235.60        72.87891
236.05        73.59138
236.51        73.79112
236.97        73.14956
237.43        71.68802
237.88        69.38041
238.34        67.02939
238.80        66.36574
239.26        68.01713
239.71        72.55145
240.17        79.00092
240.63        84.37215
241.08        86.63563
241.54        85.06107
242.00        82.18446
242.46        83.80696
242.91        93.93137
243.37        114.6655
243.83        146.5554
244.28        173.8857
244.74        173.9816
245.20        147.1918
245.66        115.0037
246.11        96.63329
246.57        92.42588
247.03        96.34482
247.48         101.111
247.94        95.75986
248.40        82.47004
248.85        68.70055
249.31        58.56128
249.77         53.2988
250.22        51.72491
250.68        52.28418
251.14        54.69666
251.59        57.85772
252.05        60.51962
252.51        63.12764
252.96        63.78186
253.42        61.21106
253.88        56.46181
254.33        50.60186
254.79        46.92707
255.25        48.10196
255.70        53.64747
256.16        62.18305
256.62        70.38584
257.07        72.96918
257.53        70.66315
257.99        66.40473
258.44        62.51905
258.90        61.27515
259.35        61.78399
259.81        63.32249
260.27        64.72312
260.72        64.66026
261.18        63.38739
261.63         61.3426
262.09        59.53872
262.55         58.4924
263.00        58.09161
263.46        58.18467
263.91        58.18972
264.37        57.71854
264.83        56.71451
265.28        55.37261
265.74        54.21326
266.19        53.55132
266.65        53.48671
267.11        53.75689
267.56        54.09219
268.02        54.07915
268.47        53.60214
268.93        52.84437
269.38          51.898
269.84         50.9744
270.30        50.12547
270.75        49.25486
271.21        48.47002
271.66        47.86778
272.12        47.45285
272.57        47.19741
273.03        46.88256
273.48        46.13003
273.94        44.96639
274.39        43.49962
274.85         42.1342
275.31        41.27554
275.76        40.93827
276.22        40.98843
276.67        41.10329
277.13        40.93562
277.58         40.3494
278.04        39.51295
278.49        38.53036
278.95        37.68958
279.40        37.00383
279.86        36.46257
280.31        35.93208
280.77        35.35171
281.22        34.66816
281.68        34.00176
282.13        33.38718
282.59         32.9623
283.04        32.69576
283.50        32.54877
283.95         32.4394
284.41        32.26897
284.86        32.00151
285.32        31.69822
285.77        31.36051
286.22        31.05547
286.68        30.79983
287.13        30.53855
287.59        30.29829
288.04        30.07123
288.50         29.8805
288.95        29.70393
289.41        29.52888
289.86        29.26161
290.32         28.9315
290.77        28.54835
291.22        28.20193
291.68        28.00979
292.13        27.98086
292.59        28.09606
293.04        28.28135
293.50        28.44194
293.95        28.54321
294.40        28.61954
294.86        28.72406
295.31        28.93057
295.77        29.26032
296.22        29.67168
296.68        30.12327
297.13        30.53637
297.58        30.90009
298.04        31.24664
298.49        31.59913
298.95         32.0112
299.40        32.48306
299.85        32.98435
300.31        33.50433
300.76        34.02063
301.21        34.51562
301.67        35.00014
302.12        35.41317
302.58        35.72182
303.03        35.90456
303.48        36.00962
303.94        36.10257
304.39        36.24497
304.84         36.4693
305.30        36.76294
305.75        37.08927
306.20        37.44506
306.66        37.82077
307.11        38.19594
307.57        38.53835
308.02        38.74949
308.47        38.82674
308.93         38.7968
309.38        38.71589
309.83        38.72692
310.29        38.85633
310.74        39.06222
311.19        39.25003
311.65        39.25785
312.10        39.05139
312.55        38.69087
313.00        38.30353
313.46        38.07483
313.91        38.03129
314.36        38.12578
314.82        38.24519
315.27        38.21768
315.72        37.99583
316.18        37.64557
316.63        37.25925
317.08        36.99454
317.53        36.88694
317.99        36.87949
318.44        36.89366
318.89         36.7933
319.35        36.54331
319.80        36.18855
320.25        35.80425
320.70        35.50668
321.16        35.32525
321.61        35.23823
322.06        35.17487
322.51        35.02493
322.97        34.75657
323.42         34.4059
323.87        34.05898
324.32        33.85923
324.78        33.82228
325.23        33.92142
325.68        34.01635
326.13         33.8814
326.59        33.46825
327.04        32.86821
327.49        32.23972
327.94        31.83062
328.39         31.7001
328.85        31.76254
329.30        31.93343
329.75        31.99448
330.20        31.87101
330.66        31.61735
331.11        31.31755
331.56         31.0803
332.01        30.93897
332.46        30.84582
332.92        30.74109
333.37        30.58381
333.82        30.34365
334.27        30.05774
334.72        29.76567
335.17        29.52012
335.63        29.34014
336.08        29.22971
336.53        29.17303
336.98        29.15434
337.43        29.16018
337.88        29.18089
338.34        29.21277
338.79         29.2812
339.24        29.36707
339.69         29.4589
340.14        29.49672
340.59        29.39239
341.05        29.14882
341.50        28.80059
341.95        28.45013
342.40        28.25074
342.85        28.23827
343.30        28.36782
343.75        28.56104
344.20        28.68747
344.66        28.70606
345.11        28.64745
345.56        28.54935
346.01        28.47288
346.46        28.44184
346.91        28.44121
347.36        28.44404
347.81        28.41648
348.26        28.35061
348.72        28.25307
349.17        28.17103
349.62        28.18839
350.07        28.31247
350.52        28.52067
350.97        28.69794
351.42        28.66159
351.87        28.38707
352.32        27.94046
352.77        27.48651
353.22        27.26826
353.67        27.33089
354.13        27.59896
354.58        27.92106
355.03        28.04434
355.48         27.8998
355.93        27.56982
356.38        27.18252
356.83        26.92826
357.28        26.85231
357.73        26.88813
358.18          26.951
358.63        26.90923
359.08        26.72891
359.53        26.46349
359.98         26.1746
360.43         25.9458
360.88        25.79587
361.33        25.69007
361.78        25.59453
362.23        25.46108
362.68         25.2788
363.13        25.07366
363.58         24.8599
364.03        24.65364
364.48        24.46336
364.93        24.28127
365.38         24.1235
365.83        24.01877
366.28         23.9683
366.73        23.96226
367.18        23.96345
367.63        23.91232
368.08        23.79489
368.53         23.6262
368.98        23.43889
369.43        23.28712
369.88        23.18531
370.33        23.11723
370.78        23.05857
371.23        22.97023
371.68        22.84116
372.13        22.68459
372.58        22.52126
373.03        22.38162
373.48        22.27232
373.93        22.18217
374.38        22.09138
374.83        21.97024
375.28        21.81427
375.72        21.63199
376.17        21.45686
376.62        21.31058
377.07        21.20048
377.52        21.11845
377.97          21.056
378.42        21.00161
378.87        20.94882
379.32        20.89663
379.77        20.84612
380.22        20.79828
380.67        20.74923
381.11        20.70117
381.56        20.62938
382.01        20.51894
382.46        20.37696
382.91        20.22213
383.36        20.07897
383.81        19.97789
384.26        19.92037
384.71        19.88945
385.15        19.87914
385.60        19.88152
386.05        19.88514
386.50        19.89131
386.95        19.86655
387.40        19.76254
387.85        19.58242
388.29        19.33823
388.74        19.11153
389.19        18.96826
389.64        18.91706
390.09        18.93055
390.54        18.96342
390.98        18.93595
391.43        18.84123
391.88        18.70647
392.33        18.56158
392.78        18.44749
393.23        18.37481
393.67        18.31853
394.12        18.29014
394.57        18.27239
395.02        18.25814
395.47         18.2458
395.91         18.2333
396.36        18.20462
396.81         18.1686
397.26        18.13297
397.71        18.09356
398.15        18.05631
398.60        18.04547
399.05         17.9839
399.50        17.90694
399.95        17.99899
400.39        18.20433
400.84        18.18896
401.29        17.96361
401.74        17.83224
402.18        17.81279
402.63        17.72176
403.08         17.5804
403.53        17.50147
403.97         17.4926
404.42        17.52673
404.87        17.56541
405.32        17.54361
405.76        17.44616
406.21        17.30353
406.66        17.16134
407.11        17.09188
407.55        17.11609
408.00        17.20439
408.45        17.31378
408.90        17.35947
409.34          17.315
409.79        17.20883
410.24        17.08847
410.68        17.01588
411.13        17.00997
411.58        17.05056
412.03         17.0992
412.47        17.09312
412.92        17.01258
413.37        16.88758
413.81        16.76291
414.26        16.71465
414.71        16.74957
415.15        16.84929
415.60        16.96301
416.05        17.01644
416.49        16.98849
416.94        16.90161
417.39        16.79692
417.83        16.73666
418.28        16.73547
418.73        16.76788
419.17         16.8143
419.62        16.84479
420.07        16.84785
420.51          16.833
420.96        16.79914
421.41        16.73842
421.85        16.65121
422.30        16.53829
422.74        16.41772
423.19        16.39149
423.64        16.43968
424.08        16.45017
424.53          16.415
424.98        16.44717
425.42        16.55419
425.87        16.62651
426.31         16.6504
426.76        16.72877
427.21        16.80916
427.65        16.66137
428.10        16.37622
428.54        16.26732
428.99        16.36683
429.44        16.57786
429.88        16.79577
430.33         16.7914
430.77        16.59632
431.22        16.55334
431.66        16.67434
432.11        16.69099
432.56        16.61297
433.00         16.6569
433.45        16.74367
433.89        16.61862
434.34        16.39656
434.78        16.00795
435.23        16.36257
435.67        16.40999
436.12        16.37856
436.57        16.31036
437.01        16.23361
437.46        16.20461
437.90         16.2222
438.35        16.22344
438.79        16.19982
439.24        16.19448
439.68        16.20764
440.13        16.22713
440.57        16.24467
441.02        16.26469
441.46        16.28303
441.91        16.25471
442.35        16.19343
442.80        16.27948
443.24        16.44496
443.69        16.40857
444.13        16.19968
444.58         16.1225
445.02         16.1888
445.47        16.23481
445.91        16.24594
446.36         16.2791
446.80        16.32476
447.24        16.36704
447.69        16.40011
448.13        16.40742
448.58        16.39108
449.02        16.35644
449.47        16.31504
449.91        16.27629
450.36        16.25097
450.80        16.23471
451.25        16.23586
451.69        16.25632
452.13        16.29471
452.58        16.34323
453.02        16.39041
453.47        16.42007
453.91          16.427
454.36        16.42042
454.80        16.39175
455.24        16.32782
455.69        16.23886
456.13        16.12075
456.58        16.02547
457.02        16.00454
457.46        16.06953
457.91        16.19917
458.35        16.32663
458.79        16.34877
459.24        16.26155
459.68        16.09367
460.13        15.92366
460.57        15.82703
461.01        15.83596
461.46        15.90903
461.90        16.02772
462.34        16.14706
462.79        16.23995
463.23        16.32438
463.68        16.37268
464.12         16.3498
464.56        16.25466
465.01        16.12184
465.45        15.97524
465.89        15.89261
466.34        15.88617
466.78        15.93404
467.22        16.01736
467.67          16.085
468.11        16.12678
468.55        16.14567
468.99        16.15306
469.44        16.16551
469.88        16.18849
470.32          16.215
470.77        16.23022
471.21        16.21678
471.65        16.17234
472.10        16.10785
472.54        16.04911
472.98        16.04067
473.42         16.0898
473.87        16.18754
474.31        16.28799
474.75        16.33644
475.20        16.32573
475.64        16.26681
476.08        16.20278
476.52        16.19151
476.97        16.24603
477.41        16.35584
477.85        16.48751
478.29        16.56219
478.74         16.5774
479.18        16.59443
479.62        16.62823
480.06        16.67442
480.50        16.74035
480.95        16.81127
481.39        16.85753
481.83        17.00025
482.27        16.98564
482.72        17.02901
483.16        17.07156
483.60        17.10326
484.04        17.10815
484.48        17.18693
484.93        17.39763
485.37        17.31485
485.81        17.42889
486.25        17.83234
486.69        17.42661
487.14        17.41164
487.58         18.1519
488.02        18.09785
488.46        18.01506
488.90        18.23233
489.34        18.32578
489.79        18.49523
490.23        18.49581
490.67        18.54365
491.11        18.62152
491.55         18.6282
491.99         18.6036
492.43        18.66376
492.88        18.82191
493.32        19.02221
493.76        19.22754
494.20        19.41202
494.64        19.56671
495.08        19.65714
495.52        19.70197
495.96        19.86322
496.41        20.10839
496.85        20.12456
497.29        19.95482
497.73        20.13485
498.17        20.37029
498.61        20.52933
499.05        20.51599
499.49         20.5598
499.93         20.6279
500.37        20.81849
500.82        21.07027
501.26        21.22685
501.70        21.26803
502.14        21.28596
502.58         21.3255
503.02        21.41504
503.46        21.56519
503.90        21.76315
504.34        21.96112
504.78        22.07926
505.22        22.09905
505.66        22.04902
506.10        21.97066
506.54         21.9302
506.98        21.94906
507.42        22.00688
507.86        22.09414
508.30        22.19441
508.74        22.29692
509.18        22.40826
509.62        22.51243
510.06        22.58189
510.50        22.61301
510.94        22.61109
511.38        22.60089
511.82        22.62513
512.26        22.69431
512.70         22.7968
513.14        22.91082
513.58        23.00014
514.02        23.05303
514.46        23.07789
514.90        23.08906
515.34        23.10962
515.78        23.14549
516.22        23.18936
516.66        23.22544
517.10        23.22978
517.54        23.19935
517.98        23.14454
518.42        23.08838
518.86        23.06594
519.30        23.08427
519.74        23.13082
520.18        23.18271
520.62        23.20416
521.06        23.18561
521.50        23.13818
521.93        23.07831
522.37        23.02476
522.81        22.98955
523.25        22.96696
523.69        22.95004
524.13        22.92904
524.57        22.89891
525.01        22.85854
525.45        22.81568
525.89        22.78199
526.32        22.75559
526.76        22.73959
527.20        22.70893
527.64        22.62743
528.08        22.49477
528.52        22.32691
528.96        22.16853
529.40        22.08813
529.83        22.09727
530.27        22.17364
530.71        22.27032
531.15        22.31364
531.59        22.28276
532.03        22.19836
532.46        22.08538
532.90        21.99976
533.34        21.95357
533.78        21.91911
534.22        21.88515
534.66        21.86224
535.09        21.83152
535.53        21.75231
535.97        21.64463
536.41        21.59418
536.85        21.60895
537.28        21.64154
537.72        21.68694
538.16        21.75362
538.60        21.83389
539.04        21.92545
539.47        22.00288
539.91        22.04184
540.35         22.0371
540.79        22.00014
541.22        21.96636
541.66        21.99971
542.10        22.11067
542.54        22.28153
542.97        22.47246
543.41        22.62908
543.85        22.73344
544.29        22.80424
544.72        22.86387
545.16        22.96148
545.60        23.10252
546.04        23.27867
546.47        23.47253
546.91        23.63572
547.35        23.76459
547.79        23.90995
548.22        24.06554
548.66        24.18466
549.10        24.29705
549.53        24.41162
549.97        24.54726
550.41        24.67034
550.84        24.80718
551.28        25.01843
551.72        25.25388
552.15        25.45249
552.59        25.63284
553.03        25.44101
553.46        25.67157
553.90        25.70384
554.34        25.77486
554.77        25.86969
555.21        25.99859
555.65        26.15499
556.08         26.3203
556.52        26.48203
556.96        26.61127
557.39        26.73515
557.83        26.82963
558.27        26.75305
558.70        26.56882
559.14        26.53939
559.57        26.66906
560.01        26.80506
560.45        26.91816
560.88        27.04051
561.32        27.17083
561.75        27.28979
562.19        27.39786
562.63        27.44401
563.06        27.44778
563.50        27.51762
563.93        27.61947
564.37        27.68402
564.80        27.72097
565.24        27.71975
565.68        27.64278
566.11        28.00348
566.55        27.80051
566.98        27.87101
567.42         27.9561
567.85        28.08638
568.29         28.2663
568.72        28.50573
569.16        28.81661
569.60        28.98843
570.03        29.10466
570.47        29.28718
570.90        29.60331
571.34        29.28271
571.77         29.6551
572.21        29.81865
572.64        29.88925
573.08        29.98438
573.51         30.0662
573.95        30.20284
574.38        30.42224
574.82        30.48864
