SpectraSmart Spectrum 2.9.0.0
--------- Device Information -----------
Spectrum Name :  反射率_0
Saving Time :  2024/04/26 22:55:42
Spectro-Module Model Name : SE2030-DUVN
Spectro-Module Serial Number : OS361AC55029948
Wavelength Start : 200
Wavelength End : 1025
Wavelength Unit : Wavelength(nm)
Spectrum Unit : Reflectance(%)
-----------Spectrum Setting ------------
Integration Time : 20ms
Average : 10
Boxcar : 0
Background removal :  enabled
linearity correction :  enabled
SC :  disabled
Intensity correction :  disabled
DWT denoise :  enabled
savitzky-golay :  disabled
FFT :  disabled
Running average :  disabled
Kalman :  disabled
High pass :  disabled
---------------BEGIN--------------------
Wavelength(nm)             Reflectance(%)
200.29               0
200.75         28.8314
201.21        28.98882
201.67        28.82759
202.13        27.22023
202.58        23.85948
203.04        19.03569
203.50        13.49958
203.96        10.37469
204.42        11.99217
204.88        17.82373
205.34        26.09349
205.80        32.75014
206.26        35.80728
206.72        36.12266
207.18        34.37352
207.64        30.98632
208.10        25.88918
208.55        17.97152
209.01        7.336041
209.47        1.437484
209.93          4.5335
210.39        11.88242
210.85        18.50611
211.31        22.53119
211.77        24.98151
212.23        27.60557
212.69        31.61934
213.14        36.80615
213.60        32.72766
214.06        25.73716
214.52        23.00107
214.98        24.44407
215.44        28.36624
215.90        33.86671
216.36        39.59066
216.81        43.03333
217.27         43.5949
217.73        42.02932
218.19        37.63256
218.65        31.35837
219.11        26.89657
219.57        24.75976
220.02        24.61554
220.48        26.28431
220.94        29.65555
221.40        35.55071
221.86        44.04065
222.32        50.09489
222.77        48.70926
223.23        43.09931
223.69        36.80791
224.15        31.86948
224.61        28.35413
225.06        25.71282
225.52        24.13336
225.98        23.79327
226.44         24.5138
226.90        26.07598
227.36        28.10976
227.81        29.84011
228.27        30.96602
228.73        31.51339
229.19        31.66717
229.65        31.70843
230.10        31.72882
230.56        31.71259
231.02        31.50975
231.48        30.93538
231.93        30.03556
232.39        29.13134
232.85        28.53739
233.31        28.71069
233.77        29.61988
234.22        31.08654
234.68        32.67169
235.14        33.81444
235.60        34.33114
236.05        34.38131
236.51        34.02891
236.97        33.43681
237.43        32.74838
237.88        31.93703
238.34        31.25901
238.80        31.29773
239.26        32.29155
239.71        34.62663
240.17        37.87735
240.63        40.66437
241.08        42.05985
241.54        41.60623
242.00        40.72049
242.46        42.75415
242.91        50.07812
243.37         64.2633
243.83        85.64153
244.28        103.6227
244.74        103.5522
245.20        86.03796
245.66        65.05047
246.11        53.02822
246.57        50.44311
247.03        53.05082
247.48        57.38346
247.94        57.66914
248.40        53.73625
248.85        48.83884
249.31        44.58894
249.77        40.99623
250.22        37.34063
250.68        32.78519
251.14        27.15345
251.59        22.20385
252.05         20.3192
252.51         21.5769
252.96        24.33208
253.42        26.80571
253.88        28.58869
254.33        29.59564
254.79        31.07053
255.25        34.03437
255.70        38.33659
256.16         43.6584
256.62        47.68882
257.07        47.07047
257.53        43.19323
257.99        38.45255
258.44        34.95511
258.90        34.55487
259.35        36.33995
259.81        39.39091
260.27        42.29844
260.72        43.31828
261.18         42.5282
261.63        40.59703
262.09         38.6567
262.55        37.51479
263.00        37.13103
263.46        37.23716
263.91        37.21128
264.37        36.47379
264.83        35.03855
265.28        33.23244
265.74        31.69131
266.19          30.986
266.65        31.18842
267.11         31.9557
267.56        32.86948
268.02        33.25824
268.47        32.94116
268.93        32.17441
269.38        31.14005
269.84        30.16107
270.30        29.35186
270.75        28.59601
271.21        27.99679
271.66        27.68172
272.12        27.63595
272.57        27.81401
273.03        27.98075
273.48        27.73332
273.94        27.04479
274.39        26.03992
274.85        25.00764
275.31        24.24933
275.76         23.8168
276.22        23.62178
276.67        23.54701
277.13        23.48515
277.58        23.35325
278.04         23.2039
278.49        22.98559
278.95        22.70662
279.40        22.33809
279.86         21.9374
280.31        21.48847
280.77        21.05202
281.22        20.62507
281.68        20.24179
282.13        19.92171
282.59        19.74696
283.04        19.69002
283.50        19.72422
283.95        19.76902
284.41        19.70026
284.86        19.49072
285.32        19.20569
285.77         18.8818
286.22        18.61311
286.68        18.42779
287.13        18.27755
287.59        18.18521
288.04        18.15226
288.50        18.18387
288.95        18.25818
289.41        18.33571
289.86        18.30889
290.32        18.18937
290.77        18.00008
291.22        17.82099
291.68        17.76594
292.13        17.85042
292.59        18.04481
293.04        18.29788
293.50        18.54542
293.95        18.75416
294.40        18.94648
294.86        19.13095
295.31        19.31244
295.77        19.50765
296.22        19.71823
296.68        19.95299
297.13         20.2192
297.58        20.52274
298.04        20.85262
298.49        21.23093
298.95         21.7028
299.40        22.24883
299.85        22.84215
300.31        23.38103
300.76        23.71028
301.21        23.80957
301.67        23.74445
302.12        23.61547
302.58         23.6242
303.03        23.79404
303.48        24.07415
303.94        24.39108
304.39        24.61083
304.84        24.70922
305.30        24.74749
305.75        24.73671
306.20        24.73243
306.66        24.75945
307.11        24.78428
307.57        24.82688
308.02        24.89207
308.47        24.97813
308.93         25.0838
309.38        25.16843
309.83        25.20201
310.29        25.17804
310.74        25.10553
311.19        24.99197
311.65        24.84913
312.10         24.6861
312.55        24.50068
313.00        24.32833
313.46         24.2198
313.91        24.16903
314.36        24.16767
314.82        24.15745
315.27        24.04753
315.72        23.82196
316.18        23.52369
316.63        23.20971
317.08        22.97984
317.53        22.85819
317.99        22.80607
318.44         22.8006
318.89        22.79451
319.35         22.7642
319.80        22.72079
320.25        22.64449
320.70        22.50363
321.16        22.29725
321.61        22.04208
322.06        21.77281
322.51        21.55456
322.97        21.40246
323.42         21.2998
323.87        21.23653
324.32        21.19539
324.78        21.15676
325.23        21.14178
325.68        21.09445
326.13        20.92869
326.59        20.63526
327.04        20.24485
327.49        19.86352
327.94        19.66124
328.39        19.67017
328.85        19.84098
329.30        20.06773
329.75        20.11653
330.20         19.9209
330.66        19.54292
331.11        19.12163
331.56        18.86739
332.01        18.83723
332.46        18.96433
332.92        19.13669
333.37        19.19442
333.82        19.07245
334.27        18.83041
334.72        18.54163
335.17        18.32172
335.63        18.20878
336.08        18.17418
336.53        18.18081
336.98        18.17875
337.43         18.1465
337.88        18.09713
338.34        18.04286
338.79        18.01757
339.24        18.01994
339.69        18.03789
340.14         18.0327
340.59        17.94888
341.05        17.78701
341.50        17.56777
341.95        17.35421
342.40        17.23962
342.85        17.24479
343.30        17.34191
343.75        17.47434
344.20        17.54958
344.66        17.54332
345.11        17.47827
345.56        17.39456
346.01        17.35712
346.46        17.38463
346.91         17.4567
347.36        17.53906
347.81        17.58299
348.26        17.57707
348.72        17.53714
349.17        17.49641
349.62        17.51566
350.07        17.60435
350.52        17.74258
350.97        17.87125
351.42        17.89757
351.87        17.80448
352.32        17.62384
352.77          17.428
353.22        17.32292
353.67        17.33053
354.13        17.42143
354.58        17.52874
355.03        17.54758
355.48        17.45139
355.93        17.27598
356.38        17.08496
356.83        16.97174
357.28        16.95518
357.73         17.0021
358.18         17.0577
358.63        17.03556
359.08        16.91523
359.53        16.72929
359.98         16.5253
360.43        16.37082
360.88        16.28141
361.33         16.2333
361.78        16.19698
362.23        16.12795
362.68         16.0155
363.13        15.87867
363.58        15.73681
364.03        15.61589
364.48        15.52437
364.93        15.45415
365.38        15.39809
365.83         15.3466
366.28        15.29537
366.73        15.24516
367.18        15.19948
367.63        15.16369
368.08        15.13482
368.53        15.10643
368.98          15.064
369.43        14.98607
369.88        14.86925
370.33        14.72257
370.78        14.56273
371.23        14.41796
371.68        14.30158
372.13        14.21191
372.58        14.14606
373.03        14.09591
373.48        14.05616
373.93         14.0253
374.38        14.00238
374.83         13.9868
375.28        13.97159
375.72        13.94449
376.17        13.90094
376.62        13.81794
377.07        13.69615
377.52        13.55001
377.97        13.39432
378.42        13.25506
378.87        13.14508
379.32        13.05718
379.77        13.00271
380.22        12.99631
380.67        13.03127
381.11        13.10322
381.56        13.16362
382.01        13.14231
382.46        13.02794
382.91        12.85061
383.36        12.66003
383.81        12.52493
384.26        12.46067
384.71         12.4464
385.15        12.46547
385.60        12.49425
386.05        12.51699
386.50        12.53914
386.95        12.55121
387.40        12.53835
387.85        12.49975
388.29        12.43174
388.74        12.35947
389.19        12.29202
389.64        12.23299
390.09        12.17831
390.54         12.1296
390.98        12.08546
391.43        12.05383
391.88        12.03536
392.33        12.02204
392.78         12.0013
393.23        11.97103
393.67        11.92676
394.12        11.89216
394.57        11.87922
395.02        11.88766
395.47        11.90682
395.91        11.92111
396.36        11.89641
396.81        11.83494
397.26        11.75341
397.71        11.66525
398.15        11.59563
398.60         11.5665
399.05        11.52264
399.50        11.47915
399.95        11.54317
400.39        11.67583
400.84        11.66496
401.29        11.52175
401.74        11.44779
402.18        11.45419
402.63        11.41911
403.08        11.34689
403.53        11.29803
403.97        11.27572
404.42        11.26662
404.87        11.25432
405.32        11.20979
405.76        11.12771
406.21        11.02538
406.66        10.92961
407.11        10.88261
407.55        10.89615
408.00        10.95261
408.45        11.02403
408.90        11.05437
409.34        11.02673
409.79        10.95917
410.24        10.88238
410.68        10.83709
411.13        10.83533
411.58        10.86134
412.03        10.89295
412.47        10.89381
412.92        10.85141
413.37        10.78578
413.81        10.71471
414.26        10.66997
414.71         10.6543
415.15        10.65749
415.60        10.67052
416.05         10.6854
416.49        10.69743
416.94        10.71049
417.39        10.71369
417.83        10.68913
418.28        10.63458
418.73        10.55143
419.17        10.46899
419.62        10.43598
420.07        10.46033
420.51        10.52476
420.96        10.58946
421.41        10.58929
421.85         10.5119
422.30        10.38312
422.74        10.24014
423.19        10.18456
423.64        10.21273
424.08        10.23909
424.53        10.25153
424.98        10.31207
425.42        10.41779
425.87        10.50351
426.31        10.54378
426.76        10.57783
427.21        10.56965
427.65        10.38296
428.10        10.10822
428.54        9.991231
428.99        10.06262
429.44        10.24758
429.88        10.45424
430.33        10.49832
430.77        10.38797
431.22        10.34851
431.66        10.40404
432.11        10.40992
432.56        10.37992
433.00         10.4411
433.45        10.53032
433.89        10.46039
434.34        10.29846
434.78        10.01081
435.23        10.18732
435.67        10.19932
436.12         10.1949
436.57        10.19228
437.01        10.18788
437.46        10.18101
437.90        10.16435
438.35        10.11253
438.79        10.04569
439.24         10.0269
439.68        10.06323
440.13        10.13124
440.57        10.20874
441.02         10.2694
441.46        10.29879
441.91        10.27769
442.35        10.21587
442.80        10.22619
443.24        10.26883
443.69         10.1689
444.13        9.962593
444.58        9.867149
445.02        9.895227
445.47        9.941548
445.91        9.979769
446.36        10.01475
446.80        10.03366
447.24        10.03542
447.69        10.03095
448.13        10.03267
448.58        10.04642
449.02        10.06534
449.47        10.08357
449.91        10.08897
450.36         10.0817
450.80        10.06485
451.25        10.04992
451.69        10.04828
452.13        10.06323
452.58         10.0899
453.02        10.11682
453.47        10.12757
453.91        10.11803
454.36        10.09393
454.80        10.06337
455.24        10.03759
455.69        10.02321
456.13        10.00943
456.58        10.00077
457.02        9.987787
457.46         9.97302
457.91        9.957052
458.35         9.93288
458.79        9.889858
459.24         9.83786
459.68        9.776198
460.13        9.724852
460.57        9.686574
461.01        9.672103
461.46        9.668908
461.90        9.685184
462.34        9.723742
462.79        9.777803
463.23        9.848727
463.68        9.905684
464.12         9.90582
464.56        9.842381
465.01        9.744375
465.45        9.637014
465.89        9.581746
466.34        9.587686
466.78        9.635898
467.22        9.705696
467.67        9.750191
468.11        9.760655
468.55        9.747883
468.99        9.728415
469.44        9.727137
469.88        9.751152
470.32        9.788722
470.77        9.832592
471.21        9.875708
471.65        9.911671
472.10        9.945001
472.54        9.968261
472.98        9.973591
473.42        9.962147
473.87        9.941596
474.31        9.915895
474.75        9.902165
475.20         9.90655
475.64        9.918906
476.08        9.941068
476.52        9.969583
476.97        10.00132
477.41        10.04241
477.85        10.08325
478.29        10.09275
478.74        10.07759
479.18        10.07038
479.62        10.07962
480.06         10.1047
480.50        10.14811
480.95        10.19666
481.39        10.23561
481.83        10.34509
482.27        10.37203
482.72        10.44456
483.16         10.5087
483.60        10.55021
484.04        10.55281
484.48        10.54939
484.93        10.63633
485.37        10.65888
485.81        10.78834
486.25        11.19985
486.69        10.56976
487.14        10.32772
487.58        11.33303
488.02        11.26593
488.46        11.15833
488.90         11.2193
489.34         11.1098
489.79        11.27759
490.23        11.46013
490.67        11.64696
491.11        11.77207
491.55        11.77681
491.99        11.70983
492.43        11.73244
492.88        11.86142
493.32        11.98511
493.76        12.08052
494.20        12.17699
494.64        12.27208
495.08        12.33234
495.52        12.36327
495.96        12.45773
496.41         12.5934
496.85        12.57833
497.29        12.45405
497.73        12.57471
498.17        12.76075
498.61        12.92584
499.05        12.98851
499.49        13.05926
499.93         13.1092
500.37        13.20811
500.82        13.34297
501.26        13.45696
501.70        13.54479
502.14        13.65023
502.58        13.76884
503.02        13.86603
503.46         13.9382
503.90        13.99653
504.34        14.04365
504.78          14.083
505.22        14.11821
505.66        14.14888
506.10         14.1801
506.54        14.22084
506.98        14.27232
507.42        14.33133
507.86        14.39417
508.30        14.45325
508.74        14.50572
509.18        14.55488
509.62        14.59633
510.06        14.62395
510.50        14.63897
510.94        14.64286
511.38        14.65168
511.82        14.69092
512.26        14.76445
512.70        14.86481
513.14        14.96861
513.58        15.03746
514.02        15.06192
514.46        15.05198
514.90        15.02987
515.34        15.03279
515.78        15.06923
516.22        15.12605
516.66         15.1841
517.10        15.21273
517.54        15.20507
517.98        15.17488
518.42        15.13441
518.86        15.10211
519.30        15.08487
519.74        15.07486
520.18        15.07471
520.62        15.08896
521.06        15.11517
521.50        15.15301
521.93        15.18646
522.37        15.18218
522.81        15.13763
523.25        15.06208
523.69         14.9801
524.13        14.93096
524.57        14.92191
525.01        14.93837
525.45        14.96067
525.89         14.9565
526.32        14.91528
526.76        14.85367
527.20        14.77751
527.64        14.69636
528.08        14.61764
528.52        14.53927
528.96        14.47357
529.40        14.44035
529.83        14.44017
530.27        14.46593
530.71        14.49713
531.15        14.50115
531.59        14.46902
532.03        14.40915
532.46        14.33117
532.90         14.2619
533.34         14.2079
533.78        14.15666
534.22        14.10758
534.66        14.07674
535.09        14.05353
535.53        14.00686
535.97        13.94582
536.41        13.91992
536.85        13.93201
537.28        13.95413
537.72        13.98011
538.16        14.01048
538.60        14.04151
539.04          14.074
539.47        14.10235
539.91        14.12737
540.35        14.14827
540.79        14.16708
541.22        14.19428
541.66        14.25146
542.10        14.33993
542.54        14.45411
542.97        14.57706
543.41        14.68757
543.85        14.77842
544.29        14.85703
544.72        14.93314
545.16        15.03364
545.60        15.16091
546.04        15.30853
546.47        15.46744
546.91        15.61938
547.35        15.75582
547.79        15.88173
548.22        15.99889
548.66         16.1073
549.10        16.22738
549.53        16.34952
549.97        16.47379
550.41        16.56229
550.84        16.63175
551.28        16.73254
551.72        16.84994
552.15        16.97284
552.59        17.12084
553.03        17.04604
553.46         17.2709
553.90        17.36442
554.34        17.47815
554.77        17.60622
555.21        17.74631
555.65        17.87867
556.08         17.9903
556.52        18.07705
556.96        18.13856
557.39        18.22528
557.83        18.32611
558.27        18.33244
558.70        18.26945
559.14        18.28822
559.57        18.38443
560.01        18.46389
560.45        18.51198
560.88        18.56313
561.32        18.62405
561.75        18.66683
562.19        18.70368
562.63        18.75013
563.06          18.806
563.50        18.86889
563.93        18.92151
564.37        18.98527
564.80        19.06653
565.24        19.11626
565.68        19.09656
566.11        19.36336
566.55        19.22331
566.98        19.25585
567.42        19.29738
567.85        19.39434
568.29        19.55399
568.72        19.77183
569.16        20.03791
569.60        20.20174
570.03        20.32586
570.47        20.45415
570.90        20.62274
571.34        20.52787
571.77        20.76067
572.21        20.82186
572.64        20.88741
573.08        21.03527
573.51        21.26388
573.95         21.4011
574.38        21.44625
574.82        21.57534
