SpectraSmart Spectrum 2.9.0.0
--------- Device Information -----------
Spectrum Name :  反射率_0
Saving Time :  2024/04/26 23:05:36
Spectro-Module Model Name : SE2030-DUVN
Spectro-Module Serial Number : OS361AC55029948
Wavelength Start : 200
Wavelength End : 1025
Wavelength Unit : Wavelength(nm)
Spectrum Unit : Reflectance(%)
-----------Spectrum Setting ------------
Integration Time : 20ms
Average : 10
Boxcar : 0
Background removal :  enabled
linearity correction :  enabled
SC :  disabled
Intensity correction :  disabled
DWT denoise :  enabled
savitzky-golay :  disabled
FFT :  disabled
Running average :  disabled
Kalman :  disabled
High pass :  disabled
---------------BEGIN--------------------
Wavelength(nm)             Reflectance(%)
200.29               0
200.75        33.77011
201.21        39.77753
201.67        45.43257
202.13        49.07502
202.58        50.69328
203.04        51.43804
203.50        50.97975
203.96        48.26142
204.42        43.10386
204.88        35.47994
205.34        28.16702
205.80        26.05523
206.26        29.69309
206.72        36.92994
207.18        44.02299
207.64        47.96034
208.10        48.81119
208.55        47.54476
209.01        44.14515
209.47        41.74057
209.93         42.5081
210.39        44.72923
210.85        47.01977
211.31        49.25572
211.77        52.27297
212.23        58.20652
212.69        73.85011
213.14        107.8813
213.60        118.8818
214.06        104.6997
214.52        91.18415
214.98        82.92953
215.44        76.89377
215.90        70.48775
216.36        64.73923
216.81        61.71936
217.27        62.52587
217.73        68.51653
218.19        78.64317
218.65        83.48457
219.11        79.38734
219.57        71.91558
220.02        68.18681
220.48         73.5006
220.94        88.38541
221.40        115.0503
221.86        153.0873
222.32        178.6701
222.77        170.4258
223.23        144.3176
223.69        117.9475
224.15        101.2561
224.61        92.90092
225.06        88.27217
225.52         86.7637
225.98        87.56199
226.44        89.98164
226.90         94.1917
227.36        98.58276
227.81        100.0877
228.27        98.44621
228.73        94.62496
229.19        90.83764
229.65         89.7098
230.10        91.35477
230.56        94.95626
231.02        98.77412
231.48        100.1002
231.93        98.42536
232.39        95.26324
232.85        92.14949
233.31        91.13068
233.77        92.35411
234.22         94.9578
234.68        97.85395
235.14         99.4277
235.60        99.15264
236.05        97.63434
236.51        95.00749
236.97        91.96688
237.43        89.05811
237.88        86.22463
238.34        83.97586
238.80        83.37478
239.26        84.76071
239.71         88.9115
240.17        94.83662
240.63        99.79075
241.08        101.9453
241.54         100.312
242.00        97.30642
242.46        98.55248
242.91        107.8902
243.37        127.0657
243.83        156.4376
244.28        180.8939
244.74         178.885
245.20        151.3653
245.66        119.0393
246.11        99.58739
246.57        93.29096
247.03        94.82368
247.48        97.55957
247.94        91.91215
248.40        79.83841
248.85        67.43774
249.31        58.85708
249.77        55.80764
250.22        57.42939
250.68        62.92363
251.14        70.93642
251.59        75.94773
252.05        74.94056
252.51        70.72703
252.96        65.96203
253.42        63.59299
253.88        63.59056
254.33        64.21454
254.79        66.27289
255.25        70.24297
255.70        75.66978
256.16        82.39129
256.62        87.69315
257.07        87.43758
257.53        83.22662
257.99        77.75638
258.44        73.23269
258.90        71.89226
259.35        72.64946
259.81        74.80784
260.27        77.03233
260.72        77.73967
261.18        77.15246
261.63        75.65611
262.09          74.409
262.55        74.02328
263.00         74.3316
263.46        75.13912
263.91        75.70181
264.37        75.52555
264.83         74.5424
265.28        73.04708
265.74        71.67507
266.19        70.78667
266.65        70.53969
267.11        70.62144
267.56        70.84876
268.02        70.95393
268.47         70.8157
268.93        70.58871
269.38         70.1352
269.84        69.33472
270.30        68.18707
270.75        66.69331
271.21        65.25076
271.66        64.38381
272.12         64.1737
272.57        64.42486
273.03         64.6436
273.48        63.99947
273.94        62.44626
274.39        60.27175
274.85        58.11399
275.31        56.64062
275.76        55.93437
276.22        55.78865
276.67        55.82513
277.13        55.67319
277.58        55.13759
278.04        54.39923
278.49        53.49705
278.95        52.65485
279.40        51.85334
279.86        51.12638
280.31        50.33295
280.77        49.46055
281.22        48.45988
281.68        47.47451
282.13        46.57047
282.59        45.97113
283.04        45.62865
283.50        45.49115
283.95        45.39478
284.41         45.1243
284.86        44.61857
285.32        43.99348
285.77        43.31652
286.22        42.77108
286.68        42.39219
287.13        42.07179
287.59        41.79139
288.04         41.4589
288.50        41.08674
288.95          40.674
289.41          40.242
289.86        39.71889
290.32        39.15752
290.77        38.55172
291.22         37.9961
291.68        37.61122
292.13        37.39822
292.59        37.33913
293.04        37.35895
293.50        37.36773
293.95        37.32453
294.40        37.25969
294.86        37.20866
295.31        37.21406
295.77        37.29873
296.22        37.43484
296.68        37.60611
297.13        37.76777
297.58        37.91809
298.04        38.07215
298.49        38.25252
298.95         38.5144
299.40        38.85059
299.85        39.23803
300.31        39.62807
300.76         39.9328
301.21        40.13544
301.67        40.27144
302.12        40.35378
302.58        40.47286
303.03        40.61607
303.48        40.77915
303.94        40.94362
304.39        41.03992
304.84        41.07174
305.30        41.07254
305.75        41.04592
306.20        41.05592
306.66        41.12558
307.11         41.2215
307.57        41.32474
308.02        41.35102
308.47        41.30034
308.93         41.2015
309.38        41.09274
309.83         41.0872
310.29        41.19796
310.74        41.37904
311.19        41.53963
311.65         41.5288
312.10        41.31178
312.55        40.94354
313.00        40.53425
313.46        40.24481
313.91        40.10167
314.36        40.07125
314.82         40.0749
315.27        39.99614
315.72        39.80133
316.18        39.54037
316.63        39.27143
317.08         39.1003
317.53        39.04482
317.99        39.05563
318.44        39.07338
318.89        38.99369
319.35        38.78936
319.80         38.4977
320.25        38.16522
320.70        37.86484
321.16        37.62178
321.61        37.43098
322.06        37.27448
322.51        37.12702
322.97        36.97238
323.42         36.8184
323.87        36.68573
324.32        36.61202
324.78        36.58444
325.23        36.61009
325.68        36.59507
326.13        36.39809
326.59        36.00106
327.04        35.46781
327.49        34.93773
327.94        34.63343
328.39         34.6002
328.85        34.75887
329.30        35.01743
329.75        35.13066
330.20        35.02028
330.66        34.75266
331.11        34.42281
331.56        34.15832
332.01        34.00618
332.46        33.91375
332.92         33.8549
333.37        33.84694
333.82        33.85805
334.27        33.90228
334.72        33.93895
335.17        33.88743
335.63        33.73571
336.08        33.53012
336.53        33.32305
336.98        33.22256
337.43        33.25291
337.88        33.35834
338.34        33.52122
338.79        33.74342
339.24         33.9816
339.69        34.24514
340.14        34.40177
340.59        34.24316
341.05        33.76865
341.50        33.05285
341.95        32.34993
342.40        32.04887
342.85        32.22998
343.30        32.78048
343.75        33.46635
344.20        33.89228
344.66        33.94597
345.11        33.73736
345.56        33.42681
346.01        33.27629
346.46        33.35522
346.91        33.56231
347.36         33.7945
347.81        33.90663
348.26        33.85769
348.72        33.71157
349.17        33.51994
349.62        33.36509
350.07         33.2801
350.52        33.24874
350.97        33.23836
351.42        33.20304
351.87        33.12997
352.32        33.02493
352.77        32.94534
353.22        32.97234
353.67         33.1085
354.13        33.32763
354.58        33.50936
355.03        33.45746
355.48        33.14291
355.93        32.63971
356.38        32.12669
356.83        31.86992
357.28        31.92153
357.73        32.19596
358.18        32.53708
358.63        32.68698
359.08        32.56824
359.53        32.25538
359.98        31.85695
360.43        31.53431
360.88        31.32914
361.33        31.19044
361.78        31.04663
362.23        30.79202
362.68        30.41362
363.13        29.96709
363.58        29.54007
364.03         29.2546
364.48        29.13578
364.93        29.13986
365.38        29.19275
365.83        29.17682
366.28        29.05526
366.73        28.85967
367.18        28.63389
367.63         28.4472
368.08        28.31957
368.53        28.22853
368.98        28.14411
369.43        28.02231
369.88        27.85238
370.33        27.64911
370.78         27.4479
371.23        27.30531
371.68         27.2325
372.13        27.20888
372.58        27.18509
373.03        27.08342
373.48        26.88547
373.93        26.61535
374.38          26.321
374.83        26.08109
375.28        25.91807
375.72        25.80337
376.17        25.71832
376.62        25.60088
377.07        25.44136
377.52        25.26649
377.97        25.10246
378.42        24.99242
378.87        24.94476
379.32        24.93015
379.77        24.94069
380.22        24.96872
380.67        25.00033
381.11        25.04367
381.56        25.03717
382.01        24.90663
382.46        24.65424
382.91        24.32358
383.36        24.00167
383.81         23.8058
384.26        23.75446
384.71        23.80898
385.15         23.9178
385.60         23.9931
386.05        23.99825
386.50        23.95247
386.95         23.8616
387.40        23.73777
387.85        23.59445
388.29        23.41986
388.74         23.2541
389.19        23.09648
389.64        22.95135
390.09         22.8182
390.54        22.71217
390.98           22.65
391.43        22.64338
391.88        22.67715
392.33        22.71827
392.78        22.71966
393.23        22.67323
393.67        22.58289
394.12        22.49404
394.57         22.4307
395.02        22.39879
395.47        22.37931
395.91        22.36831
396.36        22.34728
396.81        22.32301
397.26        22.30843
397.71        22.28529
398.15        22.23858
398.60        22.19656
399.05        22.07245
399.50        21.92661
399.95        22.00927
400.39        22.25726
400.84        22.25635
401.29        22.00871
401.74        21.86766
402.18        21.85024
402.63        21.73702
403.08        21.56244
403.53        21.47719
403.97        21.49331
404.42        21.57255
404.87        21.66025
405.32        21.66637
405.76        21.56842
406.21        21.40498
406.66        21.23723
407.11        21.16187
407.55        21.20639
408.00        21.33297
408.45        21.47989
408.90        21.52818
409.34        21.44325
409.79        21.26643
410.24        21.07295
410.68        20.96174
411.13        20.96042
411.58        21.04046
412.03        21.13799
412.47        21.14534
412.92        21.03129
413.37        20.84254
413.81        20.65756
414.26        20.60489
414.71        20.69845
415.15        20.90471
415.60        21.13547
416.05        21.25533
416.49         21.2236
416.94        21.07937
417.39        20.89785
417.83        20.79354
418.28        20.79626
418.73        20.86666
419.17        20.96149
419.62        21.01296
420.07         21.0013
420.51        20.94911
420.96        20.88113
421.41        20.82655
421.85        20.78795
422.30        20.74516
422.74        20.68823
423.19        20.69901
423.64        20.74374
424.08         20.6977
424.53        20.57077
424.98        20.53786
425.42        20.62313
425.87         20.6818
426.31        20.70168
426.76        20.81589
427.21        20.95672
427.65        20.83647
428.10        20.54611
428.54        20.44302
428.99        20.56094
429.44        20.78761
429.88        21.01284
430.33        20.98312
430.77        20.74664
431.22        20.72394
431.66         20.9171
432.11         20.9707
432.56        20.89048
433.00        20.95523
433.45        21.07635
433.89        20.95279
434.34        20.72719
434.78        20.29687
435.23        20.79893
435.67        20.88059
436.12        20.82765
436.57         20.7033
437.01        20.55203
437.46        20.46018
437.90        20.43531
438.35        20.39692
438.79        20.34109
439.24        20.33121
439.68        20.36657
440.13        20.43005
440.57        20.49847
441.02        20.55356
441.46        20.58371
441.91        20.53959
442.35        20.44823
442.80        20.55318
443.24        20.77214
443.69        20.74275
444.13        20.50154
444.58        20.43099
445.02        20.54494
445.47        20.63836
445.91        20.68221
446.36        20.73248
446.80        20.77534
447.24        20.79324
447.69         20.7995
448.13        20.80734
448.58        20.82402
449.02        20.84517
449.47        20.85606
449.91        20.82108
450.36         20.7466
450.80        20.64576
451.25         20.5605
451.69        20.53978
452.13        20.59477
452.58        20.70069
453.02        20.82562
453.47        20.92133
453.91        20.96959
454.36        20.98744
454.80         20.9669
455.24        20.89703
455.69        20.79112
456.13        20.63964
456.58        20.50424
457.02        20.44504
457.46        20.48051
457.91         20.5947
458.35          20.712
458.79         20.7164
459.24        20.60682
459.68        20.41005
460.13        20.22637
460.57        20.16994
461.01        20.27893
461.46        20.46795
461.90        20.67417
462.34        20.92733
462.79         20.9436
463.23        20.95428
463.68        20.89487
464.12        20.79938
464.56        20.68332
465.01         20.5677
465.45        20.45401
465.89        20.39639
466.34        20.39961
466.78        20.44954
467.22        20.52813
467.67        20.57895
468.11        20.59693
468.55        20.58638
468.99        20.56435
469.44        20.55783
469.88        20.57633
470.32        20.60804
470.77        20.64517
471.21        20.68003
471.65        20.70693
472.10        20.73263
472.54         20.7537
472.98        20.77092
473.42        20.78491
473.87        20.80078
474.31         20.8084
474.75        20.81337
475.20        20.82117
475.64        20.82253
476.08        20.82615
476.52        20.83329
476.97         20.8448
477.41        20.87245
477.85        20.91302
478.29        20.93033
478.74        20.93855
479.18        20.99228
479.62        21.08262
480.06        21.16117
480.50        21.22534
480.95        21.27305
481.39        21.27879
481.83        21.41238
482.27        21.35836
482.72        21.37678
483.16        21.39869
483.60        21.42113
484.04        21.42334
484.48        21.53655
484.93        21.81398
485.37        21.68786
485.81        21.76712
486.25        22.21883
486.69        21.63708
487.14        21.64632
487.58        22.53198
488.02         22.5005
488.46        22.10534
488.90        22.41426
489.34        22.54715
489.79         22.7686
490.23        22.70498
490.67        22.79164
491.11         22.9907
491.55        23.04324
491.99        22.98397
492.43        23.01045
492.88        23.13965
493.32        23.26978
493.76        23.38749
494.20        23.53009
494.64        23.70019
495.08        23.84103
495.52        23.94654
495.96        24.16207
496.41        24.43247
496.85        24.39546
497.29        24.12736
497.73        24.29803
498.17         24.5639
498.61        24.78239
499.05        24.80635
499.49        24.83988
499.93        24.83486
500.37        24.94194
500.82        25.12862
501.26        25.26758
501.70        25.34678
502.14        25.45241
502.58        25.59613
503.02        25.74434
503.46         25.8931
503.90        26.05302
504.34        26.18897
504.78        26.24301
505.22        26.20951
505.66         26.1074
506.10        25.99894
506.54        25.98454
506.98        26.08482
507.42        26.26805
507.86        26.47733
508.30         26.6165
508.74        26.65842
509.18        26.63588
509.62        26.58023
510.06        26.54245
510.50        26.54272
510.94        26.56278
511.38        26.60714
511.82         26.6846
512.26         26.7905
512.70         26.9242
513.14        27.05774
513.58        27.14268
514.02        27.16799
514.46        27.14394
514.90        27.09953
515.34        27.08545
515.78        27.11447
516.22        27.17116
516.66        27.23375
517.10        27.26604
517.54        27.26002
517.98        27.23268
518.42        27.19737
518.86        27.17363
519.30        27.16834
519.74        27.17152
520.18        27.18682
520.62        27.22078
521.06        27.27103
521.50        27.33741
521.93        27.39779
522.37         27.4061
522.81        27.35796
523.25        27.26257
523.69        27.15736
524.13        27.10188
524.57        27.10613
525.01        27.15084
525.45        27.19347
525.89        27.16489
526.32        27.04852
526.76        26.87765
527.20        26.69206
527.64        26.55453
528.08        26.48316
528.52        26.45916
528.96        26.46252
529.40        26.46164
529.83         26.4452
530.27        26.42608
530.71        26.40678
531.15        26.39328
531.59        26.38678
532.03        26.37821
532.46        26.36277
532.90        26.35509
533.34        26.35005
533.78         26.3304
534.22        26.28956
534.66        26.24875
535.09        26.19082
535.53        26.06377
535.97        25.89417
536.41        25.79067
536.85        25.76735
537.28        25.77169
537.72        25.80481
538.16        25.88502
538.60        26.00336
539.04        26.15202
539.47         26.2912
539.91        26.37822
540.35        26.39997
540.79        26.36914
541.22        26.32663
541.66        26.34887
542.10        26.44914
542.54        26.60695
542.97        26.77629
543.41        26.89547
543.85        26.94776
544.29        26.95971
544.72        26.96523
545.16        27.03303
545.60        27.17297
546.04        27.36646
546.47        27.58878
546.91        27.79472
547.35        27.96615
547.79         28.1176
548.22          28.256
548.66        28.38598
549.10        28.54385
549.53        28.70898
549.97        28.87961
550.41        28.98957
550.84        29.06695
551.28        29.19778
551.72        29.35308
552.15        29.50851
552.59        29.69712
553.03        29.49178
553.46        29.79899
553.90        29.87584
554.34        29.98633
554.77        30.12117
555.21        30.27919
555.65        30.43194
556.08        30.55909
556.52         30.6527
556.96        30.71124
557.39        30.81617
557.83        30.94823
558.27        30.92815
558.70        30.79661
559.14        30.80567
559.57        30.94799
560.01        31.06208
560.45        31.13398
560.88        31.23925
561.32        31.38606
561.75        31.51684
562.19        31.62632
562.63        31.70089
563.06        31.73419
563.50        31.73957
563.93        31.71043
564.37        31.71908
564.80        31.78817
565.24         31.8251
565.68        31.76728
566.11        32.20612
566.55        31.98192
566.98        32.05828
567.42        32.14091
567.85        32.27094
568.29        32.45774
568.72        32.70701
569.16        33.02647
569.60        33.20993
570.03        33.36432
570.47        33.53482
570.90        33.76897
571.34        33.57236
571.77        33.89498
572.21        33.95231
572.64        33.95832
573.08        34.14968
573.51        34.06414
573.95        34.18465
574.38        34.36192
574.82        34.63919
