SpectraSmart Spectrum 2.9.0.0
--------- Device Information -----------
Spectrum Name :  反射率_0
Saving Time :  2024/04/26 22:58:28
Spectro-Module Model Name : SE2030-DUVN
Spectro-Module Serial Number : OS361AC55029948
Wavelength Start : 200
Wavelength End : 1025
Wavelength Unit : Wavelength(nm)
Spectrum Unit : Reflectance(%)
-----------Spectrum Setting ------------
Integration Time : 20ms
Average : 10
Boxcar : 0
Background removal :  enabled
linearity correction :  enabled
SC :  disabled
Intensity correction :  disabled
DWT denoise :  enabled
savitzky-golay :  disabled
FFT :  disabled
Running average :  disabled
Kalman :  disabled
High pass :  disabled
---------------BEGIN--------------------
Wavelength(nm)             Reflectance(%)
200.29               0
200.75        38.88835
201.21        40.44234
201.67        42.59519
202.13        44.25823
202.58        45.32482
203.04        46.73761
203.50         48.7059
203.96        50.93466
204.42        53.13327
204.88        54.77985
205.34        56.27061
205.80        58.89608
206.26        62.28334
206.72        65.11799
207.18        66.80207
207.64        67.02207
208.10        65.86486
208.55        63.99282
209.01        59.89613
209.47        53.50813
209.93        48.16831
210.39        45.38235
210.85        45.15529
211.31        47.47209
211.77        53.16338
212.23        66.31464
212.69        100.2379
213.14        162.3112
213.60        168.2545
214.06        131.3122
214.52        103.0221
214.98        87.61902
215.44        77.78755
215.90        68.51445
216.36         61.1427
216.81        58.93476
217.27        63.29041
217.73        76.18982
218.19        95.25318
218.65        102.3495
219.11        91.13806
219.57        73.96759
220.02        62.40688
220.48        62.17064
220.94        72.32942
221.40         93.5463
221.86        125.9404
222.32        150.5979
222.77        148.3721
223.23        130.8158
223.69        111.2474
224.15         97.6347
224.61        89.62331
225.06         83.9776
225.52        80.84314
225.98        80.08472
226.44        81.21297
226.90        84.20641
227.36        87.78907
227.81         89.5088
228.27        89.05737
228.73        87.05135
229.19        85.11215
229.65        85.24055
230.10        87.46813
230.56        91.10873
231.02        94.58888
231.48         95.4817
231.93        93.40846
232.39        89.86772
232.85        86.28941
233.31         84.5479
233.77        84.82172
234.22         86.3573
234.68        88.35959
235.14        89.69427
235.60        89.93318
236.05        89.52964
236.51        88.32349
236.97        86.28262
237.43        83.63758
237.88        80.53197
238.34        77.62109
238.80        76.23937
239.26         76.8548
239.71        79.98399
240.17        85.11067
240.63        90.71126
241.08        95.59496
241.54         98.9151
242.00        101.6108
242.46        106.4807
242.91        116.0708
243.37        131.0652
243.83        151.4104
244.28        166.9131
244.74         162.872
245.20          140.76
245.66        116.1163
246.11         101.174
246.57        96.01507
247.03        96.92387
247.48        99.00526
247.94        94.96935
248.40        86.17905
248.85        77.02744
249.31        70.59462
249.77         67.9256
250.22        68.25233
250.68        70.69641
251.14        74.53072
251.59        76.99055
252.05        76.67447
252.51        75.36298
252.96        73.24695
253.42        70.93066
253.88        68.76665
254.33        66.33262
254.79        65.89032
255.25        69.19259
255.70        75.64803
256.16        84.36718
256.62        91.74001
257.07         92.2474
257.53        87.57707
257.99        81.29229
258.44        76.06482
258.90        74.45667
259.35        75.28782
259.81        77.60654
260.27        80.07692
260.72        81.13383
261.18        80.90071
261.63        79.70556
262.09         78.4989
262.55        77.61748
263.00        76.97827
263.46         76.5919
263.91        75.99844
264.37        75.09784
264.83        73.85651
265.28        72.39217
265.74        71.16043
266.19        70.29346
266.65        69.89526
267.11        69.73606
267.56        69.65948
268.02        69.44342
268.47        68.99383
268.93        68.42998
269.38        67.67386
269.84        66.69707
270.30        65.51434
270.75        64.13156
271.21        62.82019
271.66        61.90628
272.12        61.44582
272.57        61.29342
273.03        61.16345
273.48        60.56272
273.94        59.46643
274.39        58.00613
274.85        56.52659
275.31        55.30188
275.76         54.3721
276.22        53.70107
276.67         53.1294
277.13        52.58942
277.58        51.96455
278.04        51.32255
278.49        50.62941
278.95        49.99672
279.40        49.35878
279.86        48.77896
280.31        48.09085
280.77        47.23289
281.22        46.15914
281.68        45.01688
282.13        43.92818
282.59        43.18882
283.04        42.77361
283.50        42.62564
283.95        42.54174
284.41        42.23705
284.86        41.64624
285.32        40.90597
285.77        40.16682
286.22        39.72289
286.68        39.61053
287.13        39.67361
287.59        39.77032
288.04        39.62498
288.50        39.21743
288.95        38.61795
289.41        37.96532
289.86        37.36577
290.32        36.90849
290.77        36.52892
291.22        36.24744
291.68        36.07671
292.13        35.99066
292.59        36.01014
293.04        36.09549
293.50        36.20577
293.95        36.31548
294.40        36.43492
294.86        36.58157
295.31        36.77511
295.77        37.03336
296.22        37.34049
296.68        37.69642
297.13        38.07895
297.58        38.49044
298.04        38.93509
298.49        39.41739
298.95        39.96632
299.40        40.56188
299.85        41.18106
300.31        41.78315
300.76        42.29298
301.21        42.69798
301.67         43.0335
302.12        43.29605
302.58        43.55528
303.03        43.79895
303.48        44.03666
303.94        44.28851
304.39        44.53532
304.84        44.79012
305.30        45.06997
305.75        45.33041
306.20        45.56745
306.66        45.78607
307.11        45.96192
307.57        46.11938
308.02        46.23495
308.47        46.32003
308.93        46.38489
309.38        46.41158
309.83        46.43511
310.29        46.46085
310.74        46.47532
311.19        46.46101
311.65        46.38189
312.10        46.22855
312.55        46.01701
313.00        45.79029
313.46         45.6084
313.91        45.46877
314.36         45.3667
314.82        45.26134
315.27        45.10139
315.72        44.87169
316.18        44.60126
316.63        44.31831
317.08        44.08685
317.53        43.91695
317.99        43.77845
318.44        43.64293
318.89        43.45181
319.35        43.19016
319.80        42.87948
320.25        42.54158
320.70         42.2106
321.16        41.89907
321.61        41.61504
322.06        41.35261
322.51        41.10622
322.97        40.86879
323.42        40.64491
323.87        40.45108
324.32        40.32059
324.78        40.23454
325.23        40.19716
325.68        40.12134
326.13        39.87901
326.59        39.45123
327.04        38.89994
327.49        38.32865
327.94        37.90287
328.39        37.66078
328.85        37.54005
329.30        37.51286
329.75        37.44796
330.20        37.30275
330.66        37.10878
331.11        36.90317
331.56         36.7135
332.01        36.55145
332.46        36.39085
332.92        36.21404
333.37        36.06149
333.82        35.91687
334.27        35.78429
334.72        35.65141
335.17         35.4883
335.63        35.29198
336.08        35.10264
336.53        34.93472
336.98        34.82417
337.43        34.77978
337.88        34.77178
338.34        34.81236
338.79        34.96026
339.24        35.18679
339.69        35.46855
340.14        35.67608
340.59        35.60627
341.05        35.24453
341.50        34.66664
341.95          34.051
342.40        33.67082
342.85        33.59391
343.30        33.73622
343.75        33.99501
344.20        34.19571
344.66        34.27558
345.11        34.28503
345.56         34.2287
346.01         34.1149
346.46        33.96382
346.91        33.76723
347.36        33.57366
347.81        33.47056
348.26        33.47226
348.72        33.55752
349.17        33.67277
349.62        33.74054
350.07        33.73634
350.52        33.68576
350.97        33.59569
351.42        33.48047
351.87         33.3548
352.32        33.21444
352.77        33.09059
353.22         33.0296
353.67        33.03426
354.13        33.09045
354.58        33.15317
355.03        33.14564
355.48        33.04504
355.93        32.86901
356.38        32.65929
356.83        32.47978
357.28        32.34353
357.73        32.23067
358.18        32.10384
358.63        31.90615
359.08        31.63198
359.53        31.31018
359.98        30.98755
360.43        30.72652
360.88        30.53805
361.33         30.4003
361.78         30.2787
362.23        30.11979
362.68        29.91207
363.13        29.67699
363.58        29.43565
364.03        29.21847
364.48         29.0328
364.93         28.8631
365.38        28.70765
365.83        28.56747
366.28        28.43818
366.73        28.32021
367.18        28.19345
367.63        28.02449
368.08        27.80912
368.53        27.55913
368.98        27.30197
369.43        27.08135
369.88        26.90987
370.33        26.77681
370.78        26.66495
371.23        26.54605
371.68        26.40947
372.13        26.25999
372.58        26.10886
373.03        25.97272
373.48        25.85302
373.93        25.74324
374.38         25.6213
374.83        25.45505
375.28        25.24381
375.72        24.99777
376.17        24.76908
376.62        24.60321
377.07        24.51111
377.52        24.47823
377.97        24.47366
378.42        24.44921
378.87        24.38742
379.32        24.29313
379.77        24.18999
380.22        24.11342
380.67        24.06528
381.11        24.03945
381.56        23.97856
382.01         23.8183
382.46        23.56054
382.91        23.24788
383.36        22.95366
383.81        22.77165
384.26         22.7155
384.71        22.75397
385.15        22.83955
385.60        22.89305
386.05        22.88485
386.50        22.83343
386.95        22.75423
387.40        22.67479
387.85        22.60387
388.29        22.51508
388.74        22.43225
389.19         22.3367
389.64         22.2267
390.09        22.10847
390.54        21.98758
390.98        21.86666
391.43         21.7652
391.88         21.6818
392.33        21.61724
392.78        21.57123
393.23        21.54025
393.67        21.50967
394.12        21.49708
394.57        21.48703
395.02        21.47318
395.47        21.44805
395.91        21.40991
396.36        21.34595
396.81        21.27073
397.26         21.1981
397.71        21.12499
398.15        21.05828
398.60        21.02712
399.05        20.94186
399.50        20.84794
399.95        20.96614
400.39        21.23083
400.84        21.24955
401.29        21.02238
401.74         20.8851
402.18        20.85499
402.63        20.72355
403.08        20.52795
403.53        20.41968
403.97        20.41361
404.42        20.47268
404.87        20.54935
405.32        20.56259
405.76        20.49118
406.21        20.37194
406.66        20.25102
407.11        20.20279
407.55        20.24878
408.00        20.35237
408.45        20.47286
408.90        20.52921
409.34        20.49419
409.79        20.39837
410.24        20.27674
410.68        20.17136
411.13        20.10076
411.58        20.04983
412.03        20.00817
412.47        19.96363
412.92        19.90785
413.37        19.85661
413.81        19.81499
414.26        19.80448
414.71        19.82006
415.15        19.85963
415.60        19.90358
416.05        19.93806
416.49        19.95753
416.94        19.96116
417.39        19.95601
417.83        19.95234
418.28        19.95225
418.73        19.94979
419.17        19.94515
419.62        19.93971
420.07        19.93398
420.51        19.92539
420.96        19.91345
421.41        19.89137
421.85        19.85286
422.30        19.79508
422.74        19.72091
423.19        19.72349
423.64         19.7753
424.08        19.75028
424.53        19.65404
424.98        19.64978
425.42        19.75575
425.87        19.83134
426.31        19.86112
426.76        19.96722
427.21        20.08395
427.65        19.93945
428.10        19.61989
428.54        19.46708
428.99        19.51634
429.44         19.6604
429.88         19.8154
430.33        19.77293
430.77        19.58385
431.22        19.63706
431.66        19.90025
432.11        19.99885
432.56        19.92947
433.00        19.90076
433.45        19.87765
433.89        19.83752
434.34        19.85573
434.78        19.43923
435.23        19.70993
435.67         19.7163
436.12        19.73962
436.57        19.64136
437.01        19.46444
437.46          19.383
437.90        19.40581
438.35        19.43334
438.79        19.43275
439.24        19.42102
439.68        19.38884
440.13        19.33357
440.57        19.28374
441.02        19.28273
441.46        19.33103
441.91        19.42218
442.35        19.50546
442.80        19.56693
443.24         19.5839
443.69        19.56631
444.13        19.52571
444.58        19.50408
445.02        19.50539
445.47        19.51861
445.91        19.53352
446.36        19.54353
446.80        19.54187
447.24        19.53478
447.69        19.52823
448.13        19.52187
448.58        19.52043
449.02        19.51704
449.47        19.51383
449.91        19.50517
450.36        19.49597
450.80        19.48536
451.25        19.47598
451.69        19.45909
452.13        19.43685
452.58        19.40552
453.02         19.3771
453.47        19.37415
453.91         19.3981
454.36        19.44582
454.80        19.48162
455.24        19.44779
455.69        19.34367
456.13        19.17824
456.58        19.02291
457.02        18.95317
457.46        18.99161
457.91        19.11209
458.35        19.24253
458.79        19.27408
459.24        19.20121
459.68        19.04949
460.13        18.90504
460.57        18.84908
461.01        18.91237
461.46        19.04477
461.90        19.20822
462.34        19.32493
462.79        19.36057
463.23        19.34756
463.68         19.2797
464.12        19.16037
464.56        19.00522
465.01        18.84551
465.45        18.69648
465.89        18.63036
466.34        18.65239
466.78        18.73717
467.22        18.86199
467.67        18.96392
468.11         19.0296
468.55        19.06565
468.99        19.07175
469.44        19.04832
469.88        19.00385
470.32        18.93572
470.77        18.87117
471.21        18.85965
471.65        18.90735
472.10        19.00266
472.54        19.10848
472.98        19.17018
473.42         19.1738
473.87        19.14309
474.31        19.08707
474.75        19.03898
475.20        19.01462
475.64        18.99672
476.08        18.99318
476.52        19.00661
476.97        19.03534
477.41        19.08975
477.85        19.16114
478.29        19.20433
478.74        19.22849
479.18        19.28748
479.62        19.37257
480.06        19.43857
480.50        19.48699
480.95        19.51931
481.39        19.52227
481.83        19.66521
482.27        19.65809
482.72        19.73554
483.16        19.82227
483.60        19.88066
484.04        19.88925
484.48        20.00713
484.93        20.25725
485.37        20.07601
485.81         20.1341
486.25        20.45836
486.69        20.12391
487.14        20.36923
487.58        20.99971
488.02         20.7588
488.46        20.46012
488.90        20.75997
489.34        20.65049
489.79        20.95221
490.23        21.16434
490.67        21.27806
491.11        21.28462
491.55        21.31613
491.99        21.40368
492.43        21.46551
492.88        21.51293
493.32        21.59619
493.76        21.71081
494.20        21.84207
494.64        21.99578
495.08        22.13341
495.52        22.25659
495.96        22.51113
496.41        22.84401
496.85        22.90583
497.29        22.74692
497.73        22.97133
498.17         23.2513
498.61        23.46469
499.05        23.47746
499.49        23.48843
499.93        23.45906
500.37        23.53386
500.82        23.69239
501.26        23.82789
501.70        23.93187
502.14        24.08479
502.58        24.28133
503.02        24.46231
503.46        24.61621
503.90        24.75567
504.34        24.86606
504.78        24.92512
505.22        24.93297
505.66        24.89751
506.10        24.84806
506.54        24.83274
506.98        24.86586
507.42        24.93845
507.86        25.03565
508.30        25.12878
508.74        25.20806
509.18          25.282
509.62        25.35414
510.06        25.43073
510.50        25.51237
510.94        25.59086
511.38         25.6657
511.82         25.7388
512.26        25.80898
512.70        25.87737
513.14        25.93517
513.58        25.96776
514.02        25.97445
514.46        25.96022
514.90        25.94354
515.34        25.95424
515.78        25.99747
516.22        26.06292
516.66        26.12989
517.10        26.16423
517.54        26.15816
517.98        26.12495
518.42        26.07791
518.86        26.03851
519.30        26.01486
519.74        25.99889
520.18        25.99432
520.62        26.00661
521.06        26.03433
521.50        26.07873
521.93         26.1226
522.37        26.12756
522.81        26.09024
523.25        26.01713
523.69        25.93768
524.13        25.89968
524.57        25.90932
525.01        25.94831
525.45        25.98111
525.89        25.95009
526.32        25.84206
526.76        25.68906
527.20        25.51914
527.64         25.3771
528.08        25.27875
528.52        25.20915
528.96         25.1701
529.40        25.16424
529.83        25.18312
530.27        25.22587
530.71        25.26102
531.15        25.24016
531.59        25.15463
532.03        25.01704
532.46        24.85774
532.90         24.7447
533.34        24.69037
533.78        24.66439
534.22        24.64533
534.66        24.62896
535.09        24.58879
535.53        24.48065
535.97        24.33221
536.41        24.24842
536.85        24.24306
537.28        24.26542
537.72        24.30552
538.16        24.36613
538.60        24.43866
539.04        24.52026
539.47        24.60146
539.91        24.68361
540.35        24.76047
540.79        24.83271
541.22        24.89775
541.66        24.96211
542.10        25.02486
542.54        25.08524
542.97        25.14815
543.41         25.2316
543.85        25.33515
544.29        25.45899
544.72        25.58428
545.16        25.69882
545.60        25.79585
546.04         25.8834
546.47        25.98622
546.91        26.13867
547.35        26.34297
547.79        26.58756
548.22        26.83569
548.66        27.02694
549.10        27.18188
549.53        27.30356
549.97        27.42557
550.41        27.54004
550.84        27.68649
551.28        27.92568
551.72        28.20027
552.15        28.44182
552.59        28.66902
553.03        28.48332
553.46        28.77872
553.90        28.86594
554.34        29.00753
554.77        29.18433
555.21        29.38335
555.65        29.55918
556.08         29.6878
556.52        29.76936
556.96        29.81208
557.39        29.90868
557.83        30.04347
558.27        30.03682
558.70        29.92234
559.14        29.93541
559.57        30.06746
560.01        30.16901
560.45        30.22831
560.88        30.31731
561.32        30.44636
561.75        30.56794
562.19        30.68718
562.63        30.78612
563.06        30.86822
563.50        30.98492
563.93        31.09517
564.37         31.1751
564.80        31.23564
565.24        31.22806
565.68        31.11972
566.11        31.52275
566.55        31.31355
566.98        31.42414
567.42        31.55263
567.85        31.71807
568.29        31.92093
568.72        32.17645
569.16        32.50506
569.60        32.68579
570.03        32.82421
570.47        33.03437
570.90        33.37249
571.34        33.05067
571.77        33.52408
572.21        33.57895
572.64        33.62385
573.08        33.88833
573.51        34.02034
573.95        34.22094
574.38        34.38209
574.82        34.54679
