SpectraSmart Spectrum 2.9.0.0
--------- Device Information -----------
Spectrum Name :  反射率_0
Saving Time :  2024/04/26 23:02:55
Spectro-Module Model Name : SE2030-DUVN
Spectro-Module Serial Number : OS361AC55029948
Wavelength Start : 200
Wavelength End : 1025
Wavelength Unit : Wavelength(nm)
Spectrum Unit : Reflectance(%)
-----------Spectrum Setting ------------
Integration Time : 20ms
Average : 10
Boxcar : 0
Background removal :  enabled
linearity correction :  enabled
SC :  disabled
Intensity correction :  disabled
DWT denoise :  enabled
savitzky-golay :  disabled
FFT :  disabled
Running average :  disabled
Kalman :  disabled
High pass :  disabled
---------------BEGIN--------------------
Wavelength(nm)             Reflectance(%)
200.29               0
200.75        31.51774
201.21        33.92893
201.67        36.18635
202.13        36.75422
202.58        35.46502
203.04        33.10741
203.50         30.1834
203.96        28.46064
204.42        29.33552
204.88        32.13547
205.34        36.67339
205.80        42.23991
206.26        47.33231
206.72         51.1729
207.18        52.63709
207.64         50.6882
208.10        45.17339
208.55        35.56419
209.01         21.3075
209.47        10.59276
209.93        10.46393
210.39        16.71608
210.85        23.71219
211.31        29.20678
211.77        34.70556
212.23        44.01855
212.69        66.45997
213.14        111.2549
213.60         122.485
214.06        100.2033
214.52        81.06422
214.98        70.58106
215.44        63.98663
215.90        57.65636
216.36        52.37325
216.81        49.90148
217.27        51.13296
217.73        57.55653
218.19        67.19582
218.65        68.74551
219.11        59.62477
219.57        47.69148
220.02        40.62756
220.48        42.37947
220.94        52.47775
221.40        72.19279
221.86        100.3696
222.32        117.1579
222.77        106.8316
223.23        83.24443
223.69        61.40118
224.15        49.47924
224.61        45.41371
225.06        44.81139
225.52        45.87135
225.98        46.83116
226.44        47.30338
226.90        48.09182
227.36        48.72175
227.81        48.22546
228.27        46.76071
228.73        44.47268
229.19         42.6721
229.65        42.98972
230.10        45.36287
230.56        49.23381
231.02        52.97167
231.48        53.93845
231.93        51.79066
232.39        47.97408
232.85        44.16681
233.31        42.53992
233.77        43.30038
234.22        45.61013
234.68        48.45457
235.14        50.37572
235.60        50.85312
236.05        50.36097
236.51        49.01652
236.97        47.16264
237.43        45.15185
237.88        42.97219
238.34        41.02245
238.80        40.11353
239.26        40.57639
239.71        42.91859
240.17        47.01194
240.63        52.00132
241.08        57.13935
241.54        61.68493
242.00        66.42401
242.46        74.03983
242.91        87.18262
243.37         107.753
243.83        135.6201
244.28        156.8788
244.74         152.561
245.20        124.1809
245.66        92.92198
246.11         76.5506
246.57        74.87532
247.03        82.27413
247.48         91.5333
247.94         90.5438
248.40        80.15865
248.85        67.79422
249.31        57.79401
249.77        51.54184
250.22        47.82064
250.68        44.82587
251.14        42.08626
251.59        39.80939
252.05         38.8638
252.51        40.00816
252.96         41.2398
253.42        40.57347
253.88        38.28251
254.33         34.9118
254.79         33.0523
255.25        34.89255
255.70        39.99984
256.16        47.30247
256.62         53.4607
257.07        53.55667
257.53         48.9925
257.99        43.03286
258.44        38.33287
258.90        37.08934
259.35        38.31438
259.81        40.93898
260.27        43.50481
260.72        44.24272
261.18        43.26637
261.63        41.29332
262.09        39.43016
262.55        38.45447
263.00        38.29043
263.46        38.60414
263.91        38.81784
264.37        38.42453
264.83        37.38578
265.28        35.97924
265.74        34.66663
266.19        33.77013
266.65        33.38356
267.11        33.28754
267.56        33.31604
268.02        33.20821
268.47        32.89361
268.93        32.49946
269.38        32.02975
269.84        31.53125
270.30         31.0111
270.75        30.40188
271.21        29.84792
271.66        29.53763
272.12         29.4806
272.57        29.61814
273.03        29.65797
273.48        29.12655
273.94        28.02615
274.39        26.53799
274.85        25.12959
275.31        24.33425
275.76        24.20064
276.22        24.52971
276.67        24.97699
277.13        25.11284
277.58        24.79953
278.04        24.20921
278.49        23.46269
278.95         22.8269
279.40        22.33773
279.86        21.96826
280.31        21.61601
280.77        21.22153
281.22        20.75324
281.68        20.29427
282.13        19.90407
282.59        19.71137
283.04        19.69578
283.50         19.8059
283.95         19.9271
284.41        19.88788
284.86        19.65025
285.32        19.29636
285.77        18.89767
286.22        18.59704
286.68        18.42812
287.13        18.32255
287.59        18.26898
288.04        18.21817
288.50        18.16648
288.95        18.11392
289.41        18.05107
289.86        17.91215
290.32        17.72174
290.77        17.49495
291.22        17.29799
291.68        17.22316
292.13        17.28268
292.59        17.45551
293.04        17.70612
293.50        17.99284
293.95        18.28327
294.40        18.58435
294.86        18.87911
295.31        19.13839
295.77         19.3636
296.22        19.55667
296.68        19.74333
297.13        19.95663
297.58        20.21631
298.04        20.52435
298.49         20.8772
298.95        21.27658
299.40        21.70964
299.85        22.16735
300.31        22.63767
300.76        23.10142
301.21        23.54085
301.67        23.95523
302.12        24.30437
302.58        24.57713
303.03        24.75646
303.48        24.87149
303.94        24.95146
304.39        25.01884
304.84        25.09385
305.30        25.18021
305.75        25.27234
306.20        25.40123
306.66        25.56906
307.11        25.75599
307.57        25.92558
308.02         25.9894
308.47         25.9409
308.93        25.80838
309.38        25.64314
309.83        25.56126
310.29        25.58442
310.74        25.67702
311.19        25.76527
311.65        25.72407
312.10         25.5285
312.55        25.22742
313.00        24.91322
313.46        24.72059
313.91         24.6675
314.36        24.71207
314.82        24.77971
315.27        24.75776
315.72         24.6111
316.18        24.38425
316.63        24.11599
317.08        23.87572
317.53        23.68522
317.99        23.51925
318.44        23.36897
318.89        23.21384
319.35        23.04765
319.80        22.87936
320.25        22.71492
320.70        22.55998
321.16        22.41236
321.61        22.27364
322.06        22.12738
322.51        21.95224
322.97         21.7412
323.42         21.5026
323.87        21.26462
324.32        21.07606
324.78        20.94085
325.23        20.86118
325.68        20.78166
326.13        20.61487
326.59        20.34627
327.04        20.01362
327.49        19.69404
327.94        19.50945
328.39         19.4803
328.85        19.55771
329.30        19.67677
329.75        19.68406
330.20        19.53324
330.66        19.26739
331.11        18.95552
331.56        18.69366
332.01        18.51537
332.46        18.38754
332.92        18.28749
333.37        18.21013
333.82        18.13298
334.27        18.06724
334.72        17.99695
335.17        17.88798
335.63        17.73512
336.08        17.55961
336.53        17.37919
336.98        17.23398
337.43        17.13763
337.88        17.07358
338.34        17.05062
338.79        17.09793
339.24        17.20195
339.69        17.35252
340.14        17.47886
340.59        17.46911
341.05        17.30999
341.50        17.03295
341.95        16.72756
342.40        16.53437
342.85        16.48719
343.30        16.54361
343.75        16.63971
344.20        16.67035
344.66        16.60696
345.11        16.48333
345.56        16.33493
346.01        16.21444
346.46         16.1452
346.91        16.11622
347.36        16.11393
347.81        16.12204
348.26          16.134
348.72        16.15007
349.17        16.18913
349.62        16.28941
350.07         16.4465
350.52         16.6414
350.97        16.80029
351.42         16.8087
351.87        16.65138
352.32        16.37268
352.77         16.0702
353.22        15.88792
353.67        15.85848
354.13        15.94302
354.58        16.07205
355.03        16.13301
355.48        16.09143
355.93        15.98477
356.38         15.8565
356.83        15.76981
357.28        15.74006
357.73        15.74008
358.18        15.74222
358.63        15.70855
359.08        15.62694
359.53        15.51061
359.98        15.37933
360.43        15.25803
360.88        15.15303
361.33        15.05995
361.78        14.96016
362.23        14.82544
362.68         14.6573
363.13        14.47206
363.58        14.30574
364.03        14.21107
364.48        14.19575
364.93        14.23867
365.38        14.30418
365.83        14.33418
366.28        14.30947
366.73        14.24533
367.18        14.15448
367.63        14.05937
368.08        13.96915
368.53        13.87504
368.98        13.78356
369.43        13.70588
369.88         13.6439
370.33        13.60041
370.78        13.56083
371.23        13.49834
371.68        13.40802
372.13         13.2956
372.58        13.18619
373.03        13.12027
373.48        13.10395
373.93        13.12315
374.38        13.14325
374.83        13.10952
375.28        13.01118
375.72        12.86438
376.17        12.71241
376.62        12.60314
377.07        12.54867
377.52        12.53236
377.97        12.53434
378.42        12.52304
378.87        12.48871
379.32         12.4427
379.77        12.39292
380.22        12.34941
380.67        12.31379
381.11        12.28165
381.56        12.24448
382.01        12.20402
382.46        12.16104
382.91        12.11914
383.36          12.075
383.81        12.02083
384.26        11.95567
384.71        11.88229
385.15        11.80953
385.60        11.75838
386.05        11.73231
386.50        11.72525
386.95        11.72597
387.40        11.71762
387.85        11.69448
388.29         11.6531
388.74        11.61221
389.19        11.57182
389.64        11.53279
390.09        11.49339
390.54         11.4482
390.98        11.38709
391.43        11.31928
391.88        11.24902
392.33        11.18986
392.78        11.15923
393.23        11.15817
393.67        11.17451
394.12        11.20353
394.57        11.21629
395.02         11.2055
395.47        11.17142
395.91        11.12999
396.36        11.10112
396.81        11.09621
397.26        11.10981
397.71         11.1153
398.15        11.08052
398.60        11.01763
399.05        10.89637
399.50        10.76326
399.95        10.76196
400.39        10.86656
400.84        10.86833
401.29         10.7612
401.74        10.70479
402.18        10.70242
402.63        10.65191
403.08        10.57274
403.53        10.54397
403.97        10.57195
404.42         10.6312
404.87        10.69135
405.32        10.70353
405.76        10.65418
406.21        10.56495
406.66        10.46394
407.11         10.3957
407.55        10.37427
408.00        10.38111
408.45        10.39496
408.90         10.3741
409.34        10.30844
409.79        10.21698
410.24        10.12372
410.68        10.05581
411.13        10.02203
411.58        10.01026
412.03        10.00698
412.47        9.991996
412.92        9.955958
413.37        9.910117
413.81         9.86116
414.26        9.824597
414.71         9.79996
415.15        9.783091
415.60        9.768192
416.05        9.753235
416.49        9.737686
416.94        9.722606
417.39        9.706925
417.83        9.687344
418.28         9.66294
418.73        9.634062
419.17        9.607191
419.62          9.5931
420.07        9.593542
420.51        9.601777
420.96        9.610905
421.41        9.608667
421.85        9.588144
422.30        9.551476
422.74        9.499629
423.19         9.47834
423.64        9.475282
424.08         9.43197
424.53        9.354259
424.98        9.328803
425.42        9.367222
425.87        9.400576
426.31        9.420226
426.76        9.482615
427.21        9.553195
427.65        9.501976
428.10        9.363091
428.54        9.288834
428.99        9.296439
429.44        9.340145
429.88        9.385216
430.33        9.343338
430.77        9.239664
431.22        9.250356
431.66         9.36569
432.11        9.403926
432.56        9.360768
433.00        9.365294
433.45         9.38089
433.89        9.278148
434.34        9.130816
434.78        8.895479
435.23        9.075276
435.67        9.082332
436.12        9.043437
436.57        8.985826
437.01        8.927976
437.46         8.90522
437.90        8.916925
438.35        8.922648
438.79        8.917285
439.24        8.923359
439.68        8.939536
440.13        8.960612
440.57        8.971739
441.02        8.957927
441.46        8.920496
441.91        8.846503
442.35         8.76691
442.80        8.809493
443.24        8.940031
443.69        8.990387
444.13        8.958876
444.58        8.988519
445.02        9.073981
445.47        9.131746
445.91        9.140938
446.36        9.114887
446.80        9.053276
447.24         8.95754
447.69        8.862161
448.13        8.816745
448.58        8.834466
449.02        8.899656
449.47        8.986037
449.91        9.045988
450.36        9.066678
450.80        9.059079
451.25        9.036633
451.69        9.017013
452.13        9.006012
452.58        8.994011
453.02        8.976732
453.47        8.950518
453.91        8.915802
454.36        8.881111
454.80         8.84448
455.24        8.798821
455.69        8.748857
456.13        8.689959
456.58        8.648411
457.02        8.648319
457.46        8.694921
457.91        8.777185
458.35        8.854697
458.79        8.863576
459.24        8.802737
459.68        8.688747
460.13        8.578037
460.57        8.529756
461.01        8.563994
461.46         8.65069
461.90        8.763074
462.34        8.845594
462.79        8.876009
463.23        8.875485
463.68        8.845038
464.12         8.79387
464.56        8.730451
465.01        8.663503
465.45        8.599854
465.89        8.574737
466.34        8.590144
466.78        8.635818
467.22        8.694547
467.67        8.725108
468.11        8.720622
468.55        8.689079
468.99        8.646073
469.44        8.616499
469.88        8.608668
470.32        8.614385
470.77        8.630244
471.21        8.653388
471.65        8.679135
472.10        8.710677
472.54        8.739424
472.98        8.755537
473.42        8.757215
473.87        8.749164
474.31        8.733397
474.75        8.723469
475.20        8.724737
475.64        8.730367
476.08        8.740055
476.52        8.747506
476.97         8.75223
477.41        8.762546
477.85         8.78117
478.29        8.798628
478.74        8.822165
479.18        8.871756
479.62        8.941428
480.06         9.00859
480.50        9.069241
480.95        9.119416
481.39        9.147413
481.83        9.228746
482.27        9.228405
482.72        9.256742
483.16        9.284158
483.60        9.316042
484.04        9.335538
484.48        9.416228
484.93        9.610962
485.37        9.618232
485.81        9.591822
486.25         10.0873
486.69         9.37945
487.14         9.25625
487.58        10.28562
488.02        10.24148
488.46        9.992437
488.90         9.96276
489.34        9.883851
489.79        10.08307
490.23         10.2974
490.67        10.47682
491.11        10.55733
491.55        10.52559
491.99         10.4401
492.43        10.44862
492.88        10.57268
493.32        10.71118
493.76        10.84212
494.20        10.98787
494.64         11.1414
495.08        11.27163
495.52        11.36805
495.96         11.4915
496.41        11.61778
496.85        11.57753
497.29        11.42839
497.73        11.52617
498.17         11.7136
498.61        11.90165
499.05        12.00716
499.49        12.11705
499.93        12.19811
500.37        12.32197
500.82        12.46834
501.26        12.57028
501.70        12.62315
502.14        12.67027
502.58        12.73116
503.02        12.81279
503.46        12.91865
503.90        13.04835
504.34        13.17309
504.78        13.24286
505.22        13.24852
505.66        13.20711
506.10         13.1546
506.54        13.14862
506.98        13.20391
507.42        13.30243
507.86        13.42033
508.30        13.51749
508.74        13.58009
509.18        13.62064
509.62        13.64631
510.06        13.66904
510.50          13.694
510.94        13.71481
511.38        13.73634
511.82        13.76721
512.26        13.81014
512.70        13.86881
513.14        13.93196
513.58        13.97963
514.02        14.00756
514.46        14.01632
514.90         14.0291
515.34        14.08435
515.78        14.18506
516.22        14.31676
516.66         14.4345
517.10        14.46765
517.54        14.40375
517.98        14.26749
518.42        14.11154
518.86         14.0199
519.30        14.01486
519.74        14.07223
520.18        14.15345
520.62        14.19636
521.06        14.18403
521.50        14.13737
521.93        14.08096
522.37        14.04794
522.81        14.05066
523.25        14.07329
523.69         14.1008
524.13        14.11368
524.57        14.10396
525.01        14.07586
525.45        14.03582
525.89        13.99308
526.32        13.94989
526.76        13.90933
527.20        13.86118
527.64        13.79119
528.08          13.701
528.52        13.59852
528.96        13.50877
529.40        13.46907
529.83        13.48425
530.27        13.54089
530.71        13.60682
531.15        13.63168
531.59        13.60192
532.03        13.53083
532.46        13.43981
532.90        13.37374
533.34        13.34202
533.78        13.32494
534.22        13.30838
534.66        13.28737
535.09         13.2481
535.53        13.16964
535.97        13.07216
536.41        13.01915
536.85        13.01911
537.28        13.04193
537.72        13.07721
538.16        13.11794
538.60        13.15699
539.04        13.19538
539.47        13.23029
539.91        13.26634
540.35        13.30175
540.79        13.33565
541.22        13.36845
541.66        13.40652
542.10        13.45065
542.54        13.50279
542.97        13.56207
543.41        13.63138
543.85        13.71013
544.29        13.79906
544.72         13.8977
545.16        14.01581
545.60        14.15035
546.04        14.29891
546.47        14.45584
546.91        14.60855
547.35        14.75003
547.79        14.88228
548.22        15.00429
548.66        15.11296
549.10        15.22792
549.53        15.34272
549.97        15.46155
550.41          15.555
550.84        15.63914
551.28        15.75711
551.72        15.89211
552.15        16.02926
552.59        16.18412
553.03        16.12314
553.46        16.33548
553.90        16.40612
554.34        16.47951
554.77        16.55426
555.21        16.63976
555.65        16.73603
556.08        16.83558
556.52        16.92947
556.96        17.00874
557.39        17.10653
557.83        17.20828
558.27        17.21637
558.70        17.15687
559.14        17.17547
559.57        17.26983
560.01        17.34929
560.45        17.40118
560.88        17.46058
561.32        17.53334
561.75        17.59154
562.19        17.64374
562.63        17.69965
563.06        17.75782
563.50        17.81816
563.93        17.86448
564.37        17.91721
564.80         17.9842
565.24        18.02009
565.68        17.99412
566.11        18.24923
566.55        18.13224
566.98        18.18534
567.42        18.24858
567.85        18.35691
568.29        18.51507
568.72         18.7207
569.16        18.96048
569.60        19.10486
570.03        19.21872
570.47        19.30989
570.90        19.41313
571.34        19.40628
571.77        19.58412
572.21        19.68003
572.64        19.76951
573.08        19.93596
573.51        20.18053
573.95         20.3029
574.38        20.29477
574.82        20.53041
