SpectraSmart Spectrum 2.9.0.0
--------- Device Information -----------
Spectrum Name :  反射率_0
Saving Time :  2024/04/26 23:00:33
Spectro-Module Model Name : SE2030-DUVN
Spectro-Module Serial Number : OS361AC55029948
Wavelength Start : 200
Wavelength End : 1025
Wavelength Unit : Wavelength(nm)
Spectrum Unit : Reflectance(%)
-----------Spectrum Setting ------------
Integration Time : 20ms
Average : 10
Boxcar : 0
Background removal :  enabled
linearity correction :  enabled
SC :  disabled
Intensity correction :  disabled
DWT denoise :  enabled
savitzky-golay :  disabled
FFT :  disabled
Running average :  disabled
Kalman :  disabled
High pass :  disabled
---------------BEGIN--------------------
Wavelength(nm)             Reflectance(%)
200.29               0
200.75        24.20461
201.21        23.35529
201.67        22.70798
202.13        22.66714
202.58        23.18369
203.04        24.62827
203.50        26.59698
203.96        27.50481
204.42        26.29892
204.88        22.78779
205.34        18.90665
205.80         18.3766
206.26        21.56784
206.72        26.74249
207.18        30.83839
207.64        31.10596
208.10        27.29848
208.55        19.32537
209.01        8.023842
209.47         2.83524
209.93        8.388762
210.39        18.19501
210.85        26.45993
211.31         31.5039
211.77        34.74502
212.23        38.10301
212.69        44.28593
213.14        57.92337
213.60        62.39963
214.06        56.56454
214.52        50.87268
214.98        47.33296
215.44        44.55161
215.90        41.35878
216.36        38.46903
216.81        36.95451
217.27        37.52435
217.73        41.17673
218.19        46.17346
218.65        44.96181
219.11        37.21587
219.57        28.71667
220.02        24.86281
220.48        28.74264
220.94        40.52108
221.40        61.99768
221.86        92.94244
222.32        114.1784
222.77         108.183
223.23         87.4482
223.69        65.92546
224.15         51.5896
224.61        43.60271
225.06        38.58984
225.52        36.21074
225.98        36.22482
226.44        38.09285
226.90        41.88508
227.36        46.10819
227.81        47.97131
228.27        47.12104
228.73        44.37112
229.19        41.83441
229.65        42.09277
230.10         45.2357
230.56        50.34581
231.02        55.41105
231.48        57.21173
231.93        55.24759
232.39        51.22062
232.85        47.14442
233.31        45.58115
233.77        46.80862
234.22        49.89088
234.68        53.54169
235.14        55.86387
235.60        56.24301
236.05        55.25906
236.51        53.41638
236.97        51.86644
237.43        51.17216
237.88        51.00526
238.34          51.113
238.80        51.31818
239.26        51.54563
239.71        52.33976
240.17         53.4243
240.63        54.40438
241.08        55.14928
241.54        55.12889
242.00        55.44167
242.46        58.54527
242.91        66.38371
243.37        80.44896
243.83        100.9872
244.28        117.6557
244.74        116.3122
245.20        98.05332
245.66        76.37744
246.11        62.91813
246.57        58.13459
247.03        57.83053
247.48        60.35384
247.94        62.70344
248.40        63.51442
248.85         63.8054
249.31        63.32252
249.77        60.78817
250.22        55.74279
250.68        47.39672
251.14        36.57566
251.59        29.13016
252.05        29.34744
252.51        35.18765
252.96         41.8136
253.42        44.61745
253.88        43.67268
254.33        40.78035
254.79        38.45166
255.25        38.53196
255.70        40.89746
256.16        44.67068
256.62        48.02825
257.07        48.32173
257.53        46.27112
257.99        43.48443
258.44        41.21752
258.90        40.80428
259.35        41.57795
259.81        43.07561
260.27        44.42426
260.72        44.60929
261.18        43.77591
261.63        42.24798
262.09         40.8126
262.55        39.91701
263.00        39.50274
263.46        39.45748
263.91         39.3189
264.37        38.71664
264.83        37.64889
265.28         36.3105
265.74         35.1962
266.19        34.69524
266.65        34.87037
267.11        35.45581
267.56        36.12413
268.02        36.34858
268.47        35.99295
268.93        35.26604
269.38        34.31849
269.84        33.43025
270.30        32.69233
270.75         32.0043
271.21        31.45189
271.66        31.12606
272.12        31.01202
272.57        31.07212
273.03        31.10582
273.48        30.76794
273.94         30.0512
274.39        29.06225
274.85          28.072
275.31        27.34741
275.76        26.92636
276.22        26.72902
276.67        26.64245
277.13        26.57411
277.58        26.43836
278.04        26.28868
278.49        26.05032
278.95        25.70748
279.40        25.23124
279.86        24.69673
280.31        24.12342
280.77         23.6327
281.22        23.21634
281.68         22.8809
282.13        22.60049
282.59        22.40155
283.04        22.24541
283.50        22.13871
283.95        22.01289
284.41        21.76889
284.86        21.40121
285.32        20.97294
285.77        20.55891
286.22        20.30957
286.68        20.24724
287.13        20.29553
287.59        20.40162
288.04        20.44705
288.50        20.41343
288.95        20.31223
289.41        20.17084
289.86        19.97928
290.32        19.77407
290.77        19.54652
291.22        19.33753
291.68        19.20107
292.13        19.14103
292.59        19.15653
293.04        19.23019
293.50        19.34725
293.95        19.48985
294.40        19.66573
294.86        19.86264
295.31        20.05397
295.77        20.24562
296.22        20.44555
296.68        20.67744
297.13        20.96978
297.58        21.33265
298.04        21.74943
298.49        22.21722
298.95        22.74426
299.40        23.30689
299.85        23.89098
300.31        24.43767
300.76        24.85607
301.21         25.1347
301.67        25.31608
302.12        25.44761
302.58        25.65084
303.03        25.93429
303.48          26.279
303.94        26.65633
304.39        26.99799
304.84        27.29297
305.30        27.57014
305.75        27.81795
306.20        28.06162
306.66        28.31172
307.11        28.54615
307.57        28.76398
308.02        28.93176
308.47        29.05276
308.93        29.13908
309.38         29.2074
309.83         29.3228
310.29        29.49355
310.74        29.69814
311.19        29.87571
311.65        29.92185
312.10        29.81534
312.55        29.59234
313.00        29.34448
313.46        29.20844
313.91        29.20232
314.36        29.29268
314.82        29.39601
315.27        29.38299
315.72        29.21971
316.18        28.95969
316.63         28.6684
317.08        28.45907
317.53        28.35856
317.99        28.32275
318.44        28.31019
318.89         28.2456
319.35        28.10507
319.80        27.91356
320.25        27.69216
320.70        27.47185
321.16        27.26464
321.61        27.07169
322.06        26.88408
322.51        26.69324
322.97        26.49386
323.42        26.29093
323.87         26.1106
324.32        25.99672
324.78        25.94355
325.23        25.95332
325.68         25.9418
326.13        25.77677
326.59        25.43642
327.04        24.97387
327.49         24.5083
327.94        24.22913
328.39         24.1744
328.85        24.27866
329.30        24.45392
329.75        24.49018
330.20        24.32327
330.66        24.01387
331.11        23.65436
331.56        23.37353
332.01        23.21524
332.46        23.13285
332.92        23.08968
333.37        23.06571
333.82        23.02861
334.27        22.99652
334.72        22.95614
335.17          22.877
335.63        22.75472
336.08         22.6081
336.53        22.45745
336.98         22.3511
337.43        22.30235
337.88        22.29163
338.34        22.31435
338.79        22.38226
339.24        22.47574
339.69        22.59236
340.14        22.67398
340.59         22.6298
341.05         22.4551
341.50        22.17559
341.95        21.88014
342.40        21.70659
342.85        21.68682
343.30        21.78115
343.75         21.9176
344.20        21.97701
344.66         21.9277
345.11         21.8039
345.56        21.65313
346.01        21.55019
346.46        21.51929
346.91        21.53829
347.36        21.57643
347.81        21.58979
348.26        21.56923
348.72        21.53335
349.17        21.50998
349.62        21.55226
350.07        21.66518
350.52        21.82327
350.97        21.97643
351.42        22.04708
351.87        22.01647
352.32        21.91119
352.77        21.77108
353.22        21.65479
353.67        21.57949
354.13         21.5292
354.58        21.49099
355.03        21.44854
355.48        21.39553
355.93        21.34222
356.38        21.28859
356.83        21.23016
357.28        21.16571
357.73        21.09178
358.18        21.01105
358.63        20.93252
359.08        20.85728
359.53        20.78056
359.98        20.69579
360.43        20.59176
360.88        20.46397
361.33        20.31569
361.78        20.15002
362.23        19.97288
362.68        19.79288
363.13        19.61728
363.58        19.44989
364.03        19.29348
364.48        19.14956
364.93        19.01571
365.38        18.90547
365.83        18.84009
366.28        18.81792
366.73         18.8283
367.18        18.83325
367.63        18.77452
368.08        18.64142
368.53        18.45165
368.98        18.24508
369.43         18.0874
369.88        17.99488
370.33        17.94695
370.78        17.91792
371.23        17.86275
371.68         17.7706
372.13        17.66498
372.58         17.5534
373.03        17.44622
373.48        17.34813
373.93        17.24367
374.38        17.15802
374.83        17.13517
375.28        17.17139
375.72        17.24523
376.17        17.29541
376.62        17.20618
377.07        16.96644
377.52        16.62048
377.97         16.2606
378.42        16.04029
378.87        15.99902
379.32        16.08492
379.77        16.23126
380.22        16.33791
380.67        16.37148
381.11        16.36411
381.56        16.31331
382.01        16.23415
382.46        16.14041
382.91        16.02743
383.36        15.91279
383.81        15.82425
384.26        15.76441
384.71          15.728
385.15        15.70499
385.60        15.67828
386.05        15.64084
386.50        15.59959
386.95        15.54989
387.40        15.48643
387.85        15.41095
388.29        15.31427
388.74        15.23085
389.19         15.1735
389.64        15.14241
390.09        15.13128
390.54        15.11624
390.98        15.05499
391.43        14.95259
391.88        14.82361
392.33        14.70102
392.78        14.63041
393.23        14.61769
393.67        14.63852
394.12        14.67854
394.57        14.68835
395.02        14.65543
395.47        14.58609
395.91         14.5044
396.36        14.44211
396.81        14.41858
397.26        14.42751
397.71        14.43598
398.15        14.40549
398.60        14.34868
399.05        14.21906
399.50        14.07687
399.95        14.11049
400.39         14.2845
400.84        14.32707
401.29        14.21056
401.74        14.11518
402.18         14.0436
402.63        13.87117
403.08        13.66585
403.53        13.59561
403.97        13.67974
404.42        13.86476
404.87        14.06715
405.32        14.15126
405.76        14.08184
406.21        13.91163
406.66        13.70671
407.11        13.57035
407.55        13.53527
408.00        13.56212
408.45        13.61872
408.90        13.64276
409.34        13.61221
409.79        13.55443
410.24        13.48936
410.68        13.43511
411.13        13.40372
411.58        13.38717
412.03        13.37892
412.47        13.37413
412.92        13.36544
413.37        13.35467
413.81        13.35331
414.26        13.38959
414.71        13.45982
415.15        13.55986
415.60        13.64687
416.05        13.65673
416.49        13.57851
416.94        13.43505
417.39        13.28331
417.83        13.21012
418.28        13.23482
418.73        13.32827
419.17        13.45295
419.62        13.54694
420.07        13.58675
420.51        13.58601
420.96        13.55332
421.41        13.49867
421.85         13.4274
422.30          13.337
422.74        13.23258
423.19        13.18369
423.64        13.17406
424.08        13.11995
424.53         13.0368
424.98        13.05089
425.42        13.17476
425.87        13.30849
426.31        13.41027
426.76        13.51482
427.21        13.56841
427.65        13.40183
428.10        13.10946
428.54        12.97733
428.99        13.04083
429.44         13.2069
429.88        13.39354
430.33        13.42112
430.77        13.30913
431.22        13.33367
431.66         13.4804
432.11        13.48794
432.56        13.35794
433.00         13.2752
433.45        13.22022
433.89        13.07782
434.34        12.96149
434.78        12.78088
435.23          13.211
435.67        13.33961
436.12        13.32959
436.57        13.23585
437.01         13.1062
437.46        13.02847
437.90        13.01748
438.35        13.01068
438.79        12.98828
439.24        12.96545
439.68        12.93907
440.13        12.90887
440.57        12.88546
441.02        12.89785
441.46        12.94567
441.91         12.9791
442.35        12.98621
442.80        13.08242
443.24        13.20846
443.69        13.14803
444.13        12.93905
444.58        12.84868
445.02        12.89314
445.47        12.93527
445.91        12.95772
446.36        12.99688
446.80        13.04155
447.24        13.08188
447.69        13.11425
448.13        13.12564
448.58        13.11792
449.02        13.09469
449.47        13.06266
449.91        13.02689
450.36        12.99597
450.80        12.96772
451.25        12.95496
451.69         12.9688
452.13        13.00973
452.58        13.06981
453.02        13.13025
453.47        13.16294
453.91        13.15986
454.36        13.13053
454.80        13.08162
455.24        13.02376
455.69        12.96901
456.13        12.90847
456.58        12.86389
457.02        12.84612
457.46        12.86197
457.91        12.90625
458.35          12.953
458.79        12.96164
459.24         12.9359
459.68         12.8807
460.13        12.83308
460.57         12.8162
461.01        12.84712
461.46        12.90265
461.90        12.97994
462.34        13.06248
462.79        13.13505
463.23        13.20498
463.68        13.24475
464.12        13.21906
464.56         13.1263
465.01          13.001
465.45         12.8653
465.89         12.7839
466.34        12.76709
466.78        12.79541
467.22         12.8562
467.67        12.91271
468.11        12.95796
468.55        12.99543
468.99        13.02663
469.44        13.05259
469.88        13.07512
470.32        13.08962
470.77        13.09944
471.21         13.1158
471.65        13.13947
472.10         13.1706
472.54        13.20181
472.98        13.22619
473.42        13.24147
473.87        13.25368
474.31        13.25858
474.75        13.26234
475.20        13.27065
475.64        13.27908
476.08         13.2909
476.52        13.30354
476.97        13.31795
477.41        13.34138
477.85         13.3822
478.29        13.43342
478.74        13.50371
479.18         13.6208
479.62        13.75678
480.06        13.84576
480.50        13.87987
480.95        13.86914
481.39        13.82096
481.83        13.88195
482.27        13.85618
482.72        13.90304
483.16        13.96263
483.60        14.00407
484.04        14.00591
484.48        14.07961
484.93        14.27423
485.37        14.19017
485.81        14.23904
486.25        14.62721
486.69         14.2763
487.14        14.26725
487.58        15.14066
488.02        14.96218
488.46        14.71045
488.90        14.95613
489.34        15.06841
489.79        15.31755
490.23        15.34967
490.67        15.49521
491.11        15.69337
491.55        15.69743
491.99        15.56408
492.43        15.55317
492.88        15.69225
493.32        15.84542
493.76        15.98518
494.20        16.13442
494.64        16.28819
495.08        16.41067
495.52        16.50507
495.96        16.68453
496.41        16.91513
496.85        16.93686
497.29        16.80141
497.73        16.98495
498.17        17.24466
498.61        17.46258
499.05         17.5298
499.49        17.59832
499.93        17.63283
500.37        17.73192
500.82        17.87881
501.26        17.99784
501.70        18.08429
502.14        18.19697
502.58        18.34028
503.02        18.48362
503.46         18.6222
503.90        18.76472
504.34        18.89141
504.78        18.96894
505.22        18.99331
505.66        18.97446
506.10         18.9451
506.54        18.95901
506.98        19.02922
507.42        19.14087
507.86        19.26879
508.30        19.36957
508.74        19.42988
509.18        19.46367
509.62        19.48363
510.06        19.51035
510.50        19.55147
510.94        19.59891
511.38        19.65139
511.82        19.70828
512.26        19.76757
512.70        19.83079
513.14        19.89337
513.58        19.94611
514.02         19.9872
514.46        20.01845
514.90        20.04344
515.34        20.06976
515.78        20.09808
516.22         20.1227
516.66        20.14327
517.10        20.15935
517.54        20.16968
517.98        20.17735
518.42        20.17198
518.86         20.1365
519.30        20.07212
519.74        19.98678
520.18        19.90741
520.62        19.87467
521.06        19.89712
521.50        19.96417
521.93        20.04773
522.37        20.09324
522.81        20.08805
523.25        20.04237
523.69        19.98306
524.13        19.95377
524.57         19.9616
525.01           19.99
525.45        20.00809
525.89         19.9671
526.32        19.85869
526.76        19.71242
527.20        19.55981
527.64        19.44971
528.08        19.39521
528.52        19.37682
528.96        19.38674
529.40        19.41257
529.83        19.44317
530.27        19.48362
530.71        19.50616
531.15         19.4683
531.59        19.36657
532.03        19.21313
532.46        19.05164
532.90        18.96631
533.34        18.97068
533.78        19.03061
534.22        19.10219
534.66        19.13986
535.09        19.11334
535.53        19.00028
535.97        18.84362
536.41        18.75899
536.85        18.76603
537.28        18.81476
537.72        18.88231
538.16        18.94692
538.60        18.99575
539.04        19.03554
539.47         19.0721
539.91        19.12513
540.35        19.19457
540.79        19.27533
541.22        19.35403
541.66        19.41853
542.10        19.46464
542.54         19.4981
542.97        19.53603
543.41        19.61222
543.85        19.73013
544.29        19.88265
544.72        20.04076
545.16        20.17414
545.60         20.2725
546.04        20.34795
546.47        20.43078
546.91        20.56602
547.35        20.75788
547.79        20.98797
548.22        21.21696
548.66        21.38223
549.10        21.49725
549.53        21.57248
549.97        21.63771
550.41        21.69125
550.84        21.76921
551.28        21.91883
551.72        22.10704
552.15        22.29847
552.59        22.50955
553.03         22.4218
553.46        22.71696
553.90        22.81892
554.34        22.92764
554.77        23.03647
555.21        23.15759
555.65        23.29183
556.08        23.42805
556.52        23.55436
556.96        23.65371
557.39        23.76447
557.83        23.86717
558.27        23.83119
558.70        23.70494
559.14         23.7085
559.57          23.842
560.01        23.97325
560.45        24.07406
560.88        24.17688
561.32        24.28374
561.75        24.35933
562.19        24.41798
562.63        24.47696
563.06        24.53754
563.50         24.6011
563.93        24.64467
564.37        24.69661
564.80        24.76808
565.24        24.79499
565.68        24.74494
566.11         25.1039
566.55        24.97256
566.98        25.09187
567.42        25.21581
567.85        25.35248
568.29        25.50329
568.72        25.68141
569.16        25.90984
569.60         26.0462
570.03        26.17987
570.47        26.35917
570.90        26.61685
571.34        26.47838
571.77        26.75918
572.21        26.87167
572.64        26.93838
573.08        27.08093
573.51        27.27202
573.95        27.42436
574.38        27.57931
574.82         27.5956
