SpectraSmart Spectrum 2.9.0.0
--------- Device Information -----------
Spectrum Name :  反射率_0
Saving Time :  2024/04/26 22:53:36
Spectro-Module Model Name : SE2030-DUVN
Spectro-Module Serial Number : OS361AC55029948
Wavelength Start : 200
Wavelength End : 1025
Wavelength Unit : Wavelength(nm)
Spectrum Unit : Reflectance(%)
-----------Spectrum Setting ------------
Integration Time : 20ms
Average : 10
Boxcar : 0
Background removal :  enabled
linearity correction :  enabled
SC :  disabled
Intensity correction :  disabled
DWT denoise :  enabled
savitzky-golay :  disabled
FFT :  disabled
Running average :  disabled
Kalman :  disabled
High pass :  disabled
---------------BEGIN--------------------
Wavelength(nm)             Reflectance(%)
200.29               0
200.75        26.07452
201.21        31.35447
201.67        36.72125
202.13        40.10064
202.58        41.47977
203.04        42.32125
203.50        43.02604
203.96        43.99919
204.42        45.54519
204.88        46.77757
205.34        48.58247
205.80         52.9159
206.26        58.94343
206.72        64.76591
207.18        68.35699
207.64        68.06657
208.10        63.79108
208.55        55.67638
209.01        42.51529
209.47         30.4463
209.93        26.81017
210.39        29.36645
210.85        33.73947
211.31        37.73701
211.77        42.27128
212.23        50.66738
212.69        71.77909
213.14        114.8233
213.60        125.9532
214.06        104.7991
214.52        85.96714
214.98        74.51807
215.44        66.08458
215.90        57.53157
216.36        49.81961
216.81        45.09919
217.27        44.38012
217.73        48.33133
218.19        56.41963
218.65        61.54367
219.11        60.11625
219.57        56.06402
220.02        54.00282
220.48        57.65835
220.94         67.4967
221.40        84.59891
221.86        109.4581
222.32        128.6832
222.77        127.6994
223.23        114.7872
223.69        99.02647
224.15        85.75822
224.61        75.45634
225.06        66.58193
225.52        60.40683
225.98        57.88821
226.44        58.48515
226.90        61.60078
227.36        65.37289
227.81        66.57453
228.27        64.82004
228.73        61.21664
229.19        57.91971
229.65        57.44317
230.10        59.83953
230.56         64.1515
231.02        68.48338
231.48        69.88275
231.93        67.85242
232.39         63.9992
232.85        60.07465
233.31        58.31342
233.77        58.96445
234.22        61.21738
234.68        63.98472
235.14         65.6855
235.60        65.80986
236.05        64.87045
236.51        63.29384
236.97        62.08418
237.43        61.73763
237.88        62.01776
238.34        62.64706
238.80         63.4681
239.26        64.45415
239.71        66.15664
240.17        68.41666
240.63        71.17676
241.08        74.34711
241.54        77.15849
242.00        80.11948
242.46        84.76948
242.91        92.73907
243.37        104.7858
243.83         120.762
244.28        132.0755
244.74         127.159
245.20        107.8683
245.66        86.57439
246.11        72.53687
246.57        65.79576
247.03        63.19159
247.48        62.96136
247.94        62.43836
248.40        61.20879
248.85        60.18517
249.31         59.4693
249.77        58.40502
250.22        56.64179
250.68         53.6557
251.14        49.99786
251.59        48.38588
252.05        50.36574
252.51        54.83467
252.96        58.34005
253.42        58.04547
253.88        54.53709
254.33        49.29047
254.79        45.39006
255.25        45.13004
255.70         48.1641
256.16          53.383
256.62        58.10217
257.07         58.3882
257.53        55.22033
257.99        50.96695
258.44        47.52064
258.90        46.68535
259.35        47.58882
259.81        49.51146
260.27        51.26562
260.72        51.45173
261.18        50.27501
261.63        48.27116
262.09        46.44949
262.55        45.43447
263.00        45.13991
263.46        45.33264
263.91        45.47631
264.37         45.1527
264.83        44.31016
265.28        43.16169
265.74        42.14677
266.19         41.5366
266.65        41.42235
267.11        41.58352
267.56        41.83969
268.02        41.90907
268.47        41.70801
268.93        41.37007
269.38         40.9038
269.84        40.37905
270.30        39.81555
270.75        39.15246
271.21        38.55604
271.66        38.23052
272.12        38.19834
272.57        38.39939
273.03        38.53916
273.48        38.12686
273.94        37.15713
274.39        35.78824
274.85        34.49231
275.31        33.79158
275.76        33.72087
276.22        34.08918
276.67        34.52413
277.13         34.5869
277.58        34.13406
278.04        33.36631
278.49        32.42389
278.95        31.62618
279.40        31.01109
279.86        30.55056
280.31        30.12389
280.77        29.67235
281.22        29.14291
281.68        28.63377
282.13        28.17748
282.59        27.89014
283.04        27.74303
283.50        27.70303
283.95        27.66743
284.41        27.50076
284.86        27.16842
285.32        26.73513
285.77         26.2694
286.22        25.92479
286.68        25.72219
287.13        25.58201
287.59        25.44124
288.04        25.15983
288.50        24.74467
288.95        24.24002
289.41        23.72919
289.86        23.26878
290.32        22.91101
290.77        22.61466
291.22        22.40354
291.68        22.30196
292.13        22.28864
292.59        22.36447
293.04        22.46328
293.50        22.49999
293.95        22.44736
294.40         22.3303
294.86        22.20933
295.31        22.17685
295.77        22.26327
296.22        22.43955
296.68        22.66023
297.13        22.84036
297.58        22.96479
298.04        23.05868
298.49        23.16905
298.95        23.38308
299.40        23.70235
299.85         24.0862
300.31        24.45969
300.76        24.70786
301.21        24.80834
301.67        24.81505
302.12        24.76841
302.58        24.77524
303.03        24.84586
303.48        24.96498
303.94        25.12036
304.39        25.27186
304.84          25.412
305.30        25.55954
305.75        25.68951
306.20        25.80496
306.66        25.90876
307.11        25.98479
307.57        26.03918
308.02        26.05214
308.47        26.03135
308.93         25.9897
309.38        25.93414
309.83        25.91081
310.29        25.92654
310.74        25.96417
311.19        25.99511
311.65        25.96784
312.10        25.86814
312.55        25.71396
313.00        25.54194
313.46        25.40437
313.91        25.30669
314.36        25.24375
314.82        25.18782
315.27        25.10209
315.72        24.97626
316.18         24.8272
316.63        24.68223
317.08        24.59467
317.53        24.56997
317.99        24.58352
318.44        24.59141
318.89        24.51463
319.35        24.33596
319.80         24.0795
320.25        23.79431
320.70        23.55956
321.16         23.3963
321.61        23.29165
322.06        23.20805
322.51        23.08427
322.97        22.90142
323.42        22.68364
323.87        22.47057
324.32        22.32806
324.78        22.26279
325.23        22.26451
325.68        22.26852
326.13        22.17498
326.59        21.96122
327.04        21.66861
327.49        21.36937
327.94         21.1785
328.39        21.12054
328.85        21.15219
329.30        21.22923
329.75        21.23096
330.20        21.12198
330.66        20.93632
331.11        20.73088
331.56        20.58018
332.01        20.50678
332.46        20.47859
332.92        20.46427
333.37        20.44728
333.82        20.40371
334.27        20.35268
334.72        20.28557
335.17        20.18277
335.63        20.04749
336.08        19.89709
336.53         19.7709
336.98        19.74373
337.43        19.82845
337.88          19.995
338.34        20.19365
338.79        20.35728
339.24        20.44667
339.69        20.47988
340.14         20.4473
340.59        20.34008
341.05        20.17996
341.50        19.97422
341.95        19.78231
342.40        19.69571
342.85        19.73253
343.30        19.86502
343.75        20.04199
344.20         20.1759
344.66        20.23595
345.11        20.23752
345.56        20.19013
346.01        20.11324
346.46        20.02367
346.91        19.92369
347.36        19.82237
347.81        19.73794
348.26        19.67712
348.72        19.63651
349.17        19.63133
349.62        19.69097
350.07        19.81196
350.52         19.9867
350.97        20.14467
351.42        20.17341
351.87        20.05666
352.32        19.82907
352.77        19.59279
353.22         19.5035
353.67         19.5875
354.13        19.79424
354.58        20.02286
355.03        20.10786
355.48         20.0064
355.93        19.78018
356.38        19.50678
356.83        19.30024
357.28        19.19286
357.73         19.1436
358.18        19.12985
358.63        19.11839
359.08        19.09061
359.53        19.05933
359.98        19.00796
360.43        18.90523
360.88        18.74857
361.33        18.54546
361.78        18.32316
362.23        18.13173
362.68        17.98792
363.13        17.88166
363.58        17.79899
364.03        17.71382
364.48        17.61642
364.93        17.51416
365.38        17.41094
365.83        17.31313
366.28        17.22214
366.73        17.13196
367.18        17.03765
367.63        16.93405
368.08        16.81941
368.53        16.69629
368.98        16.56795
369.43         16.4381
369.88        16.30936
370.33        16.18308
370.78        16.05986
371.23        15.94148
371.68        15.82978
372.13        15.72486
372.58        15.63295
373.03        15.56135
373.48        15.51017
373.93        15.47846
374.38        15.44962
374.83        15.39841
375.28        15.31944
375.72        15.21158
376.17        15.11051
376.62        15.05181
377.07        15.04032
377.52        15.06425
377.97        15.08521
378.42        15.04288
378.87        14.92692
379.32        14.75796
379.77        14.58441
380.22        14.47554
380.67        14.44344
381.11        14.47109
381.56        14.50483
382.01        14.46863
382.46        14.34711
382.91        14.17306
383.36        13.99621
383.81        13.88229
384.26         13.8429
384.71        13.85546
385.15        13.88785
385.60        13.89279
386.05        13.85445
386.50        13.78974
386.95        13.71874
387.40        13.67167
387.85        13.65495
388.29        13.64588
388.74        13.64581
389.19        13.62888
389.64        13.58794
390.09        13.52607
390.54        13.45055
390.98        13.36932
391.43        13.29777
391.88        13.23823
392.33        13.18014
392.78        13.10724
393.23        13.02039
393.67        12.91828
394.12        12.84352
394.57        12.83231
395.02        12.88592
395.47        12.98534
395.91        13.08477
396.36        13.09821
396.81        13.01575
397.26        12.86932
397.71        12.70599
398.15        12.60242
398.60        12.59067
399.05        12.59276
399.50        12.59829
399.95        12.68705
400.39        12.80896
400.84        12.74569
401.29        12.53102
401.74        12.41828
402.18        12.43084
402.63        12.42679
403.08        12.39897
403.53        12.39483
403.97        12.41086
404.42        12.43684
404.87        12.45809
405.32        12.44786
405.76        12.39958
406.21        12.32623
406.66        12.25078
407.11        12.21225
407.55        12.22153
408.00        12.26103
408.45        12.30455
408.90        12.29942
409.34         12.2328
409.79        12.12703
410.24        12.01358
410.68        11.93077
411.13        11.89184
411.58        11.88346
412.03         11.8917
412.47        11.89422
412.92        11.87954
413.37        11.86001
413.81        11.84197
414.26        11.84314
414.71        11.86329
415.15         11.8988
415.60        11.93929
416.05        11.97646
416.49        12.00627
416.94        12.02808
417.39        12.04511
417.83        12.06302
418.28        12.08063
418.73        12.09176
419.17        12.09493
419.62        12.08827
420.07        12.07308
420.51        12.05347
420.96        12.02666
421.41        11.98441
421.85        11.92644
422.30        11.85498
422.74         11.7887
423.19        11.81005
423.64        11.90339
424.08        11.98226
424.53        12.02184
424.98        12.07581
425.42         12.1414
425.87        12.14532
426.31        12.09562
426.76        12.09688
427.21        12.12099
427.65        11.99889
428.10        11.78913
428.54        11.70335
428.99        11.76315
429.44        11.90552
429.88        12.06496
430.33        12.09136
430.77        12.00546
431.22        12.04278
431.66        12.20206
432.11        12.26856
432.56        12.24198
433.00         12.2864
433.45        12.34233
433.89        12.21989
434.34        12.01164
434.78         11.6725
435.23        11.88128
435.67        11.89328
436.12        11.87824
436.57        11.86028
437.01        11.84842
437.46        11.86176
437.90        11.89198
438.35        11.89992
438.79        11.88053
439.24        11.86748
439.68        11.86419
440.13        11.85895
440.57        11.85797
441.02         11.8855
441.46        11.93975
441.91        11.97901
442.35        11.99181
442.80        12.08191
443.24        12.19595
443.69        12.13561
444.13        11.94106
444.58        11.86805
445.02        11.93147
445.47        11.99901
445.91        12.04806
446.36        12.10223
446.80        12.14874
447.24        12.18412
447.69        12.20276
448.13        12.18909
448.58        12.14808
449.02        12.08471
449.47        12.02331
449.91        11.99711
450.36        12.01608
450.80        12.06704
451.25        12.13397
451.69        12.18424
452.13         12.2082
452.58        12.21084
453.02        12.19644
453.47        12.17471
453.91        12.14963
454.36        12.12086
454.80        12.08232
455.24        12.02403
455.69        11.95231
456.13        11.86699
456.58        11.79968
457.02        11.77535
457.46        11.80293
457.91        11.87186
458.35        11.94481
458.79        11.96405
459.24        11.92925
459.68        11.85076
460.13        11.77894
460.57        11.75855
461.01        11.80886
461.46        11.90051
461.90        12.01296
462.34        12.10042
462.79         12.1418
463.23        12.15536
463.68        12.13482
464.12        12.07934
464.56        11.99612
465.01        11.90466
465.45        11.81339
465.89        11.76699
466.34        11.76961
466.78        11.80688
467.22        11.86602
467.67        11.91037
468.11        11.93397
468.55         11.9414
468.99        11.93588
469.44        11.92237
469.88        11.90532
470.32        11.88062
470.77        11.85899
471.21        11.86193
471.65        11.89001
472.10        11.93894
472.54         11.9875
472.98        12.00587
473.42          11.989
473.87        11.95332
474.31        11.90726
474.75        11.87595
475.20           11.87
475.64        11.87599
476.08        11.89862
476.52        11.93908
476.97        11.99326
477.41        12.06491
477.85        12.14001
478.29        12.17658
478.74        12.17865
479.18        12.18631
479.62        12.20235
480.06        12.21297
480.50        12.22401
480.95        12.23033
481.39        12.22685
481.83        12.32605
482.27        12.34494
482.72        12.42699
483.16        12.50965
483.60        12.55704
484.04        12.55637
484.48        12.58849
484.93         12.6968
485.37        12.62349
485.81        12.74292
486.25        12.94744
486.69          12.591
487.14        12.67179
487.58        13.54165
488.02        13.26808
488.46        12.92698
488.90        12.97154
489.34        12.96868
489.79        13.21087
490.23        13.35416
490.67        13.47035
491.11        13.51781
491.55        13.49589
491.99         13.4513
492.43        13.45423
492.88        13.52435
493.32        13.62656
493.76        13.74063
494.20        13.85748
494.64        13.97318
495.08         14.0629
495.52        14.13351
495.96        14.28808
496.41        14.49724
496.85        14.53524
497.29        14.43209
497.73        14.57654
498.17        14.75688
498.61        14.87763
499.05        14.86743
499.49        14.89088
499.93        14.92597
500.37        15.04544
500.82        15.21423
501.26         15.3338
501.70        15.38989
502.14        15.44162
502.58        15.50803
503.02        15.58721
503.46        15.68271
503.90        15.79664
504.34        15.89908
504.78        15.94113
505.22         15.9158
505.66        15.83873
506.10        15.75998
506.54        15.75714
506.98        15.84629
507.42        16.00698
507.86        16.18723
508.30        16.28792
508.74         16.3067
509.18        16.25339
509.62        16.17986
510.06        16.16015
510.50        16.21403
510.94         16.3163
511.38        16.43295
511.82        16.51061
512.26        16.53539
512.70        16.52892
513.14        16.51317
513.58        16.52124
514.02        16.56338
514.46        16.62461
514.90        16.69773
515.34        16.77371
515.78        16.84474
516.22         16.9121
516.66        16.96446
517.10        16.98308
517.54        16.96625
517.98        16.92061
518.42        16.86151
518.86        16.81492
519.30        16.78937
519.74        16.77895
520.18        16.78012
520.62         16.7848
521.06        16.79003
521.50        16.80119
521.93        16.81313
522.37        16.81024
522.81        16.79247
523.25        16.75871
523.69        16.72464
524.13        16.71682
524.57        16.73655
525.01        16.77332
525.45        16.79998
525.89        16.77249
526.32        16.68305
526.76        16.55587
527.20        16.41848
527.64        16.31457
528.08        16.25729
528.52        16.23194
528.96        16.23349
529.40         16.2533
529.83        16.28265
530.27        16.32433
530.71        16.35646
531.15        16.34539
531.59        16.28596
532.03         16.1851
532.46        16.07101
532.90        16.00216
533.34        15.98803
533.78         16.0051
534.22        16.02461
534.66        16.02041
535.09        15.97223
535.53        15.85997
535.97        15.71914
536.41        15.64532
536.85        15.65268
537.28        15.69743
537.72        15.76014
538.16        15.82114
538.60         15.8685
539.04        15.90971
539.47         15.9405
539.91          15.964
540.35        15.98066
540.79        15.99042
541.22        16.00549
541.66         16.0527
542.10        16.13378
542.54        16.24107
542.97        16.35653
543.41        16.45735
543.85         16.5351
544.29        16.59901
544.72         16.6546
545.16        16.72278
545.60        16.80625
546.04        16.90166
546.47        17.01136
546.91        17.13556
547.35        17.26975
547.79         17.4136
548.22        17.55671
548.66        17.67902
549.10        17.79848
549.53        17.91146
549.97        18.02516
550.41        18.11055
550.84        18.18836
551.28        18.30519
551.72        18.44312
552.15        18.58866
552.59        18.75929
553.03        18.68318
553.46        18.92142
553.90        18.98353
554.34        19.03588
554.77         19.0815
555.21        19.13788
555.65        19.21553
556.08        19.31065
556.52        19.41161
556.96        19.50644
557.39        19.63041
557.83        19.76377
558.27        19.79128
558.70        19.74255
559.14        19.78524
559.57        19.91418
560.01         20.0239
560.45        20.08837
560.88        20.13177
561.32        20.16156
561.75        20.15372
562.19        20.14015
562.63        20.16616
563.06        20.23703
563.50        20.34141
563.93        20.44165
564.37         20.5303
564.80        20.60719
565.24        20.62986
565.68          20.572
566.11        20.83861
566.55        20.68935
566.98        20.74046
567.42         20.8082
567.85        20.93173
568.29        21.11613
568.72        21.35748
569.16        21.64172
569.60        21.82635
570.03        21.97862
570.47        22.09413
570.90        22.20665
571.34        22.18307
571.77        22.32385
572.21        22.40753
572.64        22.46676
573.08        22.57895
573.51        22.74037
573.95         22.7881
574.38        22.79005
574.82        22.98263
