SpectraSmart Spectrum 2.9.0.0
--------- Device Information -----------
Spectrum Name :  反射率_0
Saving Time :  2024/05/03 20:16:29
Spectro-Module Model Name : SE2030-DUVN
Spectro-Module Serial Number : OS361AC55029948
Wavelength Start : 200
Wavelength End : 1025
Wavelength Unit : Wavelength(nm)
Spectrum Unit : Reflectance(%)
-----------Spectrum Setting ------------
Integration Time : 20ms
Average : 10
Boxcar : 0
Background removal :  enabled
linearity correction :  enabled
SC :  disabled
Intensity correction :  disabled
DWT denoise :  enabled
savitzky-golay :  disabled
FFT :  disabled
Running average :  disabled
Kalman :  disabled
High pass :  disabled
---------------BEGIN--------------------
Wavelength(nm)             Reflectance(%)
200.29               0
200.75        17.62201
201.21        22.39409
201.67       -175.9079
202.13        15.74872
202.58        22.38442
203.04        27.33676
203.50        30.99621
203.96        32.83781
204.42        32.71183
204.88        28.38939
205.34        234.3573
205.80        64.57211
206.26        82.74454
206.72        14834.84
207.18       -29.65932
207.64       -15.87324
208.10       -27.56625
208.55         -80.614
209.01        -596.343
209.47       -739.8696
209.93       -65.76017
210.39       -2.232019
210.85        14.80478
211.31        21.94476
211.77        26.93091
212.23        33.69691
212.69        45.94164
213.14        46.61343
213.60        22.39386
214.06        11.15662
214.52        6.655728
214.98        2.487823
215.44       -5.348647
215.90       -33.39223
216.36        319.1404
216.81        55.23317
217.27        26.85348
217.73       -13.89696
218.19       -209.2946
218.65       -5135.416
219.11       -296.5832
219.57       -22.27689
220.02        33.29674
220.48         78.9494
220.94       -36.23249
221.40        12.54309
221.86        20.91047
222.32        22.61017
222.77        21.36105
223.23        18.37727
223.69        12.77196
224.15        6.457377
224.61        4.180927
225.06        4.806492
225.52        7.010994
225.98        10.64137
226.44        16.01387
226.90        23.92042
227.36        33.59145
227.81        39.84084
228.27        39.27111
228.73        34.53127
229.19         28.5488
229.65        23.63777
230.10        20.17438
230.56         17.7101
231.02        16.41178
231.48        16.64448
231.93        18.08205
232.39        20.37036
232.85        22.84873
233.31        24.52152
233.77        25.23485
234.22        25.31515
234.68        25.16438
235.14        25.47724
235.60        26.50358
236.05        28.02459
236.51        29.97841
236.97        32.16375
237.43        34.22688
237.88        36.30849
238.34        38.12899
238.80        39.40093
239.26        40.25072
239.71        42.69631
240.17        44.18977
240.63        49.12032
241.08        56.35745
241.54         63.2768
242.00        67.44864
242.46        69.47523
242.91        70.68289
243.37        69.75608
243.83        66.70074
244.28        64.62621
244.74        67.12914
245.20        74.03541
245.66        77.96629
246.11        71.72085
246.57         58.7545
247.03        43.34225
247.48        29.95621
247.94        21.76885
248.40        18.51888
248.85        17.87385
249.31        20.26287
249.77        25.44312
250.22        31.36756
250.68        37.20797
251.14        42.07964
251.59        46.19809
252.05        50.67472
252.51        56.28326
252.96        64.25397
253.42        74.03531
253.88        81.90048
254.33        85.64046
254.79        84.92056
255.25        80.41099
255.70        74.76839
256.16         70.1739
256.62        67.25017
257.07        66.37399
257.53        67.19754
257.99        68.50594
258.44        69.11993
258.90        68.38162
259.35        66.08676
259.81        63.44701
260.27        60.80491
260.72        58.54311
261.18        57.05115
261.63        55.83869
262.09         54.9838
262.55        54.17907
263.00        53.25877
263.46        52.33019
263.91        51.34956
264.37        50.56562
264.83        49.92649
265.28         49.3442
265.74        48.67673
266.19        47.48534
266.65        45.88631
267.11        43.98783
267.56        42.13927
268.02        40.90995
268.47        40.31612
268.93         40.1916
269.38        40.17164
269.84        39.65276
270.30        38.53994
270.75        37.07103
271.21        35.63868
271.66        34.68708
272.12        34.30504
272.57        34.27402
273.03        34.38469
273.48        34.34006
273.94        34.04643
274.39        33.60222
274.85        33.04407
275.31         32.3256
275.76        31.47558
276.22        30.56491
276.67        29.71903
277.13        29.22178
277.58        29.02088
278.04        29.04906
278.49        29.05912
278.95        28.72835
279.40        27.98803
279.86        27.06065
280.31        26.10448
280.77        25.41759
281.22        24.98205
281.68        24.74639
282.13        24.59828
282.59        24.44399
283.04        24.23734
283.50        24.03422
283.95        23.86274
284.41        23.78374
284.86           23.79
285.32         23.8797
285.77        23.98361
286.22        24.06116
286.68        24.10908
287.13        24.10924
287.59        24.13306
288.04        24.23895
288.50        24.44669
288.95        24.70124
289.41        24.93633
289.86        25.00074
290.32        24.90181
290.77        24.69489
291.22        24.49282
291.68        24.44211
292.13        24.58308
292.59        24.91429
293.04        25.41215
293.50        26.03938
293.95        26.76572
294.40        27.60579
294.86        28.57835
295.31        29.71664
295.77        31.03219
296.22        32.49155
296.68        34.03904
297.13        35.56763
297.58        37.00646
298.04        38.38607
298.49         39.6863
298.95        40.95662
299.40        42.21552
299.85        43.47223
300.31        44.83298
300.76        46.41685
301.21        48.24867
301.67        50.30524
302.12        52.39968
302.58        54.26533
303.03        55.81141
303.48        57.12243
303.94        58.43135
304.39        60.01229
304.84        61.95975
305.30        64.16696
305.75        66.40749
306.20        68.37135
306.66        69.98969
307.11        71.32217
307.57         72.5327
308.02        73.73856
308.47        75.03614
308.93        76.38323
309.38        77.74251
309.83        79.15414
310.29        80.60515
310.74        82.06692
311.19        83.46841
311.65        84.67025
312.10        85.60958
312.55        86.31412
313.00        86.84467
313.46        87.32083
313.91        87.76842
314.36        88.21329
314.82        88.66054
315.27        89.08195
315.72        89.49648
316.18        89.92279
316.63        90.42116
317.08        91.09529
317.53        91.94736
317.99        92.91908
318.44         93.8839
318.89        94.57838
319.35        94.93179
319.80        95.01041
320.25        94.96377
320.70          95.061
321.16        95.35933
321.61         95.8031
322.06        96.26398
322.51        96.53214
322.97        96.54607
323.42        96.41294
323.87        96.22182
324.32        96.12189
324.78        96.15583
325.23        96.31561
325.68        96.55911
326.13        96.83498
326.59        97.09399
327.04        97.40121
327.49        97.74697
327.94         98.1487
328.39        98.59516
328.85        99.02214
329.30        99.44173
329.75        99.74749
330.20        99.92011
330.66        99.96552
331.11          99.975
331.56        99.98473
332.01        100.0384
332.46        100.1415
332.92        100.3021
333.37        100.6441
333.82        101.1411
334.27        101.7718
334.72        102.4757
335.17        103.1445
335.63         103.698
336.08        104.1935
336.53        104.5916
336.98         104.898
337.43        105.1254
337.88        105.2769
338.34         105.385
338.79        105.5291
339.24        105.7374
339.69        106.0322
340.14        106.4049
340.59        106.8274
341.05        107.2817
341.50        107.7612
341.95        108.3016
342.40        108.9752
342.85        109.7674
343.30        110.6374
343.75        111.4151
344.20        111.8377
344.66        111.8888
345.11        111.6517
345.56         111.366
346.01         111.396
346.46        111.8321
346.91         112.561
347.36        113.4299
347.81         114.188
348.26        114.7487
348.72        115.1897
349.17        115.5233
349.62        115.7976
350.07        116.0299
350.52        116.1753
350.97        116.2608
351.42        116.3519
351.87         116.449
352.32        116.5341
352.77        116.5451
353.22        116.3732
353.67        116.0151
354.13        115.5634
354.58        115.0457
355.03        114.5734
355.48        114.1942
355.93        113.8894
356.38        113.6934
356.83        113.6598
357.28        113.7611
357.73        113.9407
358.18        114.0897
358.63        114.0325
359.08        113.7203
359.53        113.2123
359.98        112.5232
360.43        111.6951
360.88        110.7689
361.33        109.7267
361.78        108.7234
362.23        107.9848
362.68        107.5398
363.13        107.3555
363.58        107.1564
364.03        106.4928
364.48        105.2995
364.93        103.7221
365.38        102.1612
365.83        101.2333
366.28        101.0571
366.73        101.4359
367.18        101.9476
367.63        101.9079
368.08        101.1379
368.53        99.84479
368.98        98.40314
369.43        97.37826
369.88        96.90774
370.33        96.82253
370.78        96.82193
371.23        96.41698
371.68        95.49543
372.13        94.24481
372.58        92.99197
373.03         92.2073
373.48         91.9828
373.93         92.1445
374.38        92.39275
374.83        92.25201
375.28        91.58511
375.72        90.51407
376.17        89.34214
376.62        88.37033
377.07        87.68326
377.52        87.18706
377.97        86.71207
378.42        86.11448
378.87        85.38885
379.32        84.43237
379.77        83.40656
380.22        83.45605
380.67        83.07179
381.11        83.39477
381.56        83.67732
382.01        83.53552
382.46        82.86887
382.91        81.84273
383.36        80.77515
383.81         80.0885
384.26        79.86995
384.71        79.97845
385.15        80.17331
385.60        80.09921
386.05        79.65659
386.50        78.97636
386.95         78.2364
387.40        77.69554
387.85        77.41853
388.29        77.27769
388.74        77.22517
389.19        77.02665
389.64        76.63731
390.09        76.13008
390.54        75.62486
390.98          75.232
391.43        75.01228
391.88        75.03706
392.33        75.18088
392.78        74.85413
393.23        74.21613
393.67        74.21863
394.12        74.73036
394.57        74.46087
395.02        73.51883
395.47        73.07924
395.91         73.1873
396.36        73.04857
396.81         72.6927
397.26        72.58973
397.71        72.60637
398.15        72.41734
398.60        72.10904
399.05        71.43352
399.50        70.67931
399.95         70.9371
400.39        71.97009
400.84          71.952
401.29        70.95634
401.74         70.6632
402.18        71.07117
402.63        71.00077
403.08         70.5504
403.53        69.98912
403.97        70.33693
404.42        70.44865
404.87        70.51113
405.32        70.40089
405.76        70.08913
406.21        69.72887
406.66        69.35561
407.11        68.95081
407.55        68.65929
408.00        68.58952
408.45        68.73241
408.90        69.20938
409.34        69.70764
409.79        69.29422
410.24        68.23754
410.68        67.79784
411.13        68.06455
411.58        68.34737
412.03         68.4584
412.47        68.41413
412.92         68.1404
413.37        67.66803
413.81        67.17793
414.26        67.00189
414.71        67.15773
415.15        67.59951
415.60        68.08021
416.05        68.24728
416.49        68.00356
416.94        67.48515
417.39        66.93517
417.83        66.69446
418.28        66.85056
418.73        67.29116
419.17        67.84821
419.62        68.18718
420.07        68.20209
420.51        67.96085
420.96        67.64194
421.41        67.37138
421.85        67.16399
422.30        67.22949
422.74        67.36689
423.19        67.00479
423.64        66.28368
424.08        66.20751
424.53        66.75866
424.98        67.07429
425.42         67.0945
425.87        67.45053
426.31        68.06461
426.76        68.10179
427.21        67.72487
427.65        68.01703
428.10        68.75941
428.54         68.8871
428.99        68.43331
429.44        67.69326
429.88        66.96168
430.33        67.20458
430.77         68.0479
431.22        68.05584
431.66        67.29181
432.11        67.04764
432.56        67.35181
433.00        67.71365
433.45        67.97196
433.89        68.37054
434.34        65.88808
434.78        68.51273
435.23        68.35798
435.67        67.07347
436.12        66.49185
436.57        66.70909
437.01        68.48683
437.46        69.20238
437.90        68.78679
438.35        68.28587
438.79        68.39433
439.24        68.17875
439.68         67.8548
440.13        67.76384
440.57        67.93175
441.02        67.89382
441.46        67.65676
441.91        68.23051
442.35          69.171
442.80        68.75375
443.24        67.35851
443.69        67.50333
444.13        68.97986
444.58        69.47314
445.02        68.88355
445.47        68.50519
445.91        68.49207
446.36        68.56806
446.80        68.74303
447.24        69.09493
447.69        69.47143
448.13        69.62503
448.58        69.52103
449.02        69.21159
449.47        68.85358
449.91        68.65827
450.36        68.69436
450.80        68.85248
451.25        69.06985
451.69        69.21417
452.13        69.25067
452.58        69.23685
453.02         69.1443
453.47        68.96315
453.91        68.69725
454.36        68.32425
454.80        67.93446
455.24        67.78677
455.69        67.89587
456.13        68.03381
456.58         68.0794
457.02        68.28416
457.46        67.69196
457.91        67.72009
458.35        67.58083
458.79        67.62718
459.24        67.63221
459.68        67.28582
460.13        66.74239
460.57        66.46226
461.01        66.53182
461.46        66.44781
461.90        66.43784
462.34        66.49168
462.79        65.86066
463.23        65.66244
463.68        65.68922
464.12        65.67606
464.56        65.59959
465.01        65.80001
465.45        66.11127
465.89        65.99173
466.34        65.52858
466.78        65.42702
467.22        65.79332
467.67        65.25892
468.11         65.5733
468.55        65.39113
468.99        65.26192
469.44        65.17968
469.88           65.17
470.32        65.16164
470.77        65.12151
471.21          65.106
471.65        65.08479
472.10        65.03016
472.54        64.96448
472.98         64.8832
473.42        64.77376
473.87        64.86834
474.31        65.00658
474.75        64.51141
475.20        63.63905
475.64        63.52197
476.08        64.07935
476.52        64.21243
476.97        63.86919
477.41        63.73619
477.85        63.85926
478.29        63.80102
478.74        63.80832
479.18         63.9373
479.62        64.23032
480.06        64.29874
480.50        64.07204
480.95        64.23289
481.39        64.07768
481.83        63.77853
482.27        63.69823
482.72        64.09953
483.16        63.90665
483.60        64.00474
484.04        64.16599
484.48        63.79953
484.93        62.99344
485.37        64.14978
485.81        65.37158
486.25         64.4129
486.69        65.97947
487.14        66.37125
487.58        63.22291
488.02        63.43158
488.46        64.66857
488.90        63.14205
489.34        63.77512
489.79        63.85451
490.23        63.83947
490.67        64.09956
491.11         64.2562
491.55        64.21146
491.99        63.94108
492.43        63.76178
492.88        63.69934
493.32        63.62636
493.76        63.55486
494.20        63.50361
494.64        63.45332
495.08        63.58747
495.52        63.82946
495.96        63.55507
496.41        62.95315
496.85        63.19693
497.29        64.08707
497.73        64.20531
498.17        63.58978
498.61        63.35265
499.05        63.56081
499.49        63.68789
499.93        63.65976
500.37        63.50674
500.82        63.26725
501.26        63.10721
501.70        63.07978
502.14        63.19724
502.58         63.3927
503.02        63.44688
503.46        63.39243
503.90        63.28531
504.34        63.17568
504.78        63.06847
505.22        62.97813
505.66        62.91047
506.10        62.86735
506.54        62.82537
506.98        62.77457
507.42        62.85014
507.86         62.7703
508.30        62.80396
508.74        62.68362
509.18        62.57675
509.62        62.47095
510.06        62.45095
510.50        62.53014
510.94        62.68221
511.38        62.84169
511.82        62.89637
512.26        62.82219
512.70        62.65595
513.14        62.46371
513.58        62.35026
514.02        62.33777
514.46        62.38432
514.90        62.45026
515.34        62.46987
515.78         62.4265
516.22        62.36082
516.66        62.26825
517.10        62.13691
517.54         61.9805
517.98         61.7976
518.42         61.6707
518.86        61.73064
519.30        61.98739
519.74        62.40174
520.18        62.82983
520.62        63.01686
521.06        62.91488
521.50         62.6344
521.93        62.29399
522.37        62.06666
522.81        62.00365
523.25        62.06694
523.69        62.18646
524.13        62.23755
524.57        62.19143
525.01         62.1051
525.45        62.01134
525.89        61.95438
526.32          61.946
526.76        61.96622
527.20        62.02333
527.64        62.14243
528.08        62.31659
528.52        62.53854
528.96        62.74155
529.40        62.82106
529.83        62.74689
530.27        62.55539
530.71        62.33313
531.15        62.22628
531.59        62.26654
532.03        62.42369
532.46        62.58738
532.90        62.57921
533.34        62.37782
533.78        62.06176
534.22        61.76901
534.66        61.69972
535.09        61.87325
535.53        62.21201
535.97         62.6013
536.41        62.81261
536.85        62.77412
537.28        62.72037
537.72        62.64649
538.16        62.16111
538.60        61.49886
539.04        61.50494
539.47        62.04998
539.91         62.2309
540.35        61.99197
540.79        61.86867
541.22        61.87338
541.66        61.83195
542.10        61.75829
542.54        61.60637
542.97        61.44423
543.41        61.61795
543.85        62.02753
544.29        62.17627
544.72        62.03729
545.16        62.00359
545.60        62.06198
546.04        61.98502
546.47        61.80542
546.91        61.69451
547.35        61.67381
547.79         61.7325
548.22        61.82627
548.66        61.86686
549.10        61.85403
549.53         61.9609
549.97        62.14489
550.41        62.20225
550.84        62.10829
551.28        61.99147
551.72        61.87457
552.15        61.70419
552.59        61.52089
553.03        61.48698
553.46        61.31462
553.90        61.33343
554.34        61.42672
554.77        61.51131
555.21        61.58572
555.65        61.70779
556.08        61.85817
556.52        61.99941
556.96        62.08475
557.39        62.09533
557.83        62.05328
558.27         61.8982
558.70        61.68919
559.14        61.68891
559.57        61.84651
560.01        61.82056
560.45        61.66358
560.88        61.74369
561.32        62.01031
561.75        62.16859
562.19        62.21094
562.63        61.88667
563.06         61.3889
563.50        61.74992
563.93        62.71017
564.37        62.65524
564.80         61.7235
565.24        61.54889
565.68        62.06304
566.11         62.1856
566.55         61.9254
566.98        61.72318
567.42        61.65442
567.85        61.95935
568.29        62.13768
568.72        62.19239
569.16        62.09481
569.60        62.09067
570.03         62.1394
570.47        62.44452
570.90        62.52374
571.34        62.19653
571.77        63.00996
572.21        62.57125
572.64        62.57919
573.08        62.50483
573.51        62.75784
573.95        62.61623
574.38        62.44144
574.82        61.75905
