SpectraSmart Spectrum 2.9.0.0
--------- Device Information -----------
Spectrum Name :  反射率_0
Saving Time :  2024/05/03 19:59:11
Spectro-Module Model Name : SE2030-DUVN
Spectro-Module Serial Number : OS361AC55029948
Wavelength Start : 200
Wavelength End : 1025
Wavelength Unit : Wavelength(nm)
Spectrum Unit : Reflectance(%)
-----------Spectrum Setting ------------
Integration Time : 20ms
Average : 10
Boxcar : 0
Background removal :  enabled
linearity correction :  enabled
SC :  disabled
Intensity correction :  disabled
DWT denoise :  enabled
savitzky-golay :  disabled
FFT :  disabled
Running average :  disabled
Kalman :  disabled
High pass :  disabled
---------------BEGIN--------------------
Wavelength(nm)             Reflectance(%)
200.29               0
200.75       -24.55945
201.21       -29.79348
201.67        688.9064
202.13        27.33455
202.58        23.07403
203.04        27.52452
203.50        33.31251
203.96        37.78122
204.42        41.90706
204.88        50.73343
205.34       -302.7558
205.80       -21.96035
206.26       -78.39007
206.72       -39735.95
207.18        210.0084
207.64        152.8704
208.10        140.0213
208.55        147.3748
209.01        194.4682
209.47       -86.83636
209.93        16.62399
210.39        38.22638
210.85        47.33148
211.31        53.31523
211.77        60.06488
212.23        75.09815
212.69        107.7734
213.14         108.394
213.60        44.92801
214.06        13.58858
214.52         3.27999
214.98       0.5782931
215.44        1.776351
215.90        13.37113
216.36       -181.8359
216.81       -52.58559
217.27       -63.84353
217.73        -119.378
218.19       -443.2806
218.65       -8913.389
219.11       -643.5366
219.57       -167.2025
220.02        -92.3342
220.48        -155.744
220.94        189.3647
221.40        63.71294
221.86        45.49196
222.32        40.55695
222.77        39.82526
223.23        42.09373
223.69        46.28909
224.15        46.39947
224.61        40.40451
225.06        33.45634
225.52        29.71363
225.98        30.37824
226.44        34.96034
226.90        43.23609
227.36        54.09308
227.81        61.50754
228.27        61.25694
228.73        56.26606
229.19        49.83636
229.65        44.54093
230.10        40.69975
230.56        37.95562
231.02        36.11359
231.48        35.20675
231.93         35.0383
232.39        35.53378
232.85        36.46241
233.31        37.54704
233.77        38.66547
234.22        39.77709
234.68        40.87799
235.14        41.94866
235.60        42.98685
236.05        44.11692
236.51        45.03141
236.97        45.30354
237.43        44.91284
237.88        44.22306
238.34        44.02212
238.80        45.34074
239.26        48.88695
239.71        57.68859
240.17        71.25668
240.63        89.16389
241.08        101.4882
241.54        101.3425
242.00        94.23908
242.46        91.24172
242.91        95.43443
243.37        106.2613
243.83         124.863
244.28        137.3731
244.74        119.4123
245.20        81.70673
245.66        47.40001
246.11        29.05173
246.57        24.32946
247.03        27.53327
247.48        33.70149
247.94        38.34632
248.40        40.96839
248.85        42.61528
249.31         44.5421
249.77        47.61076
250.22        51.16615
250.68        54.36309
251.14        57.03643
251.59        60.03234
252.05        64.24188
252.51        70.37835
252.96        79.70747
253.42          90.551
253.88        97.96981
254.33        99.94273
254.79        96.58796
255.25        89.03429
255.70        80.69814
256.16        74.14549
256.62         69.7924
257.07        67.82333
257.53        67.76792
257.99         68.2886
258.44         68.3904
258.90        67.64975
259.35        65.74289
259.81        63.67755
260.27        61.47995
260.72        59.21392
261.18        57.36283
261.63        55.64205
262.09        54.36029
262.55        53.44036
263.00        52.70344
263.46        52.13816
263.91        51.55759
264.37         51.0148
264.83        50.41778
265.28        49.74363
265.74         48.9496
266.19        47.72226
266.65         46.1913
267.11        44.41779
267.56        42.66429
268.02        41.37999
268.47        40.57511
268.93        40.14407
269.38        39.83238
269.84         39.2165
270.30          38.248
270.75         37.0963
271.21        36.05688
271.66        35.44691
272.12        35.30925
272.57        35.43567
273.03        35.63358
273.48        35.63638
273.94        35.35396
274.39        34.87609
274.85        34.19598
275.31        33.20772
275.76        31.97162
276.22        30.62645
276.67        29.40707
277.13        28.72801
277.58        28.54734
278.04        28.74403
278.49        28.99768
278.95        28.85802
279.40         28.2099
279.86        27.31137
280.31        26.33773
280.77        25.61491
281.22        25.13458
281.68        24.82669
282.13        24.60101
282.59        24.40328
283.04        24.19049
283.50        24.01332
283.95         23.8539
284.41        23.70122
284.86        23.54391
285.32        23.40854
285.77         23.2918
286.22        23.25316
286.68        23.30343
287.13        23.38554
287.59        23.50908
288.04        23.64303
288.50        23.79138
288.95        23.93974
289.41        24.05611
289.86        24.04285
290.32        23.92674
290.77        23.74194
291.22        23.60772
291.68        23.68389
292.13         24.0034
292.59        24.55798
293.04        25.27539
293.50        26.03682
293.95        26.78922
294.40        27.56161
294.86        28.42784
295.31        29.50765
295.77        30.83302
296.22        32.35359
296.68        33.95886
297.13        35.45024
297.58        36.74519
298.04        37.91426
298.49        39.02383
298.95        40.24432
299.40        41.61556
299.85        43.10699
300.31        44.73619
300.76        46.48669
301.21          48.351
301.67        50.34311
302.12        52.35608
302.58        54.24834
303.03        55.94927
303.48         57.4929
303.94        59.02871
304.39        60.71308
304.84        62.62456
305.30        64.70622
305.75        66.80339
306.20        68.71524
306.66         70.3978
307.11        71.86687
307.57        73.24206
308.02        74.57602
308.47        75.94554
308.93        77.33257
309.38        78.70466
309.83         80.1078
310.29        81.53773
310.74        82.96281
311.19        84.33154
311.65        85.53906
312.10        86.52679
312.55        87.31055
313.00        87.92883
313.46        88.46468
313.91         88.9335
314.36        89.37378
314.82        89.79619
315.27        90.18208
315.72        90.55807
316.18        90.94044
316.63        91.40421
317.08        92.07747
317.53        92.96596
317.99        94.00723
318.44        95.05556
318.89        95.80954
319.35        96.19331
319.80         96.2923
320.25        96.27177
320.70        96.42922
321.16        96.82677
321.61        97.38435
322.06        97.98582
322.51        98.44197
322.97        98.68084
323.42        98.80555
323.87         98.8224
324.32        98.74918
324.78        98.61233
325.23         98.4444
325.68        98.34129
326.13        98.48382
326.59        98.88068
327.04        99.53687
327.49        100.3044
327.94        100.9586
328.39        101.4186
328.85         101.694
329.30        101.9022
329.75         102.115
330.20        102.3728
330.66        102.6143
331.11        102.8849
331.56        103.1491
332.01        103.4127
332.46        103.7035
332.92        104.0055
333.37        104.3999
333.82        104.8576
334.27         105.369
334.72         105.917
335.17        106.4777
335.63        106.9991
336.08        107.5197
336.53        107.9943
336.98         108.412
337.43        108.7677
337.88         109.069
338.34        109.2973
338.79        109.4509
339.24        109.5462
339.69        109.6286
340.14        109.7731
340.59        110.0877
341.05        110.5979
341.50         111.279
341.95        112.0907
342.40        112.9786
342.85        113.8929
343.30        114.8134
343.75         115.662
344.20        116.3261
344.66        116.7976
345.11        117.0859
345.56        117.2635
346.01        117.4477
346.46        117.6868
346.91        117.9574
347.36        118.2781
347.81        118.6684
348.26        119.1173
348.72        119.6285
349.17        120.1097
349.62        120.4361
350.07        120.5801
350.52        120.5704
350.97        120.4893
351.42        120.4822
351.87        120.5735
352.32        120.6998
352.77         120.794
353.22        120.7505
353.67         120.546
354.13        120.2652
354.58        119.8774
355.03        119.4041
355.48        118.8852
355.93        118.3408
356.38        117.8721
356.83        117.6394
357.28        117.6499
357.73        117.8198
358.18        118.0249
358.63        118.0603
359.08        117.8531
359.53        117.4624
359.98        116.8744
360.43        116.0848
360.88        115.1283
361.33        114.0052
361.78         112.886
362.23        112.0284
362.68        111.4772
363.13        111.1898
363.58        110.9274
364.03        110.2968
364.48        109.2324
364.93        107.8617
365.38        106.4981
365.83        105.6224
366.28         105.325
366.73         105.443
367.18        105.6531
367.63        105.4382
368.08         104.666
368.53        103.5028
368.98        102.2264
369.43         101.248
369.88        100.6725
370.33        100.3787
370.78        100.1683
371.23        99.72407
371.68        98.96997
372.13        98.02331
372.58        97.09259
373.03        96.47385
373.48        96.21323
373.93        96.19123
374.38        96.18396
374.83        95.84338
375.28        95.08559
375.72         94.0053
376.17        92.87175
376.62        91.93158
377.07        91.24666
377.52        90.73662
377.97        90.29577
378.42        89.76999
378.87        89.13409
379.32        88.46046
379.77        87.84082
380.22        87.38072
380.67        87.08556
381.11        86.92393
381.56        86.76228
382.01        86.46601
382.46        86.00753
382.91        85.43564
383.36        84.85915
383.81        84.42982
384.26         84.1692
384.71        84.02908
385.15        83.89278
385.60        83.60767
386.05         83.1342
386.50         82.5284
386.95        81.91268
387.40        81.46584
387.85        81.22627
388.29        81.10291
388.74        81.04494
389.19        80.80254
389.64        80.32879
390.09        79.67843
390.54        79.02571
390.98        78.57175
391.43        78.40174
391.88        78.58127
392.33        78.86957
392.78        78.53364
393.23        77.73956
393.67        77.38977
394.12        77.53004
394.57        77.41456
395.02        77.04153
395.47         76.8308
395.91         76.7788
396.36        76.62597
396.81        76.38731
397.26        76.16157
397.71        75.91199
398.15        75.61933
398.60        75.39401
399.05        74.94673
399.50        74.42093
399.95        74.60896
400.39        75.29951
400.84        74.94986
401.29        73.75777
401.74         73.4491
402.18          73.997
402.63        74.03019
403.08        73.60271
403.53        73.09401
403.97         73.5437
404.42        73.62344
404.87        73.59338
405.32        73.50999
405.76        73.36384
406.21        73.25255
406.66        73.09661
407.11        72.72883
407.55         72.2725
408.00        71.81587
408.45        71.50959
408.90        71.92702
409.34        72.73438
409.79        72.51022
410.24        71.43479
410.68        70.97623
411.13        71.19833
411.58        71.24705
412.03        71.01508
412.47        70.78149
412.92        70.52467
413.37        70.18205
413.81        69.86697
414.26        69.82578
414.71        70.04816
415.15        70.52756
415.60        71.00803
416.05        71.11943
416.49        70.77451
416.94        70.11225
417.39         69.4295
417.83        69.15253
418.28        69.37614
418.73        69.95636
419.17        70.66708
419.62        71.06623
420.07        71.02525
420.51        70.65978
420.96        70.17241
421.41         69.7496
421.85        69.43236
422.30        69.33533
422.74        69.32307
423.19        69.09923
423.64        68.72556
424.08        68.78926
424.53        69.23195
424.98         69.5084
425.42        69.56497
425.87        69.75687
426.31        70.07954
426.76        70.06253
427.21        69.84898
427.65        70.16576
428.10        70.78417
428.54        70.92817
428.99        70.63516
429.44        69.92789
429.88          69.114
430.33        69.53217
430.77        70.67581
431.22          70.466
431.66         69.1121
432.11        68.77618
432.56        69.48787
433.00        69.96502
433.45        70.00961
433.89        70.32545
434.34        68.34278
434.78        70.83177
435.23        70.32581
435.67        69.23849
436.12        68.16646
436.57        68.54018
437.01        70.60866
437.46        71.48579
437.90        71.06964
438.35        70.18074
438.79        70.43173
439.24        70.09354
439.68        69.64076
440.13        69.52535
440.57        69.76134
441.02        69.56038
441.46        69.03992
441.91        69.86244
442.35        71.38573
442.80        71.02357
443.24        69.20199
443.69        69.14417
444.13        70.68195
444.58        71.10533
445.02        70.32624
445.47        69.87382
445.91        69.88893
446.36        69.94017
446.80        70.02203
447.24        70.39004
447.69        70.68113
448.13        70.85618
448.58        70.85561
449.02         70.6674
449.47        70.42032
449.91        70.26936
450.36        70.27589
450.80        70.35638
451.25        70.46365
451.69        70.49206
452.13        70.42169
452.58        70.29666
453.02        70.13531
453.47        69.99287
453.91        69.87479
454.36         69.7635
454.80        69.63789
455.24        69.53957
455.69        69.49319
456.13        69.38988
456.58        69.20732
457.02        69.40606
457.46        69.01557
457.91        69.00428
458.35         69.0116
458.79        69.12296
459.24        69.23485
459.68        68.89077
460.13        68.27271
460.57        68.02686
461.01        68.26206
461.46        68.07021
461.90        68.24996
462.34        68.25962
462.79        67.44594
463.23        67.05575
463.68        66.90532
464.12        66.93694
464.56        67.05463
465.01        67.16566
465.45        67.21173
465.89        67.29873
466.34        67.35567
466.78        67.65735
467.22        67.35268
467.67        67.11987
468.11         66.8556
468.55         66.9117
468.99        67.21263
469.44        67.26548
469.88        67.05669
470.32        66.87527
470.77        66.76906
471.21        66.69128
471.65        66.63445
472.10        66.60187
472.54        66.58148
472.98        66.52909
473.42        66.42532
473.87        66.45475
474.31        66.48551
474.75        66.02872
475.20        65.29887
475.64        65.05334
476.08        65.47803
476.52        65.53656
476.97        65.25181
477.41        65.33772
477.85        65.17435
478.29        65.64618
478.74        65.51176
479.18        65.81671
479.62        65.81384
480.06        65.77214
480.50        65.49042
480.95          65.506
481.39         65.5563
481.83        64.81152
482.27         64.6598
482.72        65.42004
483.16        64.88855
483.60        65.09531
484.04        65.31163
484.48         65.3141
484.93        65.07871
485.37        65.69585
485.81        66.30705
486.25        65.78842
486.69        67.70884
487.14        67.91797
487.58        65.09489
488.02        64.91916
488.46        65.98698
488.90         64.3201
489.34        65.13305
489.79        64.67274
490.23        64.76944
490.67        64.98698
491.11         65.2922
491.55        65.24905
491.99        64.85562
492.43        64.67292
492.88        64.72472
493.32        64.75899
493.76        64.75907
494.20        64.76656
494.64         64.7466
495.08        64.87258
495.52        65.10671
495.96        64.82318
496.41          64.226
496.85        64.65736
497.29        65.79377
497.73        65.72015
498.17        64.54868
498.61        64.03567
499.05        64.32358
499.49        64.43367
499.93         64.3034
500.37        64.38509
500.82          64.579
501.26        64.41721
501.70        63.98327
502.14        63.95111
502.58        64.10662
503.02        64.18929
503.46        64.12663
503.90        64.20094
504.34        64.36802
504.78        64.41039
505.22        64.30795
505.66        64.11919
506.10        63.88873
506.54        63.75122
506.98        63.74603
507.42        63.71557
507.86        63.59629
508.30        63.93304
508.74        63.64145
509.18         63.6026
509.62        63.54211
510.06        63.56052
510.50        63.65948
510.94        63.81692
511.38        63.97266
511.82         64.0033
512.26         63.8879
512.70        63.67015
513.14        63.41663
513.58        63.23149
514.02        63.14196
514.46        63.11067
514.90         63.1163
515.34        63.12116
515.78        63.11221
516.22         63.1193
516.66        63.11325
517.10        63.04273
517.54        62.91069
517.98        62.72639
518.42        62.58482
518.86        62.64154
519.30         62.9146
519.74        63.34847
520.18        63.80035
520.62         64.0356
521.06        63.99593
521.50        63.75268
521.93        63.42249
522.37        63.21234
522.81        63.17164
523.25         63.2326
523.69        63.33674
524.13        63.39039
524.57        63.36616
525.01        63.31534
525.45        63.23741
525.89        63.12264
526.32        62.98023
526.76        62.81472
527.20        62.69313
527.64        62.73146
528.08        62.94086
528.52        63.28265
528.96         63.6384
529.40        63.81849
529.83        63.76782
530.27        63.55066
530.71        63.27415
531.15        63.11848
531.59        63.12695
532.03        63.25068
532.46        63.39112
532.90        63.39148
533.34        63.23026
533.78         62.9869
534.22        62.75756
534.66         62.6765
535.09        62.75584
535.53        62.93606
535.97        63.16902
536.41        63.33591
536.85        63.38695
537.28        63.52412
537.72        63.66173
538.16        63.26923
538.60        62.55622
539.04        62.42863
539.47        62.82464
539.91        62.93941
540.35        62.74355
540.79        62.73757
541.22        62.88525
541.66        62.93304
542.10        62.87077
542.54         62.6791
542.97        62.44902
543.41        62.56337
543.85        62.93229
544.29        63.03979
544.72        62.86022
545.16        62.79599
545.60        62.83393
546.04        62.74735
546.47        62.56259
546.91        62.44265
547.35         62.4059
547.79        62.43575
548.22        62.50331
548.66        62.55304
549.10        62.58651
549.53        62.76147
549.97        63.01614
550.41        63.11329
550.84        63.01114
551.28        62.87006
551.72        62.73389
552.15        62.50769
552.59        62.22454
553.03        62.33943
553.46        62.04222
553.90         62.0637
554.34        62.13304
554.77        62.19291
555.21        62.23809
555.65        62.31357
556.08        62.40157
556.52        62.50204
556.96        62.59183
557.39        62.56589
557.83        62.49419
558.27        62.59224
558.70        62.79313
559.14        62.83554
559.57         62.6937
560.01        62.47159
560.45        62.27017
560.88        62.31604
561.32        62.57086
561.75        62.68081
562.19        62.65326
562.63        62.51843
563.06        62.35088
563.50        62.57697
563.93        63.05782
564.37         62.9523
564.80         62.3685
565.24        62.37663
565.68         62.8469
566.11        62.85472
566.55        62.46518
566.98         62.1968
567.42        62.13467
567.85         62.5098
568.29        62.78749
568.72        62.79163
569.16        62.50745
569.60        62.68553
570.03        62.78335
570.47        63.07813
570.90        63.34546
571.34         63.0086
571.77        63.51267
572.21        63.24197
572.64         63.4158
573.08        63.09671
573.51        63.26006
573.95        63.13151
574.38        63.26417
574.82        62.44431
