SpectraSmart Spectrum 2.9.0.0
--------- Device Information -----------
Spectrum Name :  反射率_0
Saving Time :  2024/05/03 20:21:30
Spectro-Module Model Name : SE2030-DUVN
Spectro-Module Serial Number : OS361AC55029948
Wavelength Start : 200
Wavelength End : 1025
Wavelength Unit : Wavelength(nm)
Spectrum Unit : Reflectance(%)
-----------Spectrum Setting ------------
Integration Time : 20ms
Average : 10
Boxcar : 0
Background removal :  enabled
linearity correction :  enabled
SC :  disabled
Intensity correction :  disabled
DWT denoise :  enabled
savitzky-golay :  disabled
FFT :  disabled
Running average :  disabled
Kalman :  disabled
High pass :  disabled
---------------BEGIN--------------------
Wavelength(nm)             Reflectance(%)
200.29               0
200.75        13.80666
201.21       0.4543621
201.67        1067.095
202.13        68.12646
202.58        50.48871
203.04         43.8606
203.50        41.21466
203.96        42.76017
204.42        50.75562
204.88        82.98979
205.34        -1110.92
205.80       -91.89788
206.26       -117.0136
206.72       -34607.44
207.18         148.218
207.64        104.7834
208.10        105.9494
208.55        153.0512
209.01        596.2153
209.47         576.764
209.93        77.28558
210.39         35.3403
210.85        26.01601
211.31        24.61769
211.77        27.02681
212.23        36.10396
212.69        60.37325
213.14        74.58521
213.60        39.13328
214.06        18.38974
214.52        11.47148
214.98        11.68375
215.44         18.6336
215.90        48.00447
216.36       -391.8676
216.81       -95.83821
217.27       -113.2954
217.73       -215.3172
218.19        -805.047
218.65       -15457.74
219.11       -989.9276
219.57       -201.5837
220.02       -70.05574
220.48       -89.00208
220.94        148.0425
221.40        69.57267
221.86        60.41941
222.32        59.11333
222.77        60.58723
223.23        65.28442
223.69        72.48587
224.15        74.31471
224.61        67.08856
225.06        57.32631
225.52        51.03007
225.98        49.63787
226.44        52.12927
226.90        57.69877
227.36        65.27673
227.81        70.02361
228.27        68.77186
228.73         64.2188
229.19        58.50064
229.65        53.09209
230.10        48.40752
230.56        44.57963
231.02        41.94226
231.48        41.11137
231.93        41.74525
232.39        43.41734
232.85        45.40171
233.31        46.73892
233.77        47.21738
234.22        47.08617
234.68        46.69733
235.14        46.64565
235.60         47.1369
236.05        48.05728
236.51         49.0941
236.97        49.79627
237.43        49.96468
237.88        49.94003
238.34        50.04194
238.80        50.60064
239.26        51.92546
239.71        56.25323
240.17        62.07767
240.63        71.35109
241.08        79.96606
241.54          83.925
242.00        84.99676
242.46        89.45457
242.91        100.9958
243.37         122.073
243.83        158.4971
244.28        199.8924
244.74        208.6039
245.20        182.1046
245.66        141.9406
246.11        108.1467
246.57        84.41254
247.03        66.78111
247.48        54.22745
247.94        44.62061
248.40        36.65768
248.85        29.66082
249.31        25.87331
249.77        29.37364
250.22        38.45483
250.68        49.05518
251.14        57.94854
251.59         64.0214
252.05        68.46982
252.51        72.37661
252.96        76.58089
253.42        81.26151
253.88        84.82402
254.33        85.39823
254.79        83.81611
255.25        80.69947
255.70        77.06753
256.16        74.41891
256.62        72.23517
257.07        70.11315
257.53         68.2783
257.99        66.15902
258.44        63.75372
258.90        61.75537
259.35        59.83262
259.81         58.3748
260.27        56.81326
260.72        54.63302
261.18        52.34573
261.63        49.99059
262.09        48.16944
262.55        47.13038
263.00        46.66978
263.46        46.59683
263.91        46.47538
264.37        45.99082
264.83        45.04707
265.28        43.80961
265.74        42.49516
266.19         41.1481
266.65        39.91605
267.11        38.72056
267.56        37.62555
268.02        36.80161
268.47        36.20892
268.93        35.82449
269.38        35.50511
269.84        35.01225
270.30        34.31644
270.75        33.47372
271.21         32.6811
271.66        32.13458
272.12        31.86253
272.57        31.75661
273.03        31.62939
273.48        31.22057
273.94        30.50041
274.39        29.57522
274.85        28.63848
275.31        27.87381
275.76        27.31231
276.22         26.9254
276.67        26.62077
277.13        26.37723
277.58        26.10884
278.04        25.83878
278.49        25.49681
278.95        25.04901
279.40        24.48568
279.86        23.90074
280.31        23.29734
280.77        22.77337
281.22        22.29082
281.68        21.87093
282.13        21.50321
282.59        21.23101
283.04        21.04451
283.50         20.9496
283.95        20.89981
284.41        20.84502
284.86        20.76305
285.32         20.6882
285.77        20.63497
286.22        20.67961
286.68        20.83157
287.13        21.02757
287.59        21.24034
288.04        21.39643
288.50        21.49264
288.95         21.5248
289.41        21.51436
289.86        21.45076
290.32        21.37114
290.77        21.28553
291.22        21.23088
291.68        21.24695
292.13        21.35238
292.59        21.57851
293.04        21.95138
293.50         22.5135
293.95        23.25132
294.40        24.14279
294.86        25.16197
295.31        26.28107
295.77        27.50011
296.22        28.82023
296.68        30.20899
297.13        31.59646
297.58        32.93459
298.04        34.23957
298.49        35.52413
298.95        36.87777
299.40        38.32012
299.85        39.85136
300.31         41.4982
300.76        43.25804
301.21        45.13326
301.67        47.12863
302.12        49.16642
302.58        51.14803
303.03        53.00755
303.48        54.76606
303.94        56.52141
304.39        58.35953
304.84        60.34721
305.30        62.44732
305.75        64.56228
306.20        66.57686
306.66        68.45945
307.11        70.19679
307.57        71.83954
308.02        73.34425
308.47         74.7704
308.93        76.12981
309.38         77.4599
309.83         78.9126
310.29        80.50243
310.74        82.16119
311.19        83.76189
311.65        85.08006
312.10         86.0323
312.55        86.67935
313.00        87.13216
313.46        87.58307
313.91        88.07587
314.36        88.61325
314.82        89.16279
315.27        89.63753
315.72        90.04427
316.18        90.42558
316.63        90.87498
317.08        91.54708
317.53        92.45669
317.99        93.52583
318.44        94.60781
318.89        95.40489
319.35        95.83484
319.80        95.97905
320.25         95.9858
320.70          96.124
321.16        96.45276
321.61        96.90646
322.06        97.38461
322.51        97.72478
322.97        97.87053
323.42        97.92166
323.87        97.89917
324.32        97.84151
324.78        97.77244
325.23        97.71434
325.68        97.72938
326.13        97.94087
326.59        98.34123
327.04        98.94943
327.49        99.63664
327.94        100.2163
328.39        100.6219
328.85        100.8489
329.30        101.0233
329.75        101.2323
330.20        101.5152
330.66        101.8155
331.11        102.1404
331.56        102.3862
332.01        102.5506
332.46        102.6847
332.92        102.8325
333.37        103.1816
333.82        103.7234
334.27        104.3974
334.72        105.1392
335.17        105.8417
335.63        106.4175
336.08        106.9419
336.53        107.3296
336.98        107.5043
337.43        107.4811
337.88        107.3002
338.34        107.1066
338.79        107.1611
339.24        107.5277
339.69        108.1656
340.14        108.9592
340.59        109.7011
341.05        110.3176
341.50        110.8605
341.95        111.3962
342.40        112.0533
342.85        112.8476
343.30        113.7085
343.75        114.5184
344.20        115.1053
344.66        115.4511
345.11        115.6044
345.56         115.686
346.01        115.8729
346.46         116.218
346.91        116.6665
347.36        117.1757
347.81        117.6724
348.26        118.1265
348.72        118.5763
349.17        118.9741
349.62         119.269
350.07        119.4535
350.52        119.5211
350.97        119.5527
351.42        119.6924
351.87        119.9515
352.32        120.2745
352.77        120.5302
353.22        120.5082
353.67        120.1787
354.13        119.6629
354.58        119.0457
355.03        118.5309
355.48        118.1891
355.93        117.9746
356.38        117.8763
356.83        117.8747
357.28        117.9306
357.73        118.0213
358.18        118.0809
358.63        118.0019
359.08        117.7478
359.53        117.3396
359.98        116.7713
360.43        116.0537
360.88        115.2134
361.33        114.2559
361.78        113.2944
362.23        112.4894
362.68        111.8746
363.13        111.4356
363.58        111.0157
364.03         110.359
364.48        109.4246
364.93        108.2844
365.38        107.1753
365.83        106.4569
366.28        106.1885
366.73        106.2564
367.18        106.3576
367.63        106.0104
368.08        105.1082
368.53        103.8007
368.98        102.4249
369.43        101.4857
369.88        101.0959
370.33        101.1178
370.78        101.2362
371.23        100.9251
371.68        100.0632
372.13        98.83073
372.58        97.58621
373.03        96.86393
373.48        96.76335
373.93        97.08762
374.38        97.49206
374.83        97.41933
375.28        96.72118
375.72        95.56567
376.17        94.29275
376.62        93.24992
377.07        92.53082
377.52        92.01068
377.97        91.58401
378.42        91.10435
378.87        90.53322
379.32        89.94412
379.77        89.38083
380.22        88.87148
380.67        88.41409
381.11        88.00343
381.56        87.56706
382.01        87.08385
382.46         86.5657
382.91        86.03296
383.36        85.55286
383.81        85.21188
384.26        85.00834
384.71        84.90798
385.15        84.80344
385.60        84.55637
386.05        84.12759
386.50        83.56087
386.95        82.96197
387.40        82.48984
387.85        82.18584
388.29        81.97688
388.74        81.84222
389.19        81.56481
389.64        81.11134
390.09        80.53753
390.54        79.99379
390.98        79.63831
391.43        79.52892
391.88        79.72599
392.33        80.02934
392.78         79.7036
393.23        78.90932
393.67         78.7219
394.12        79.07452
394.57        78.65421
395.02        77.63274
395.47        77.35568
395.91        77.77561
396.36        77.76935
396.81        77.32397
397.26        77.06322
397.71        76.94291
398.15        76.72083
398.60        76.50302
399.05        75.99494
399.50        75.41357
399.95        75.73904
400.39        76.71204
400.84        76.59812
401.29        75.51004
401.74        75.03117
402.18        75.25156
402.63        75.32533
403.08        75.27419
403.53        74.88985
403.97         75.2133
404.42        75.26379
404.87        75.31937
405.32        75.22893
405.76        74.95437
406.21        74.76857
406.66         74.6188
407.11        73.96693
407.55          73.071
408.00        73.03803
408.45        73.75552
408.90        73.94714
409.34        73.49703
409.79        73.12154
410.24        72.94021
410.68        72.81198
411.13        72.77264
411.58        72.85708
412.03         72.9425
412.47        72.83889
412.92        72.49319
413.37        71.97616
413.81        71.47547
414.26        71.34665
414.71        71.60136
415.15        72.18562
415.60        72.79153
416.05        72.96815
416.49        72.59931
416.94        71.85435
417.39        71.06696
417.83        70.71581
418.28          70.911
418.73         71.4882
419.17        72.21587
419.62        72.64384
420.07        72.63211
420.51        72.29808
420.96        71.83208
421.41        71.38274
421.85        70.99018
422.30        70.82954
422.74        70.77236
423.19        70.44122
423.64        69.94655
424.08        70.08318
424.53        70.76525
424.98        71.18019
425.42        71.24496
425.87        71.49749
426.31        71.91515
426.76        71.86833
427.21        71.51303
427.65        71.73743
428.10        72.37811
428.54        72.52525
428.99        72.21621
429.44        71.83121
429.88        71.49721
430.33        71.62954
430.77        71.99149
431.22        71.86035
431.66        71.29346
432.11        71.11784
432.56        71.34853
433.00        71.63784
433.45          71.812
433.89        72.32668
434.34        69.99229
434.78        72.19785
435.23        72.21493
435.67         70.6668
436.12        70.59326
436.57        70.62782
437.01        71.84735
437.46        72.66994
437.90        72.18732
438.35        71.81419
438.79        71.98935
439.24        71.83768
439.68        71.57575
440.13        71.46039
440.57         71.5576
441.02        71.60668
441.46        71.52279
441.91         71.9587
442.35        72.54811
442.80        71.89906
443.24        70.45106
443.69        70.71734
444.13         72.4169
444.58        73.01772
445.02        72.38842
445.47        71.95801
445.91        71.90443
446.36        71.93043
446.80        72.05771
447.24        72.36965
447.69        72.72402
448.13        72.89072
448.58        72.82912
449.02        72.57844
449.47        72.27415
449.91        72.07177
450.36        72.03413
450.80         72.1286
451.25        72.29105
451.69        72.27171
452.13        72.10275
452.58        72.09232
453.02        72.20967
453.47        72.20757
453.91        72.06223
454.36        71.92142
454.80        71.82585
455.24        71.70244
455.69        71.55866
456.13        71.57731
456.58        71.76001
457.02        71.24095
457.46        71.18582
457.91        70.98674
458.35        70.92535
458.79        70.97776
459.24        71.06152
459.68          70.724
460.13        70.11716
460.57        69.90599
461.01        70.19579
461.46        69.92017
461.90        70.24322
462.34        70.20724
462.79        69.42025
463.23        69.19595
463.68        69.31575
464.12         69.2868
464.56        69.07706
465.01        69.12292
465.45        69.32001
465.89        69.29521
466.34        69.10003
466.78        69.21738
467.22        69.55729
467.67        69.32943
468.11         69.1007
468.55        68.99059
468.99        69.14088
469.44        69.10415
469.88        68.88957
470.32         68.7356
470.77        68.66712
471.21        68.65216
471.65        68.67233
472.10        68.71658
472.54        68.77809
472.98        68.82916
473.42        68.84696
473.87        68.98697
474.31        69.07645
474.75        68.62428
475.20        67.84424
475.64        67.33635
476.08        67.55666
476.52        67.49378
476.97        67.24487
477.41        67.28105
477.85        67.60382
478.29         67.7878
478.74        67.70863
479.18        68.32384
479.62        68.14045
480.06         68.1853
480.50        68.00178
480.95        67.85095
481.39        67.78387
481.83        67.21849
482.27        67.28312
482.72        67.37621
483.16        67.40718
483.60        67.41423
484.04        67.74751
484.48        67.66727
484.93        67.22173
485.37        68.13333
485.81        68.58743
486.25        67.79353
486.69        69.91134
487.14        70.35905
487.58        67.13409
488.02        66.65767
488.46        68.66637
488.90         66.9319
489.34        67.16926
489.79        67.33029
490.23         67.4951
490.67        67.74088
491.11          67.592
491.55        67.48661
491.99        67.40405
492.43        67.33528
492.88        67.30009
493.32        67.34315
493.76         67.4351
494.20        67.45567
494.64        67.37354
495.08        67.40051
495.52         67.5183
495.96        67.21861
496.41        66.70322
496.85        67.07037
497.29        68.07236
497.73        68.24596
498.17        67.59982
498.61        67.27101
499.05        67.36081
499.49        67.32512
499.93        67.17306
500.37        67.13373
500.82        67.16548
501.26        67.15157
501.70        67.06627
502.14        66.93509
502.58        66.80759
503.02        66.69307
503.46        66.75045
503.90        66.82285
504.34        66.91318
504.78        66.95138
505.22        66.89906
505.66         66.8269
506.10        66.76849
506.54        66.62985
506.98        66.39041
507.42        66.76854
507.86        66.29508
508.30        66.55888
508.74        66.29372
509.18        66.22331
509.62         66.1327
510.06        66.12781
510.50        66.22545
510.94        66.39277
511.38        66.56307
511.82        66.60232
512.26        66.48908
512.70        66.27155
513.14        66.03224
513.58        65.90333
514.02        65.91159
514.46        65.99893
514.90        66.12561
515.34        66.22408
515.78        66.26854
516.22        66.30203
516.66        66.27744
517.10        66.11579
517.54        65.82674
517.98         65.4328
518.42         65.0957
518.86        65.06738
519.30        65.38081
519.74         65.9756
520.18        66.62872
520.62        66.90302
521.06        66.73782
521.50        66.39948
521.93        66.02196
522.37        65.70827
522.81        65.52681
523.25        65.48777
523.69        65.55537
524.13        65.63251
524.57         65.6929
525.01        65.78606
525.45        65.88177
525.89        65.92051
526.32        65.88914
526.76        65.79221
527.20        65.69861
527.64        65.73456
528.08        65.91737
528.52        66.20985
528.96        66.49255
529.40        66.57626
529.83        66.41463
530.27        66.08173
530.71        65.71513
531.15        65.53642
531.59        65.59409
532.03        65.82685
532.46        66.09364
532.90        66.16713
533.34         66.0079
533.78        65.71347
534.22        65.41866
534.66        65.31827
535.09        65.43617
535.53        65.69207
535.97        66.00606
536.41        66.20652
536.85        66.23088
537.28        66.30948
537.72        66.38048
538.16         65.9334
538.60        65.19836
539.04        65.10434
539.47        65.57046
539.91        65.73163
540.35        65.54845
540.79        65.55196
541.22        65.70925
541.66        65.76317
542.10         65.7041
542.54        65.50401
542.97        65.25887
543.41        65.37166
543.85        65.74921
544.29        65.85754
544.72        65.66095
545.16        65.56377
545.60        65.55603
546.04        65.41024
546.47        65.18182
546.91        65.09047
547.35        65.16021
547.79        65.33207
548.22        65.54537
548.66        65.73953
549.10         65.8811
549.53        66.05511
549.97          66.222
550.41        66.25528
550.84        66.12167
551.28        65.95574
551.72        65.81116
552.15        65.53065
552.59         65.1293
553.03        65.46238
553.46        65.05972
553.90        65.13237
554.34        65.19717
554.77        65.39793
555.21        65.37222
555.65        65.51787
556.08        65.70081
556.52        65.85316
556.96        65.91941
557.39        65.82202
557.83        65.63678
558.27        65.52226
558.70        65.50262
559.14         65.5298
559.57        65.56383
560.01         65.5612
560.45        65.53612
560.88        65.60311
561.32        65.76382
561.75        65.86588
562.19        65.92959
562.63        65.85825
563.06        65.70109
563.50        65.90048
563.93         66.3147
564.37        66.12568
564.80        65.47424
565.24        65.43233
565.68        65.89688
566.11        66.02453
566.55        65.81197
566.98        65.61268
567.42        65.51255
567.85        65.75121
568.29        65.87572
568.72        65.96815
569.16        65.96649
569.60        66.02542
570.03        66.09454
570.47        66.21697
570.90        66.42093
571.34         66.0587
571.77        66.62052
572.21        66.49604
572.64         66.7542
573.08        66.15756
573.51        66.69943
573.95        66.44549
574.38        66.35926
574.82        65.26972
