SpectraSmart Spectrum 2.9.0.0
--------- Device Information -----------
Spectrum Name :  反射率_0
Saving Time :  2024/05/03 20:12:16
Spectro-Module Model Name : SE2030-DUVN
Spectro-Module Serial Number : OS361AC55029948
Wavelength Start : 200
Wavelength End : 1025
Wavelength Unit : Wavelength(nm)
Spectrum Unit : Reflectance(%)
-----------Spectrum Setting ------------
Integration Time : 20ms
Average : 10
Boxcar : 0
Background removal :  enabled
linearity correction :  enabled
SC :  disabled
Intensity correction :  disabled
DWT denoise :  enabled
savitzky-golay :  disabled
FFT :  disabled
Running average :  disabled
Kalman :  disabled
High pass :  disabled
---------------BEGIN--------------------
Wavelength(nm)             Reflectance(%)
200.29               0
200.75       -60.80366
201.21       -118.0217
201.67        3658.545
202.13        128.8671
202.58        75.54953
203.04        57.93707
203.50        50.77649
203.96        49.84094
204.42        55.57163
204.88        86.83103
205.34       -1112.203
205.80       -84.23389
206.26       -98.67112
206.72       -28062.29
207.18        124.3489
207.64        100.1165
208.10        126.5472
208.55         252.849
209.01         1491.13
209.47        2013.427
209.93        293.2123
210.39         120.404
210.85        75.35841
211.31        65.92455
211.77          74.144
212.23        106.7955
212.69        198.0531
213.14         267.276
213.60        151.7421
214.06        73.89642
214.52        43.47057
214.98        35.03512
215.44        40.10248
215.90        77.06689
216.36       -510.4325
216.81       -115.5957
217.27       -138.2181
217.73       -271.8473
218.19       -1070.026
218.65       -22424.47
219.11       -1666.429
219.57       -450.4863
220.02         -258.78
220.48       -419.7701
220.94        465.3384
221.40        143.2056
221.86        97.74547
222.32        88.65372
222.77        93.36546
223.23         110.575
223.69        139.8108
224.15        156.0126
224.61        141.0786
225.06        114.7242
225.52        96.40774
225.98        92.36494
226.44        100.3127
226.90        117.8691
227.36        141.8093
227.81        157.5371
228.27         155.423
228.73         143.157
229.19        128.5078
229.65        117.2762
230.10        109.6967
230.56         104.507
231.02        101.0006
231.48        99.04588
231.93        98.19028
232.39        98.68469
232.85         99.7488
233.31        100.4758
233.77        100.6343
234.22        100.1736
234.68        99.86314
235.14        101.0616
235.60        104.1227
236.05        109.1652
236.51        114.1726
236.97        115.4644
237.43        112.2123
237.88         105.755
238.34        99.80164
238.80        99.13777
239.26        105.6322
239.71        122.0672
240.17        152.0208
240.63        183.8453
241.08        195.3719
241.54        177.4651
242.00         149.894
242.46        137.3755
242.91         144.479
243.37        171.6319
243.83        226.0343
244.28        283.8481
244.74        282.9236
245.20        229.5689
245.66        164.8604
246.11        122.1389
246.57        102.2347
247.03        92.83861
247.48        89.97385
247.94        90.61588
248.40        92.92645
248.85        98.22659
249.31        103.9703
249.77        103.1585
250.22        96.29109
250.68        88.22211
251.14        83.18497
251.59        85.43867
252.05        96.40238
252.51        117.6643
252.96         152.577
253.42        191.6268
253.88        215.2591
254.33        218.7424
254.79        205.7661
255.25        183.6288
255.70        161.7426
256.16         145.265
256.62        134.6527
257.07        130.0423
257.53        130.2193
257.99         132.312
258.44         134.698
258.90        136.6539
259.35        136.9998
259.81        137.1398
260.27        136.1853
260.72        133.2964
261.18        129.8064
261.63         125.637
262.09        122.3616
262.55        120.6465
263.00        120.0706
263.46        120.2861
263.91        120.3119
264.37        119.4769
264.83        117.5643
265.28        114.9848
265.74        112.1721
266.19        109.0612
266.65        106.0439
267.11        102.9713
267.56        100.2204
268.02        98.54486
268.47        97.85822
268.93        98.00405
269.38        98.29813
269.84        97.59288
270.30        95.70139
270.75        92.99598
271.21        90.30484
271.66        88.61568
272.12        88.10179
272.57        88.26468
273.03        88.55573
273.48        88.11481
273.94        86.77087
274.39        84.87691
274.85        82.70464
275.31        80.41077
275.76         78.1325
276.22        75.96878
276.67         74.1387
277.13        73.22489
277.58        73.05202
278.04        73.47047
278.49        73.84962
278.95        73.32342
279.40        71.69788
279.86         69.4994
280.31        67.14267
280.77        65.41125
281.22        64.26779
281.68        63.57403
282.13        63.03435
282.59        62.40492
283.04        61.56055
283.50        60.66995
283.95        59.80336
284.41        59.15246
284.86        58.69911
285.32        58.44669
285.77        58.22355
286.22        57.90063
286.68        57.48217
287.13        56.94468
287.59        56.51061
288.04        56.37453
288.50        56.58536
288.95        57.00022
289.41        57.38913
289.86        57.30895
290.32         56.7509
290.77        55.86014
291.22        54.96295
291.68        54.49361
292.13         54.5285
292.59        54.97974
293.04        55.69217
293.50         56.4257
293.95        57.07988
294.40        57.73704
294.86        58.48886
295.31         59.4415
295.77        60.63271
296.22        61.97943
296.68        63.39952
297.13        64.76379
297.58           65.99
298.04          67.151
298.49        68.20486
298.95        69.19792
299.40        70.13462
299.85        71.03393
300.31        72.05607
300.76        73.38959
301.21        75.06461
301.67        77.02203
302.12        78.97749
302.58        80.54846
303.03        81.60954
303.48        82.31047
303.94        82.96384
304.39        83.90932
304.84        85.27883
305.30        86.93861
305.75        88.65749
306.20         90.1459
306.66         91.3438
307.11        92.30214
307.57        93.15728
308.02        93.93455
308.47        94.73336
308.93        95.54646
309.38        96.38441
309.83        97.38651
310.29        98.55822
310.74        99.82596
311.19        101.0857
311.65        102.1444
312.10         102.913
312.55         103.438
313.00        103.7623
313.46         103.979
313.91         104.111
314.36        104.1941
314.82         104.288
315.27        104.4519
315.72        104.7239
316.18        105.0995
316.63        105.5784
317.08        106.1656
317.53        106.8412
317.99        107.5796
318.44        108.3074
318.89        108.8422
319.35        109.1365
319.80        109.2226
320.25        109.2266
320.70         109.385
321.16        109.7336
321.61        110.2303
322.06        110.7171
322.51        110.9357
322.97        110.8212
323.42        110.4986
323.87        110.1146
324.32         109.918
324.78        109.9728
325.23        110.2485
325.68        110.6501
326.13        111.0355
326.59         111.323
327.04        111.6103
327.49        111.9078
327.94         112.275
328.39        112.7141
328.85        113.1334
329.30        113.5559
329.75         113.875
330.20        114.0693
330.66        114.1512
331.11        114.1903
331.56        114.1662
332.01        114.1183
332.46        114.0681
332.92        114.0825
333.37        114.4029
333.82        115.0221
334.27        115.8827
334.72        116.8481
335.17        117.6795
335.63        118.2488
336.08        118.6544
336.53        118.8943
336.98        119.0492
337.43        119.1621
337.88        119.2139
338.34        119.2354
338.79        119.3079
339.24        119.4564
339.69        119.7158
340.14        120.0651
340.59         120.447
341.05        120.8408
341.50        121.2508
341.95        121.7335
342.40        122.4007
342.85        123.2414
343.30        124.1906
343.75        125.0607
344.20         125.561
344.66        125.6634
345.11        125.4614
345.56        125.1683
346.01        125.1104
346.46        125.3773
346.91        125.8582
347.36        126.4775
347.81        127.1077
348.26        127.6809
348.72         128.247
349.17        128.6964
349.62        128.8798
350.07        128.7878
350.52        128.4528
350.97        128.0543
351.42        127.9003
351.87        128.0375
352.32        128.3456
352.77         128.646
353.22        128.6461
353.67        128.2772
354.13        127.6989
354.58        126.9333
355.03        126.0873
355.48        125.2473
355.93        124.4133
356.38        123.7353
356.83        123.4506
357.28         123.565
357.73        123.9654
358.18        124.4321
358.63        124.6009
359.08        124.3487
359.53        123.7656
359.98         122.898
360.43        121.8449
360.88        120.6806
361.33        119.3908
361.78        118.1193
362.23        117.0794
362.68         116.313
363.13         115.798
363.58        115.3577
364.03        114.6904
364.48        113.7362
364.93        112.5807
365.38        111.4346
365.83        110.6202
366.28        110.1964
366.73        110.0529
367.18        109.9552
367.63        109.5388
368.08         108.717
368.53        107.6029
368.98        106.4342
369.43        105.5609
369.88        105.0577
370.33        104.8234
370.78        104.6285
371.23        104.1018
371.68         103.164
372.13        101.9462
372.58        100.7246
373.03        99.90063
373.48        99.54991
373.93        99.54003
374.38        99.59496
374.83        99.27171
375.28        98.46237
375.72        97.28477
376.17        96.07648
376.62        95.18092
377.07        94.66917
377.52        94.42097
377.97        94.23358
378.42        93.79842
378.87        93.05968
379.32        92.14586
379.77        91.25713
380.22        90.65311
380.67        90.37074
381.11        90.33275
381.56        90.32811
382.01        90.09098
382.46        89.55813
382.91        88.82954
383.36        88.07845
383.81        87.54527
384.26        87.27679
384.71        87.19772
385.15         87.1578
385.60        86.95449
386.05        86.52956
386.50        85.94904
386.95        85.36116
387.40        84.98206
387.85        84.85044
388.29        84.85474
388.74        84.90144
389.19        84.67512
389.64        84.12439
390.09          83.331
390.54        82.53055
390.98        82.01739
391.43         81.8989
391.88        82.21289
392.33        82.66323
392.78        82.41859
393.23        81.63622
393.67        81.27782
394.12        81.41225
394.57        81.30132
395.02        80.94505
395.47        80.74216
395.91        80.69042
396.36        80.54821
396.81         80.3361
397.26         80.1504
397.71        79.95033
398.15        79.71019
398.60        79.53205
399.05         79.1197
399.50        78.64361
399.95        78.87788
400.39         79.6209
400.84        79.50015
401.29        78.59926
401.74        78.13735
402.18        78.18166
402.63        78.08126
403.08        77.92924
403.53        77.50734
403.97        77.91712
404.42        78.15158
404.87        78.38721
405.32        78.36347
405.76        78.03899
406.21        77.52509
406.66        76.94709
407.11        76.57005
407.55        76.48611
408.00        76.49339
408.45        76.54777
408.90        76.81751
409.34        77.10928
409.79        76.83493
410.24        76.18363
410.68        75.93559
411.13        76.15359
411.58        76.44128
412.03        76.60227
412.47        76.48978
412.92        76.03339
413.37        75.32626
413.81        74.62285
414.26        74.36174
414.71        74.57195
415.15        75.17986
415.60        75.86293
416.05          76.137
416.49        75.86518
416.94        75.23135
417.39        74.53719
417.83        74.21183
418.28        74.36636
418.73        74.84689
419.17        75.48246
419.62        75.92975
420.07        76.06261
420.51        75.94772
420.96        75.70595
421.41        75.36404
421.85        74.93084
422.30        74.67947
422.74          74.501
423.19        73.92666
423.64        73.15299
424.08        73.25822
424.53         74.1144
424.98        74.61979
425.42        74.67192
425.87        74.84937
426.31        75.20836
426.76         75.4715
427.21        75.66972
427.65        75.94153
428.10        76.15547
428.54        76.17368
428.99        76.06357
429.44        75.64576
429.88        75.08144
430.33        75.31443
430.77        75.99257
431.22        75.75391
431.66        74.76966
432.11        74.61517
432.56        75.25539
433.00         75.7142
433.45        75.76492
433.89        76.08696
434.34         73.4352
434.78        76.11115
435.23        76.38667
435.67        74.89317
436.12        74.31734
436.57        74.28111
437.01        75.86272
437.46        76.43243
437.90        75.94744
438.35        75.66769
438.79        75.79059
439.24        75.69168
439.68        75.43147
440.13        75.37974
440.57        75.56261
441.02        75.51537
441.46        75.23339
441.91        75.74272
442.35        76.59911
442.80        76.01579
443.24         74.4315
443.69        74.61613
444.13        76.31205
444.58        76.88657
445.02        76.21426
445.47        75.77235
445.91        75.72922
446.36        75.74171
446.80        75.82555
447.24        76.10873
447.69        76.46577
448.13         76.5513
448.58        76.63014
449.02        76.41989
449.47        76.10886
449.91        76.18268
450.36        76.10509
450.80        76.26208
451.25        76.42232
451.69        76.48495
452.13         76.4268
452.58        76.30788
453.02        76.15115
453.47        76.00539
453.91        75.87731
454.36        75.75491
454.80        75.66183
455.24        75.62427
455.69        75.65304
456.13        75.78887
456.58        75.98125
457.02        75.85821
457.46        75.67249
457.91        75.48931
458.35         75.3609
458.79        75.39373
459.24        75.51229
459.68        75.20654
460.13        74.58047
460.57        74.34753
461.01        74.64101
461.46        74.17091
461.90        74.00821
462.34        74.59241
462.79        73.80502
463.23        73.58263
463.68        73.32927
464.12        73.30873
464.56        73.44016
465.01        73.75938
465.45        74.11554
465.89        73.89552
466.34        73.22708
466.78        73.44516
467.22        74.39101
467.67        73.33384
468.11        73.84857
468.55        73.54308
468.99        73.54322
469.44         73.4937
469.88        73.43208
470.32        73.42462
470.77        73.41647
471.21        73.41068
471.65        73.37006
472.10        73.28701
472.54        73.17664
472.98        73.04912
473.42        72.90067
473.87        72.89664
474.31        72.90108
474.75        72.44382
475.20         71.7097
475.64        71.46591
476.08        71.71331
476.52        71.76178
476.97        71.55238
477.41        71.65565
477.85        71.99978
478.29          72.058
478.74        71.75169
479.18        72.55148
479.62        72.32703
480.06        72.46057
480.50        72.27692
480.95        72.21992
481.39        72.33932
481.83        71.61581
482.27        71.82539
482.72        71.98661
483.16        71.80669
483.60         71.9136
484.04        72.19227
484.48        71.82011
484.93        70.80941
485.37        72.46458
485.81        72.98519
486.25        72.30172
486.69        73.12079
487.14        73.48897
487.58        71.16998
488.02        70.44536
488.46        72.14208
488.90        70.93444
489.34        71.21873
489.79        71.41737
490.23        71.83649
490.67         72.0811
491.11        71.90036
491.55        71.75513
491.99        71.66081
492.43        71.55644
492.88        71.46516
493.32        71.48014
493.76        71.56931
494.20        71.59246
494.64        71.51842
495.08        71.54852
495.52         71.6659
495.96         71.4092
496.41        70.94867
496.85        71.27062
497.29        72.15558
497.73         72.2442
498.17        71.56135
498.61        71.28635
499.05        71.45817
499.49        71.27905
499.93        70.81682
500.37        70.66257
500.82        70.79086
501.26        70.83442
501.70         70.7626
502.14        70.74065
502.58        70.77013
503.02        70.79093
503.46        70.79762
503.90        70.79364
504.34        70.77162
504.78        70.72838
505.22        70.65732
505.66        70.57777
506.10        70.49181
506.54        70.43279
506.98        70.40821
507.42        70.63163
507.86        70.09354
508.30        70.87317
508.74        70.21547
509.18        70.15915
509.62        70.02827
510.06         70.0071
510.50        70.10725
510.94        70.30317
511.38        70.52878
511.82        70.60551
512.26        70.50327
512.70        70.27969
513.14        70.01565
513.58        69.83851
514.02        69.78286
514.46        69.80247
514.90        69.86819
515.34        69.93232
515.78         69.9741
516.22        70.01999
516.66        70.04374
517.10        69.99826
517.54        69.88663
517.98        69.72025
518.42        69.57524
518.86        69.57779
519.30         69.7472
519.74        70.04019
520.18        70.36225
520.62        70.55636
521.06        70.57765
521.50        70.47089
521.93         70.2947
522.37        70.16421
522.81        70.10794
523.25        70.09278
523.69        70.09803
524.13          70.091
524.57        70.06415
525.01        70.04331
525.45        70.02861
525.89         70.0135
526.32        69.99445
526.76        69.97337
527.20        69.97431
527.64        70.04443
528.08        70.18596
528.52        70.38408
528.96        70.57065
529.40        70.64055
529.83        70.56095
530.27        70.37112
530.71        70.15443
531.15        70.05203
531.59        70.09277
532.03        70.24516
532.46        70.39713
532.90        70.36958
533.34        70.14302
533.78        69.80019
534.22        69.48032
534.66        69.38386
535.09         69.5316
535.53        69.84935
535.97        70.23135
536.41        70.45763
536.85        70.45572
537.28        70.47398
537.72        70.49005
538.16        70.03563
538.60        69.36058
539.04        69.42376
539.47        70.07639
539.91        70.29338
540.35        70.01498
540.79        69.84966
541.22        69.82515
541.66        69.76862
542.10        69.70158
542.54        69.56262
542.97        69.42074
543.41        69.65675
543.85        70.14705
544.29        70.32377
544.72        70.15074
545.16        70.06427
545.60        70.05812
546.04        69.89172
546.47        69.59698
546.91        69.39172
547.35        69.31409
547.79        69.25726
548.22         69.2437
548.66        69.48106
549.10        69.87883
549.53        70.16163
549.97        70.26505
550.41        70.31442
550.84        70.27865
551.28        70.09464
551.72        69.82426
552.15        69.51189
552.59        69.20758
553.03        69.33455
553.46        69.06021
553.90        69.13106
554.34        69.26148
554.77        69.38949
555.21        69.49464
555.65        69.61613
556.08        69.73713
556.52        69.81369
556.96        69.84069
557.39        69.87562
557.83        69.94773
558.27        69.95256
558.70        69.88958
559.14        69.95784
559.57        70.08748
560.01        69.91483
560.45        69.54155
560.88        69.54707
561.32        69.88084
561.75        69.91646
562.19        69.72062
562.63        69.56934
563.06        69.51794
563.50        69.87464
563.93         70.4215
564.37        70.16179
564.80        69.28621
565.24        69.18269
565.68        69.76567
566.11        69.93282
566.55        69.67268
566.98        69.57733
567.42        69.67989
567.85        69.77241
568.29        69.72405
568.72        69.70592
569.16        69.74857
569.60        69.84214
570.03        69.73112
570.47         70.0732
570.90        70.10835
571.34        69.90355
571.77        70.81641
572.21        70.23968
572.64        70.54604
573.08        70.11984
573.51        70.46551
573.95         70.2394
574.38        70.04043
574.82         69.3834
