SpectraSmart Spectrum 2.9.0.0
--------- Device Information -----------
Spectrum Name :  反射率_0
Saving Time :  2024/05/03 20:23:35
Spectro-Module Model Name : SE2030-DUVN
Spectro-Module Serial Number : OS361AC55029948
Wavelength Start : 200
Wavelength End : 1025
Wavelength Unit : Wavelength(nm)
Spectrum Unit : Reflectance(%)
-----------Spectrum Setting ------------
Integration Time : 20ms
Average : 10
Boxcar : 0
Background removal :  enabled
linearity correction :  enabled
SC :  disabled
Intensity correction :  disabled
DWT denoise :  enabled
savitzky-golay :  disabled
FFT :  disabled
Running average :  disabled
Kalman :  disabled
High pass :  disabled
---------------BEGIN--------------------
Wavelength(nm)             Reflectance(%)
200.29               0
200.75        -1.70378
201.21        27.28656
201.67       -1425.198
202.13       -33.56248
202.58        10.44787
203.04        41.17831
203.50        65.61764
203.96        83.98367
204.42        102.5294
204.88         151.454
205.34       -1473.967
205.80       -76.11733
206.26       -91.58417
206.72       -34012.66
207.18        171.8186
207.64        127.5113
208.10        124.2865
208.55        158.7576
209.01        502.5964
209.47        515.2535
209.93        110.7849
210.39        75.40912
210.85        67.35824
211.31        66.42982
211.77        69.33067
212.23         79.3988
212.69        105.8235
213.14        121.4144
213.60        82.07209
214.06        58.17341
214.52        50.23318
214.98        50.91111
215.44        60.27843
215.90        102.3641
216.36       -495.0097
216.81       -75.05613
217.27       -68.38474
217.73       -117.4939
218.19       -441.0985
218.65       -9150.654
219.11       -686.3886
219.57        -193.408
220.02        -119.589
220.48       -211.3605
220.94         246.396
221.40        76.62466
221.86         51.8735
222.32        46.66798
222.77        48.87464
223.23        57.77247
223.69         72.3252
224.15        77.83179
224.61        66.14002
225.06        49.50024
225.52        38.99463
225.98        38.22791
226.44        45.75761
226.90        60.52484
227.36         79.6487
227.81         90.6213
228.27        86.19198
228.73         73.3699
229.19        59.42543
229.65        49.64811
230.10        44.10068
230.56        41.09416
231.02        39.78963
231.48        39.73591
231.93        40.50528
232.39        42.12291
232.85        44.21489
233.31        46.25762
233.77        48.07093
234.22        49.62109
234.68        50.93429
235.14        52.10693
235.60          53.173
236.05        54.21635
236.51        54.89952
236.97        54.84508
237.43        54.06509
237.88        52.92223
238.34        52.22287
238.80        52.92372
239.26        55.58049
239.71        62.87235
240.17        73.93881
240.63        87.64716
241.08        95.31821
241.54        92.02909
242.00        84.19038
242.46        81.89105
242.91        87.95441
243.37         103.357
243.83        131.3676
244.28        157.8802
244.74        150.5884
245.20        114.7314
245.66        76.32958
246.11        54.60428
246.57         48.3933
247.03        49.94982
247.48         53.9416
247.94        55.44038
248.40        53.66536
248.85        50.11252
249.31        45.98963
249.77        43.43028
250.22        43.45085
250.68        45.07037
251.14        47.41145
251.59        50.56531
252.05        55.25653
252.51        62.49109
252.96        74.09096
253.42        88.79739
253.88        100.4056
254.33        105.3882
254.79        102.7343
255.25        93.70771
255.70         83.2136
256.16        74.71819
256.62         69.1464
257.07        66.97776
257.53        67.43633
257.99        68.81131
258.44        69.82516
258.90        69.70923
259.35        68.11548
259.81        66.27356
260.27        64.19248
260.72        61.91813
261.18        59.99775
261.63        58.11657
262.09        56.78942
262.55        56.15517
263.00        55.97861
263.46         56.1541
263.91        56.19371
264.37        55.73497
264.83         54.6888
265.28        53.25889
265.74         51.7412
266.19        50.24068
266.65        48.93878
267.11        47.71226
267.56        46.62547
268.02        45.87233
268.47        45.38614
268.93        45.13681
269.38        44.90273
269.84        44.31356
270.30        43.33172
270.75        42.07843
271.21        40.85438
271.66         39.9837
272.12        39.52567
272.57        39.31432
273.03        39.16066
273.48        38.79245
273.94        38.15947
274.39         37.3729
274.85        36.52949
275.31        35.65609
275.76        34.78552
276.22        33.96687
276.67        33.26856
277.13        32.91095
277.58        32.81902
278.04        32.94176
278.49        33.03379
278.95        32.78238
279.40        32.10833
279.86        31.22043
280.31          30.269
280.77         29.5678
281.22        29.08836
281.68        28.78248
282.13        28.52172
282.59        28.19804
283.04        27.76989
283.50        27.31944
283.95        26.88942
284.41        26.56674
284.86        26.35043
285.32        26.23277
285.77        26.16205
286.22        26.12654
286.68        26.11939
287.13        26.10924
287.59        26.11581
288.04        26.11444
288.50        26.11993
288.95        26.10917
289.41        26.08154
289.86        25.99004
290.32        25.86608
290.77        25.72311
291.22        25.62702
291.68        25.65809
292.13        25.82932
292.59        26.14998
293.04        26.59325
293.50        27.12116
293.95        27.70486
294.40        28.35519
294.86        29.09624
295.31        29.96788
295.77        30.98585
296.22        32.12409
296.68        33.33868
297.13        34.54335
297.58        35.68391
298.04        36.79395
298.49        37.85772
298.95        38.92051
299.40        39.99331
299.85        41.07921
300.31        42.26414
300.76        43.64215
301.21        45.22581
301.67        46.98518
302.12        48.75248
302.58        50.29323
303.03        51.53037
303.48        52.55183
303.94         53.5564
304.39        54.76686
304.84        56.27896
305.30        58.01778
305.75        59.83521
306.20        61.53696
306.66        63.07214
307.11        64.45704
307.57        65.78002
308.02         67.0594
308.47        68.35425
308.93        69.64538
309.38        70.91354
309.83        72.22192
310.29        73.56884
310.74        74.91681
311.19        76.20318
311.65        77.30798
312.10        78.17637
312.55        78.83804
313.00        79.34785
313.46        79.80908
313.91        80.24529
314.36        80.68378
314.82        81.12955
315.27        81.55724
315.72        81.98321
316.18        82.41915
316.63        82.92259
317.08        83.59489
317.53        84.43384
317.99         85.3792
318.44        86.29955
318.89        86.92783
319.35        87.19896
319.80        87.19353
320.25        87.06245
320.70        87.07343
321.16        87.29012
321.61        87.65275
322.06        88.07307
322.51        88.40367
322.97        88.58781
323.42        88.71088
323.87        88.77573
324.32         88.7923
324.78        88.77393
325.23        88.74402
325.68        88.76319
326.13        88.95502
326.59        89.31668
327.04        89.85948
327.49        90.47544
327.94         91.0093
328.39        91.40401
328.85        91.65845
329.30        91.86133
329.75        92.04765
330.20        92.24264
330.66         92.3991
331.11        92.57165
331.56        92.74735
332.01        92.93904
332.46        93.17263
332.92        93.41322
333.37        93.70119
333.82         94.0053
334.27        94.32243
334.72        94.68917
335.17        95.17017
335.63        95.73431
336.08        96.39128
336.53        97.01049
336.98        97.43398
337.43        97.62174
337.88        97.62101
338.34        97.52076
338.79        97.49023
339.24        97.59329
339.69        97.83047
340.14        98.16744
340.59        98.53746
341.05        98.91776
341.50        99.32151
341.95        99.82872
342.40        100.5744
342.85        101.5491
343.30          102.68
343.75        103.7252
344.20         104.312
344.66        104.3886
345.11        104.0597
345.56        103.6203
346.01        103.5271
346.46        103.8943
346.91        104.5867
347.36        105.4041
347.81        106.0184
348.26        106.3391
348.72        106.4893
349.17        106.5537
349.62        106.6847
350.07        106.9274
350.52        107.2031
350.97        107.4897
351.42        107.7766
351.87        108.0309
352.32        108.2434
352.77         108.359
353.22         108.283
353.67        108.0157
354.13         107.641
354.58        107.1715
355.03        106.6965
355.48        106.2681
355.93        105.8799
356.38        105.6183
356.83        105.6123
357.28        105.8492
357.73        106.2564
358.18        106.6541
358.63        106.7506
359.08         106.467
359.53        105.8864
359.98        105.1095
360.43        104.3156
360.88        103.5721
361.33        102.8224
361.78        102.1108
362.23        101.4931
362.68        100.9711
363.13        100.5714
363.58        100.1562
364.03        99.49368
364.48        98.56238
364.93        97.42959
365.38        96.35055
365.83        95.72146
366.28        95.60094
366.73        95.85208
367.18         96.1564
367.63        96.00048
368.08        95.25792
368.53        94.09049
368.98        92.78933
369.43        91.79104
369.88        91.21346
370.33        90.94307
370.78        90.78375
371.23        90.41368
371.68        89.75504
372.13        88.92313
372.58        88.13384
373.03        87.69667
373.48        87.65495
373.93        87.87862
374.38        88.10658
374.83        87.92993
375.28        87.24686
375.72         86.1682
376.17        85.00326
376.62        84.06997
377.07        83.45021
377.52        83.05329
377.97        82.73379
378.42        82.27032
378.87        81.62347
379.32        80.88433
379.77         80.2066
380.22        79.78489
380.67        79.63705
381.11        79.70644
381.56        79.77789
382.01        79.56709
382.46        79.02107
382.91        78.25078
383.36        77.47841
383.81         77.0237
384.26        76.94041
384.71        77.11266
385.15        77.34803
385.60        77.37064
386.05        77.08839
386.50        76.58824
386.95        75.98846
387.40        75.46439
387.85        75.07413
388.29        74.74364
388.74        74.47339
389.19         74.0935
389.64         73.5873
390.09        73.01843
390.54        72.51963
390.98        72.22093
391.43        72.16644
391.88        72.40199
392.33        72.77075
392.78         72.6187
393.23        72.07554
393.67        72.15672
394.12        72.73864
394.57        72.32956
395.02        71.32203
395.47        70.94186
395.91        71.26535
396.36        71.24696
396.81        70.88293
397.26        70.75297
397.71        70.79549
398.15        70.68121
398.60         70.4854
399.05        70.12675
399.50        69.70444
399.95        69.68479
400.39        69.98203
400.84        69.67985
401.29        68.91644
401.74        68.78664
402.18        69.20294
402.63        69.07936
403.08        68.53361
403.53        67.99659
403.97        68.45695
404.42        68.60723
404.87        68.67271
405.32        68.68877
405.76        68.61506
406.21        68.62334
406.66        68.61857
407.11        68.14755
407.55        67.42541
408.00        67.19923
408.45        67.47334
408.90        67.78484
409.34        67.88774
409.79         67.4157
410.24         66.6106
410.68        66.32695
411.13        66.62962
411.58        67.01569
412.03        67.27342
412.47        67.29657
412.92        66.99729
413.37         66.4341
413.81        65.82999
414.26        65.58306
414.71        65.72747
415.15        66.19598
415.60        66.73026
416.05        66.95351
416.49        66.75414
416.94        66.27448
417.39        65.75132
417.83        65.51598
418.28        65.65527
418.73        66.05574
419.17        66.55832
419.62        66.84985
420.07        66.83074
420.51        66.56506
420.96        66.22477
421.41        65.92407
421.85        65.67519
422.30        65.69838
422.74        65.79641
423.19        65.38232
423.64        64.60988
424.08        64.52251
424.53        65.09306
424.98        65.42541
425.42        65.46257
425.87        65.79238
426.31        66.34451
426.76         66.5161
427.21        66.42247
427.65        66.63019
428.10        66.93604
428.54        67.39641
428.99        66.82133
429.44        66.27778
429.88        65.66047
430.33        65.94973
430.77        66.77171
431.22        66.81106
431.66        66.11668
432.11         65.7918
432.56        65.89969
433.00        66.12132
433.45        66.35951
433.89        66.73066
434.34        64.36823
434.78        66.67629
435.23        67.47565
435.67        65.19071
436.12        65.05101
436.57        65.03062
437.01        66.73359
437.46        67.46928
437.90        67.21829
438.35        66.24004
438.79        66.70921
439.24        66.45467
439.68         66.1289
440.13        66.07195
440.57        66.28267
441.02        66.19775
441.46        65.83244
441.91        66.26996
442.35        67.13068
442.80         66.7954
443.24        65.60966
443.69        65.91103
444.13        67.43634
444.58        67.93291
445.02        67.28716
445.47        66.72818
445.91        66.47948
446.36        66.41177
446.80        66.56286
447.24        66.98258
447.69        67.48026
448.13        67.70527
448.58        67.61573
449.02        67.37232
449.47        67.11242
449.91        66.93135
450.36        66.89719
450.80        66.97176
451.25        67.09762
451.69        67.13322
452.13        67.05361
452.58        66.91335
453.02        66.74333
453.47        66.61594
453.91        66.54351
454.36        66.50005
454.80        66.44084
455.24        66.39872
455.69        66.39281
456.13        66.23354
456.58        65.93789
457.02        66.19789
457.46        65.99957
457.91        65.82245
458.35        65.40196
458.79        65.29218
459.24        65.42008
459.68        65.12803
460.13        64.55306
460.57        64.36128
461.01        64.64133
461.46        64.61523
461.90        64.61367
462.34        65.08721
462.79        64.30737
463.23        64.17181
463.68        64.15981
464.12         64.1026
464.56        63.98868
465.01        64.01083
465.45         64.1132
465.89        64.21119
466.34        64.28186
466.78        64.35446
467.22        64.43777
467.67        64.18385
468.11        63.96529
468.55        63.89471
468.99        64.02472
469.44        63.97551
469.88        63.74711
470.32        63.57136
470.77         63.4658
471.21        63.37172
471.65        63.27462
472.10        63.18511
472.54        63.12479
472.98        63.09259
473.42        63.07316
473.87        63.25007
474.31        63.45051
474.75         63.0805
475.20        62.34071
475.64        62.14192
476.08        62.47724
476.52        62.57018
476.97        62.39114
477.41        62.45145
477.85        62.71545
478.29        62.83298
478.74        62.64968
479.18        62.81511
479.62        62.93668
480.06        62.93003
480.50        62.65716
480.95        62.53635
481.39        62.63025
481.83        61.99248
482.27        62.04773
482.72        62.29699
483.16        62.21068
483.60         62.1747
484.04        62.48585
484.48        62.36937
484.93        61.96974
485.37        62.70305
485.81         63.3255
486.25        62.72535
486.69        64.69054
487.14        64.98358
487.58        61.62902
488.02        61.88739
488.46        62.60401
488.90        61.81377
489.34        62.46742
489.79        62.23984
490.23        62.41562
490.67        62.47824
491.11        62.52865
491.55        62.59555
491.99        62.62278
492.43        62.57832
492.88         62.4561
493.32        62.35813
493.76         62.2898
494.20         62.1973
494.64         62.0775
495.08        62.02916
495.52        62.07416
495.96        61.99313
496.41        61.86281
496.85        62.25429
497.29        62.95945
497.73         62.9631
498.17        62.34504
498.61         62.1425
499.05        62.39687
499.49        62.40819
499.93        62.15562
500.37        62.03912
500.82        62.05283
501.26         61.9286
501.70        61.66582
502.14         61.7924
502.58        61.66108
503.02        61.70146
503.46        61.71415
503.90        61.76916
504.34         61.8293
504.78        61.82049
505.22        61.74089
505.66        61.59608
506.10        61.40501
506.54        61.31979
506.98        61.38256
507.42        61.33898
507.86        61.10485
508.30        61.73603
508.74        61.27802
509.18        61.30616
509.62        61.28223
510.06        61.32386
510.50        61.42436
510.94        61.57265
511.38        61.71504
511.82        61.71215
512.26        61.54974
512.70         61.2836
513.14        60.98983
513.58        60.78682
514.02         60.7063
514.46        60.70283
514.90        60.76552
515.34        60.87128
515.78        61.00097
516.22        61.17643
516.66        61.32047
517.10        61.30849
517.54        61.12984
517.98        60.81172
518.42        60.51377
518.86        60.49086
519.30        60.78374
519.74        61.32829
520.18        61.91395
520.62        62.14913
521.06        61.97218
521.50        61.59306
521.93        61.17426
522.37        60.90411
522.81        60.85101
523.25        60.98005
523.69        61.19777
524.13        61.33116
524.57        61.33595
525.01        61.28311
525.45        61.20229
525.89        61.13143
526.32         61.0848
526.76        61.04213
527.20         61.0252
527.64        61.08398
528.08        61.21701
528.52        61.41077
528.96        61.59192
529.40         61.6413
529.83        61.52781
530.27        61.30046
530.71        61.04251
531.15        60.89361
531.59        60.88727
532.03        60.98925
532.46         61.1195
532.90        61.14957
533.34         61.0575
533.78        60.89958
534.22        60.75182
534.66        60.72189
535.09        60.81765
535.53        60.99746
535.97         61.2085
536.41        61.32598
536.85         61.3084
537.28        61.35217
537.72        61.42433
538.16        61.09137
538.60         60.5582
539.04         60.6712
539.47        61.28974
539.91        61.49818
540.35        61.23964
540.79        61.04476
541.22         60.9609
541.66        60.87178
542.10        60.80245
542.54        60.71245
542.97         60.6267
543.41        60.77153
543.85        61.05876
544.29        61.13122
544.72        60.97472
545.16        60.89884
545.60         60.9008
546.04        60.81154
546.47        60.66132
546.91         60.6035
547.35        60.65386
547.79         60.7558
548.22        60.87753
548.66        61.04336
549.10        61.20836
549.53        61.33858
549.97        61.40019
550.41        61.38361
550.84        61.27748
551.28        61.10278
551.72        60.89862
552.15        60.67567
552.59        60.47512
553.03        60.49536
553.46        60.34427
553.90        60.37237
554.34        60.42756
554.77        60.50418
555.21        60.61838
555.65        60.59066
556.08         60.8161
556.52        60.92731
556.96        61.02039
557.39        61.07691
557.83        61.10347
558.27        61.20055
558.70        61.15633
559.14         61.0715
559.57        60.90858
560.01        60.77638
560.45        60.72418
560.88        60.77345
561.32        60.89754
561.75         61.0358
562.19        61.17503
562.63        60.96501
563.06        60.55666
563.50        60.91126
563.93        61.79229
564.37        61.71532
564.80        60.83005
565.24        60.69718
565.68        61.22178
566.11        61.31962
566.55        60.99985
566.98        60.68405
567.42        60.48803
567.85        60.78633
568.29        61.06491
568.72        61.12047
569.16        60.93336
569.60        60.95414
570.03        61.14804
570.47        61.43986
570.90         61.6052
571.34          61.359
571.77        62.09008
572.21        61.64396
572.64        61.79654
573.08        61.39152
573.51        61.79208
573.95        61.66923
574.38        61.58029
574.82        60.92933
