SpectraSmart Spectrum 2.9.0.0
--------- Device Information -----------
Spectrum Name :  反射率_0
Saving Time :  2024/05/03 20:07:58
Spectro-Module Model Name : SE2030-DUVN
Spectro-Module Serial Number : OS361AC55029948
Wavelength Start : 200
Wavelength End : 1025
Wavelength Unit : Wavelength(nm)
Spectrum Unit : Reflectance(%)
-----------Spectrum Setting ------------
Integration Time : 20ms
Average : 10
Boxcar : 0
Background removal :  enabled
linearity correction :  enabled
SC :  disabled
Intensity correction :  disabled
DWT denoise :  enabled
savitzky-golay :  disabled
FFT :  disabled
Running average :  disabled
Kalman :  disabled
High pass :  disabled
---------------BEGIN--------------------
Wavelength(nm)             Reflectance(%)
200.29               0
200.75       -38.87872
201.21       -77.05187
201.67        2431.755
202.13        93.79763
202.58        63.79991
203.04         56.9937
203.50        57.05072
203.96        62.29505
204.42        76.10048
204.88        130.7375
205.34       -1834.603
205.80       -139.3962
206.26       -141.0753
206.72       -32458.25
207.18        118.7426
207.64        81.42258
208.10        88.92129
208.55        155.2091
209.01        827.5593
209.47        1101.603
209.93        171.1242
210.39        78.28509
210.85        54.18888
211.31         49.1059
211.77        53.41054
212.23        70.85844
212.69        119.4544
213.14        155.9024
213.60        93.02596
214.06        51.43282
214.52        36.02729
214.98        33.91505
215.44        42.48294
215.90        83.98502
216.36       -524.9996
216.81       -104.1657
217.27       -109.2685
217.73        -194.219
218.19       -706.7565
218.65       -13655.91
219.11       -907.3421
219.57        -203.696
220.02       -86.54686
220.48       -112.0181
220.94        133.5296
221.40        50.30223
221.86        39.79935
222.32        37.49793
222.77        37.94102
223.23        41.34983
223.69        47.75048
224.15         52.2107
224.61        50.50019
225.06        45.47586
225.52        42.51744
225.98        44.31092
226.44        50.59094
226.90        60.99905
227.36        72.79147
227.81        76.21254
228.27         67.3973
228.73         53.0997
229.19        39.99982
229.65        32.57261
230.10         30.0149
230.56        30.12595
231.02        31.53831
231.48        33.18051
231.93         34.6696
232.39         36.3564
232.85        37.91608
233.31        38.83733
233.77        39.08617
234.22        38.70217
234.68        38.18319
235.14        38.44075
235.60        39.76482
236.05        42.10321
236.51        44.88138
236.97        46.85806
237.43         47.5279
237.88        47.39541
238.34         47.3052
238.80        48.41716
239.26        51.47796
239.71        59.18327
240.17        70.93011
240.63        87.02268
241.08        99.20525
241.54        101.2612
242.00        97.55196
242.46        98.20462
242.91        107.0951
243.37        125.2022
243.83        156.5907
244.28        187.8604
244.74         184.017
245.20         149.898
245.66        109.2747
246.11        79.66814
246.57        62.29794
247.03        51.86929
247.48         47.0344
247.94        46.28899
248.40        48.52063
248.85         53.8092
249.31        60.97282
249.77        65.39692
250.22        65.70303
250.68        64.02875
251.14         63.1126
251.59        66.22283
252.05        74.66768
252.51         89.5416
252.96        111.8776
253.42        132.8573
253.88        139.9584
254.33        133.5088
254.79        120.1431
255.25         106.088
255.70        94.73142
256.16        87.05087
256.62        82.10121
257.07        79.23426
257.53        78.06655
257.99        77.42142
258.44        76.79768
258.90        76.38279
259.35        75.54123
259.81          74.827
260.27        73.61263
260.72        71.32198
261.18        68.69667
261.63        65.83661
262.09        63.51823
262.55        62.03592
263.00        61.17556
263.46        60.73131
263.91         60.3419
264.37        59.87463
264.83         59.1901
265.28        58.37216
265.74        57.38971
266.19        55.88922
266.65        54.03868
267.11        51.87442
267.56        49.79296
268.02        48.45916
268.47        47.88136
268.93        47.89475
269.38        47.99744
269.84        47.34993
270.30        45.83179
270.75        43.76392
271.21        41.76735
271.66        40.59834
272.12        40.38411
272.57        40.78348
273.03        41.36019
273.48        41.44429
273.94        40.86027
274.39        39.84714
274.85        38.62533
275.31        37.39725
275.76        36.25604
276.22        35.19296
276.67        34.27114
277.13        33.71097
277.58        33.42569
278.04        33.38428
278.49        33.32256
278.95         32.8905
279.40        32.02529
279.86        30.96677
280.31        29.90205
280.77        29.18944
281.22        28.79783
281.68        28.64517
282.13        28.58563
282.59        28.48528
283.04        28.27832
283.50        28.04532
283.95        27.79165
284.41        27.55378
284.86        27.33445
285.32        27.15407
285.77        27.01697
286.22        26.99849
286.68        27.11163
287.13        27.29376
287.59        27.53536
288.04        27.76826
288.50        27.98848
288.95        28.17641
289.41        28.32127
289.86        28.35555
290.32         28.3101
290.77        28.20675
291.22        28.12621
291.68        28.17014
292.13        28.37061
292.59        28.75141
293.04         29.3083
293.50        30.03292
293.95        30.89463
294.40        31.88101
294.86         33.0082
295.31        34.30697
295.77        35.78571
296.22        37.41984
296.68        39.10803
297.13        40.66766
297.58        42.02373
298.04        43.23811
298.49         44.3903
298.95         45.6854
299.40        47.15967
299.85        48.77059
300.31        50.51284
300.76        52.32587
301.21        54.19624
301.67        56.16125
302.12        58.11134
302.58        59.91225
303.03         61.4964
303.48        62.88828
303.94        64.29177
304.39        65.93031
304.84        67.89038
305.30        70.10806
305.75        72.31853
306.20        74.15314
306.66        75.55672
307.11        76.60194
307.57        77.58932
308.02        78.82983
308.47        80.43655
308.93        82.29888
309.38        84.18239
309.83        85.82967
310.29        87.16969
310.74        88.26315
311.19         89.2312
311.65        90.24617
312.10        91.31742
312.55        92.36812
313.00        93.29528
313.46        93.96869
313.91        94.35405
314.36        94.57222
314.82        94.74215
315.27        95.00715
315.72        95.43577
316.18        95.98231
316.63        96.64724
317.08        97.44852
317.53        98.35668
317.99         99.3441
318.44        100.2992
318.89        100.9721
319.35        101.3042
319.80        101.3584
320.25         101.289
320.70        101.3807
321.16        101.6924
321.61         102.162
322.06        102.6719
322.51        103.0249
322.97         103.155
323.42          103.17
323.87        103.1052
324.32        103.0264
324.78        102.9625
325.23        102.9267
325.68        102.9676
326.13        103.1891
326.59        103.5741
327.04        104.1478
327.49        104.7851
327.94        105.3076
328.39        105.6515
328.85        105.8087
329.30        105.9048
329.75        106.0179
330.20        106.1914
330.66        106.3789
331.11         106.601
331.56        106.7697
332.01        106.8841
332.46        106.9802
332.92        107.1067
333.37        107.4613
333.82        108.0328
334.27        108.7718
334.72        109.5568
335.17        110.1865
335.63        110.5602
336.08        110.7726
336.53        110.8737
336.98        111.0127
337.43        111.2438
337.88        111.5394
338.34        111.8397
338.79        112.0734
339.24        112.2271
339.69        112.3593
340.14        112.5594
340.59         112.958
341.05         113.569
341.50        114.3337
341.95        115.1596
342.40        115.9195
342.85        116.5565
343.30        117.0933
343.75        117.5047
344.20        117.7595
344.66         117.896
345.11        117.9206
345.56        117.9348
346.01        118.0903
346.46        118.4255
346.91        118.8973
347.36        119.4575
347.81        120.0192
348.26        120.5368
348.72        121.0297
349.17        121.4357
349.62        121.6885
350.07        121.7812
350.52        121.7253
350.97        121.5948
351.42        121.5242
351.87         121.534
352.32        121.5679
352.77        121.5711
353.22        121.4503
353.67        121.1876
354.13        120.8727
354.58        120.4484
355.03        119.8957
355.48        119.2522
355.93        118.5467
356.38        117.9421
356.83        117.6944
357.28        117.8236
357.73        118.2166
358.18        118.6521
358.63        118.7691
359.08        118.4599
359.53        117.8281
359.98          116.97
360.43        116.0569
360.88        115.1603
361.33        114.2217
361.78        113.3058
362.23        112.5067
362.68         111.832
363.13        111.2946
363.58        110.7432
364.03        109.9219
364.48        108.8038
364.93        107.4733
365.38        106.1816
365.83        105.3127
366.28        104.9339
366.73        104.9188
367.18        104.9912
367.63        104.7083
368.08        103.9548
368.53        102.8621
368.98        101.6741
369.43        100.7533
369.88        100.1898
370.33        99.88409
370.78        99.63456
371.23        99.12049
371.68        98.27135
372.13        97.19639
372.58        96.15049
373.03        95.50143
373.48        95.30499
373.93        95.43227
374.38        95.57084
374.83        95.22092
375.28        94.27529
375.72        92.88152
376.17        91.44405
376.62        90.40874
377.07         89.8691
377.52        89.67681
377.97        89.59222
378.42        89.24056
378.87        88.53983
379.32        87.63649
379.77        86.73678
380.22        86.10709
380.67        85.79349
381.11        85.72033
381.56        85.68548
382.01        85.43867
382.46        84.92352
382.91        84.23177
383.36        83.55147
383.81        83.14643
384.26        83.05349
384.71        83.17734
385.15        83.30997
385.60        83.15628
386.05        82.64359
386.50        81.87753
386.95        81.05874
387.40         80.4872
387.85        80.22719
388.29        80.14097
388.74        80.13866
389.19        79.91289
389.64        79.41065
390.09        78.72883
390.54        78.02901
390.98        77.50726
391.43        77.24559
391.88        77.24671
392.33        77.39581
392.78        77.11501
393.23        76.46975
393.67        76.40908
394.12        76.93086
394.57        76.02189
395.02        75.55549
395.47        75.36206
395.91        75.88182
396.36        75.98653
396.81        75.66092
397.26        75.50092
397.71        75.41718
398.15        75.16525
398.60         74.8674
399.05        74.19413
399.50        73.41491
399.95        73.76518
400.39        74.94195
400.84        74.69485
401.29         73.2198
401.74        72.91003
402.18        73.71498
402.63        73.71667
403.08        72.99207
403.53        72.32481
403.97        72.77238
404.42        72.85186
404.87        72.81579
405.32        72.73905
405.76        72.59261
406.21        72.54707
406.66        72.51066
407.11        72.06705
407.55        71.41808
408.00        71.20136
408.45        71.44088
408.90        71.85371
409.34        72.15002
409.79        71.71597
410.24        70.79257
410.68        70.41277
411.13         70.6509
411.58        70.90962
412.03        70.99866
412.47        70.90918
412.92        70.57225
413.37        70.01418
413.81        69.45499
414.26        69.29259
414.71        69.54701
415.15        70.15573
415.60        70.79975
416.05        70.99701
416.49        70.62172
416.94        69.85916
417.39        69.04217
417.83        68.64297
418.28         68.7752
418.73        69.27708
419.17        69.93725
419.62        70.34371
420.07        70.36041
420.51        70.08892
420.96        69.69443
421.41         69.2822
421.85        68.88539
422.30        68.71439
422.74        68.64053
423.19        68.24417
423.64        67.65727
424.08        67.75294
424.53        68.46731
424.98        68.92957
425.42        69.04841
425.87        69.44571
426.31        70.03107
426.76        69.94727
427.21        69.37821
427.65        69.47413
428.10        70.10028
428.54        70.21156
428.99         69.8396
429.44         69.4007
429.88        69.04922
430.33         69.2334
430.77        69.69538
431.22        69.69891
431.66         69.2523
432.11        69.00401
432.56        68.98741
433.00        69.20518
433.45        69.56885
433.89        70.03731
434.34        67.47628
434.78        70.15451
435.23        70.43595
435.67        68.38644
436.12        67.87824
436.57        67.82703
437.01        69.54534
437.46        70.20979
437.90        69.78654
438.35        68.99554
438.79         69.3288
439.24         69.1263
439.68        68.82462
440.13        68.83659
440.57        69.12701
441.02        68.95571
441.46        68.37969
441.91        68.77287
442.35        69.75516
442.80        69.21683
443.24        68.07166
443.69        68.27161
444.13        69.74168
444.58        70.22687
445.02        69.61154
445.47        69.09195
445.91        68.88335
446.36        68.83804
446.80         68.9819
447.24        69.47263
447.69        70.06484
448.13        70.10096
448.58        69.65639
449.02        69.39716
449.47        69.43345
449.91        69.46784
450.36        69.49479
450.80        69.52561
451.25        69.54233
451.69        69.53985
452.13         69.5032
452.58        69.36665
453.02          69.154
453.47        68.99019
453.91        68.88402
454.36        68.82111
454.80        68.76232
455.24        68.64063
455.69        68.46036
456.13        68.33048
456.58        68.03957
457.02        68.02116
457.46        68.33444
457.91        68.18652
458.35        67.67667
458.79        67.59618
459.24        67.89982
459.68        67.66319
460.13        66.96143
460.57        66.78215
461.01        67.29408
461.46        66.52866
461.90        66.71024
462.34         67.2826
462.79        66.40488
463.23        66.15504
463.68        66.20175
464.12        66.27513
464.56        66.35384
465.01        66.38506
465.45        66.32301
465.89        66.12452
466.34        65.85732
466.78        65.85189
467.22         66.1974
467.67        65.66948
468.11        66.11909
468.55        65.97735
468.99        65.82996
469.44        65.74524
469.88        65.75217
470.32        65.73997
470.77        65.68272
471.21        65.66267
471.65        65.65295
472.10        65.62537
472.54        65.56704
472.98        65.44051
473.42        65.23856
473.87        65.13924
474.31        65.04922
474.75        64.57893
475.20        63.90557
475.64        63.71594
476.08        64.00585
476.52        64.09713
476.97        63.93616
477.41        64.08151
477.85        64.51239
478.29        64.31754
478.74        64.25134
479.18        64.46229
479.62        64.69385
480.06         64.7529
480.50        64.47871
480.95        64.31432
481.39         64.2989
481.83        63.76198
482.27        63.77127
482.72         63.8046
483.16        63.72879
483.60        63.74693
484.04        64.02007
484.48        63.96164
484.93        63.41433
485.37        64.86669
485.81        64.80545
486.25        64.64957
486.69        66.25887
487.14        66.28381
487.58        63.43684
488.02        63.47083
488.46        64.91154
488.90         63.2276
489.34        63.83169
489.79        63.86884
490.23         64.0416
490.67        64.16167
491.11        63.97801
491.55        63.88863
491.99        63.85062
492.43        63.75489
492.88         63.6097
493.32        63.53765
493.76        63.54223
494.20        63.52398
494.64         63.4552
495.08        63.51965
495.52        63.68974
495.96        63.44464
496.41        62.95391
496.85        63.34092
497.29        64.33228
497.73        64.29402
498.17        63.32666
498.61         62.9829
499.05        63.35166
499.49        63.44676
499.93        63.24517
500.37        63.31854
500.82        63.57007
501.26        63.47128
501.70        63.08382
502.14        62.93329
502.58        63.04156
503.02        63.06321
503.46        62.99777
503.90        63.06464
504.34         63.2177
504.78        63.24901
505.22        63.13283
505.66        62.94772
506.10        62.73593
506.54        62.52957
506.98        62.65639
507.42        62.59657
507.86        62.31783
508.30        62.98985
508.74        62.39274
509.18        62.32167
509.62        62.18992
510.06        62.17262
510.50        62.27449
510.94        62.47744
511.38        62.69827
511.82        62.74168
512.26        62.57862
512.70        62.27415
513.14        61.94385
513.58        61.76895
514.02        61.79031
514.46        61.94141
514.90        62.14725
515.34        62.28358
515.78        62.31075
516.22        62.28231
516.66        62.20395
517.10         62.0811
517.54        61.93501
517.98        61.75824
518.42        61.62863
518.86        61.67533
519.30        61.91063
519.74        62.29206
520.18        62.69211
520.62        62.89815
521.06        62.85526
521.50        62.62248
521.93        62.30387
522.37        62.08654
522.81        62.01711
523.25        62.04272
523.69        62.10478
524.13         62.1084
524.57        62.03262
525.01        61.92723
525.45        61.82451
525.89        61.76708
526.32        61.76495
526.76         61.7997
527.20        61.87506
527.64        62.00824
528.08        62.18895
528.52        62.40867
528.96          62.604
529.40        62.67652
529.83        62.59834
530.27        62.40685
530.71        62.18124
531.15         62.0563
531.59        62.06308
532.03         62.1739
532.46        62.29816
532.90        62.28857
533.34        62.12721
533.78        61.88173
534.22        61.65762
534.66        61.60629
535.09        61.73949
535.53         61.9952
535.97        62.29255
536.41        62.45963
536.85        62.43682
537.28        62.43811
537.72        62.43139
538.16        61.97457
538.60        61.29065
539.04        61.26461
539.47        61.77736
539.91         61.9002
540.35        61.60751
540.79        61.51963
541.22         61.6407
541.66        61.69762
542.10        61.69214
542.54         61.6361
542.97        61.56578
543.41        61.75397
543.85         62.0898
544.29        62.09282
544.72        61.79546
545.16        61.65831
545.60         61.6839
546.04        61.69741
546.47         61.6588
546.91        61.46867
547.35        61.20949
547.79        61.23613
548.22        61.50011
548.66        61.66288
549.10        61.69043
549.53        61.81048
549.97        61.98935
550.41         62.0577
550.84        61.99073
551.28        61.87554
551.72        61.73262
552.15        61.52181
552.59        61.28445
553.03        61.24128
553.46        61.00405
553.90        61.01563
554.34        61.12881
554.77        61.25975
555.21         61.3847
555.65         61.5256
556.08        61.65222
556.52        61.73368
556.96         61.7501
557.39        61.70448
557.83          61.621
558.27        61.49126
558.70        61.33914
559.14        61.22314
559.57        61.16325
560.01        61.17125
560.45         61.2393
560.88        61.39299
561.32        61.56524
561.75         61.5709
562.19        61.47422
562.63        61.20791
563.06        60.92057
563.50        61.33448
563.93         62.1909
564.37        62.12817
564.80        61.28162
565.24         61.1302
565.68        61.60063
566.11        61.67451
566.55        61.36616
566.98          61.109
567.42        60.99211
567.85        61.26258
568.29        61.44607
568.72        61.55466
569.16        61.52742
569.60        61.60653
570.03        61.76027
570.47        61.90715
570.90        62.04342
571.34        61.75364
571.77        62.57603
572.21        62.00489
572.64        62.18325
573.08         61.9095
573.51        62.15892
573.95        61.94906
574.38        61.74671
574.82        61.15325
