SpectraSmart Spectrum 2.9.0.0
--------- Device Information -----------
Spectrum Name :  反射率_0
Saving Time :  2024/05/03 20:18:30
Spectro-Module Model Name : SE2030-DUVN
Spectro-Module Serial Number : OS361AC55029948
Wavelength Start : 200
Wavelength End : 1025
Wavelength Unit : Wavelength(nm)
Spectrum Unit : Reflectance(%)
-----------Spectrum Setting ------------
Integration Time : 20ms
Average : 10
Boxcar : 0
Background removal :  enabled
linearity correction :  enabled
SC :  disabled
Intensity correction :  disabled
DWT denoise :  enabled
savitzky-golay :  disabled
FFT :  disabled
Running average :  disabled
Kalman :  disabled
High pass :  disabled
---------------BEGIN--------------------
Wavelength(nm)             Reflectance(%)
200.29               0
200.75        11.48421
201.21        26.15135
201.67       -652.8583
202.13       -7.110131
202.58         9.60392
203.04        20.99621
203.50        30.52559
203.96        39.32153
204.42        51.47008
204.88        87.17336
205.34       -1175.256
205.80       -102.8086
206.26       -143.6553
206.72       -45239.98
207.18        195.6568
207.64        131.7807
208.10        118.1553
208.55        128.9753
209.01        251.9761
209.47        136.6935
209.93        56.78703
210.39         54.7479
210.85        56.65972
211.31        60.68649
211.77        68.07034
212.23        86.60774
212.69        128.7035
213.14        133.7275
213.60        56.16122
214.06        16.60708
214.52        3.923939
214.98        2.257191
215.44        8.564407
215.90        41.84409
216.36       -455.1571
216.81       -111.4329
217.27       -116.8376
217.73       -190.8963
218.19       -645.0664
218.65       -12738.86
219.11       -967.6416
219.57       -279.3967
220.02       -175.6499
220.48       -300.4029
220.94        325.9629
221.40        95.50336
221.86        60.67686
222.32        49.14182
222.77        43.88883
223.23        41.12593
223.69        39.61379
224.15        38.67963
224.61        38.59272
225.06        38.95646
225.52        40.64082
225.98        44.55239
226.44        51.01882
226.90        60.25739
227.36        70.14643
227.81        72.97377
228.27        65.63618
228.73        53.54659
229.19        42.21806
229.65         35.3787
230.10         32.4397
230.56         31.7687
231.02         32.3621
231.48         33.4408
231.93        34.67609
232.39        36.34081
232.85        37.96367
233.31        38.87244
233.77        38.98308
234.22        38.29107
234.68        37.56291
235.14        38.16199
235.60         40.4426
236.05        44.30036
236.51        48.36493
236.97        49.84138
237.43        47.94731
237.88        43.87473
238.34        39.83502
238.80        38.32166
239.26        40.19029
239.71        48.37555
240.17        61.63329
240.63        78.57488
241.08        88.19451
241.54        84.95692
242.00        76.83126
242.46        76.80546
242.91        89.22198
243.37         117.087
243.83         166.148
244.28        213.0278
244.74        203.0238
245.20         143.099
245.66        78.37341
246.11        43.92847
246.57        36.88578
247.03        43.29976
247.48        53.73333
247.94        59.65555
248.40        59.92009
248.85        58.07434
249.31        54.34286
249.77        48.86036
250.22        43.85508
250.68        39.71633
251.14        38.28136
251.59        42.02808
252.05         52.0337
252.51        70.50636
252.96        98.45044
253.42         123.867
253.88        131.4102
254.33        122.7137
254.79        107.1395
255.25        93.30069
255.70        83.67931
256.16        77.56055
256.62        74.10356
257.07        72.86223
257.53         73.3243
257.99        74.37379
258.44        74.86024
258.90        74.16346
259.35        71.97744
259.81        69.45314
260.27        66.78387
260.72        64.22492
261.18        62.27422
261.63        60.53483
262.09        59.23597
262.55        58.17189
263.00        57.16502
263.46        56.27722
263.91        55.39489
264.37        54.69879
264.83        54.10508
265.28        53.52671
265.74        52.86158
266.19        51.70376
266.65        50.17122
267.11        48.34817
267.56        46.51966
268.02        45.17078
268.47        44.31994
268.93         43.8575
269.38        43.51101
269.84        42.83704
270.30        41.78145
270.75        40.50692
271.21        39.35738
271.66        38.70951
272.12        38.60788
272.57        38.83171
273.03        39.08436
273.48        38.92946
273.94        38.27569
274.39        37.29554
274.85        36.16386
275.31        35.02543
275.76        33.95861
276.22        32.98347
276.67        32.17654
277.13        31.76225
277.58        31.65168
278.04        31.78814
278.49        31.88995
278.95        31.57778
279.40        30.77514
279.86        29.73389
280.31         28.6369
280.77        27.82901
281.22        27.29751
281.68        26.97589
282.13        26.77003
282.59        26.62042
283.04        26.47051
283.50        26.36312
283.95        26.25887
284.41         26.1241
284.86        25.94196
285.32        25.75262
285.77        25.56131
286.22        25.44492
286.68        25.42802
287.13          25.453
287.59        25.54479
288.04        25.68947
288.50        25.88877
288.95        26.11162
289.41        26.30899
289.86        26.35298
290.32        26.25977
290.77        26.07164
291.22        25.90111
291.68        25.89611
292.13        26.09871
292.59        26.51609
293.04        27.11586
293.50        27.84496
293.95         28.6634
294.40        29.57352
294.86         30.6197
295.31        31.87675
295.77        33.35703
296.22          35.016
296.68        36.72292
297.13        38.24772
297.58         39.5065
298.04         40.5837
298.49        41.57875
298.95        42.71957
299.40        44.05592
299.85        45.53764
300.31        47.17384
300.76        48.92942
301.21        50.78794
301.67        52.77659
302.12        54.75908
302.58        56.54956
303.03        58.08249
303.48        59.41481
303.94        60.76473
304.39        62.38649
304.84        64.36848
305.30        66.61304
305.75        68.90058
306.20        70.92599
306.66        72.62433
307.11        74.05733
307.57        75.37037
308.02         76.6517
308.47        77.99614
308.93         79.3609
309.38        80.75697
309.83        82.30369
310.29          83.992
310.74        85.76507
311.19        87.45301
311.65        88.75909
312.10        89.59266
312.55        90.03582
313.00        90.27341
313.46        90.61561
313.91         91.1328
314.36        91.79933
314.82        92.51949
315.27        93.10233
315.72        93.52585
316.18        93.85767
316.63        94.24475
317.08        94.92769
317.53        95.93761
317.99        97.16502
318.44        98.39323
318.89        99.21175
319.35        99.51485
319.80          99.424
320.25         99.1738
320.70        99.16656
321.16        99.49535
321.61          100.06
322.06        100.6874
322.51        101.0928
322.97        101.1869
323.42        101.1099
323.87        100.9486
324.32        100.8458
324.78        100.8531
325.23        100.9605
325.68        101.1716
326.13        101.5173
326.59         101.959
327.04        102.5369
327.49        103.1702
327.94        103.7572
328.39        104.2462
328.85         104.595
329.30        104.8632
329.75        105.0241
330.20         105.093
330.66         105.063
331.11        105.0093
331.56        104.9311
332.01        104.8707
332.46        104.8586
332.92        104.9441
333.37        105.3183
333.82        105.9607
334.27        106.8133
334.72        107.7587
335.17        108.5969
335.63        109.2089
336.08        109.6748
336.53        109.9592
336.98         110.083
337.43        110.0853
337.88        109.9804
338.34        109.8541
338.79        109.8716
339.24        110.0804
339.69         110.481
340.14        111.0285
340.59        111.6247
341.05        112.2224
341.50        112.8317
341.95         113.466
342.40        114.1693
342.85        114.9269
343.30        115.6939
343.75         116.361
344.20         116.771
344.66        116.9227
345.11         116.866
345.56        116.7513
346.01        116.8002
346.46        117.0774
346.91        117.5228
347.36        118.0683
347.81        118.5975
348.26        119.0615
348.72        119.4961
349.17        119.8686
349.62         120.155
350.07        120.3486
350.52        120.4325
350.97         120.441
351.42        120.4481
351.87        120.4601
352.32        120.4474
352.77        120.3629
353.22        120.1287
353.67        119.7421
354.13        119.2838
354.58        118.7516
355.03        118.2093
355.48        117.6996
355.93        117.2321
356.38        116.8639
356.83        116.6807
357.28        116.6752
357.73        116.7878
358.18        116.9304
358.63        116.9626
359.08        116.8238
359.53        116.5371
359.98        116.0722
360.43        115.4027
360.88         114.545
361.33        113.5072
361.78        112.4211
362.23        111.4808
362.68        110.7355
363.13         110.172
363.58        109.6314
364.03        108.8513
364.48        107.7937
364.93        106.5375
365.38        105.3389
365.83        104.5827
366.28        104.3285
366.73        104.4516
367.18        104.6119
367.63        104.2683
368.08        103.3009
368.53        101.8754
368.98        100.3677
369.43        99.34459
369.88        98.93253
370.33        98.97315
370.78        99.11934
371.23        98.79328
371.68        97.85616
372.13        96.50357
372.58        95.11726
373.03        94.26266
373.48        94.05163
373.93         94.2865
374.38        94.60536
374.83        94.42628
375.28        93.60045
375.72        92.30345
376.17        90.92135
376.62        89.86892
377.07        89.24381
377.52        88.90307
377.97          88.654
378.42        88.20726
378.87        87.50365
379.32        86.66837
379.77        85.86504
380.22        85.29608
380.67        84.98859
381.11        84.87859
381.56        84.78922
382.01        84.51284
382.46        84.00407
382.91        83.34402
383.36        82.68113
383.81        82.22072
384.26        81.99782
384.71        81.94427
385.15        81.92045
385.60        81.73862
386.05        81.34318
386.50        80.79384
386.95        80.21884
387.40        79.80836
387.85        79.59809
388.29        79.48879
388.74        79.41972
389.19        79.12484
389.64        78.56849
390.09        77.83905
390.54        77.11236
390.98        76.59173
391.43        76.35636
391.88        76.45024
392.33        76.71465
392.78        76.45731
393.23        75.81721
393.67        75.87642
394.12        76.50304
394.57        76.04719
395.02        75.09303
395.47         74.6305
395.91         74.8466
396.36        74.81384
396.81        74.55437
397.26        74.60583
397.71        74.77881
398.15        74.64007
398.60        74.26642
399.05        73.43233
399.50        72.47884
399.95        72.58373
400.39        73.50277
400.84         73.3652
401.29        72.25675
401.74        71.81288
402.18        72.09254
402.63        72.16589
403.08        72.05042
403.53        71.63315
403.97        71.92017
404.42        71.92381
404.87        71.92726
405.32         71.8721
405.76        71.73859
406.21        71.66128
406.66         71.5707
407.11        71.20856
407.55        70.70937
408.00        70.44527
408.45        70.43998
408.90        70.58344
409.34        70.68428
409.79        70.24921
410.24        69.49209
410.68        69.24011
411.13        69.55116
411.58        69.96362
412.03        70.27142
412.47        70.34616
412.92        70.09147
413.37        69.56374
413.81        68.98239
414.26        68.74567
414.71         68.8856
415.15        69.34142
415.60        69.83417
416.05         69.9584
416.49        69.61009
416.94        68.95153
417.39         68.2712
417.83        67.97577
418.28        68.15659
418.73        68.66313
419.17        69.29608
419.62        69.66874
420.07          69.667
420.51        69.39169
420.96        68.99543
421.41        68.61829
421.85        68.29613
422.30         68.0857
422.74        67.92051
423.19        67.77576
423.64        67.65003
424.08        67.70933
424.53        67.91837
424.98        68.16396
425.42        68.42711
425.87        68.74889
426.31        69.10105
426.76        69.26971
427.21        69.30354
427.65        69.49083
428.10        69.71609
428.54        69.70203
428.99        69.50854
429.44        69.04153
429.88        68.48244
430.33        68.72285
430.77        69.41319
431.22         69.2829
431.66        68.44383
432.11        68.19172
432.56        68.54758
433.00        68.96201
433.45        69.28053
433.89        69.81426
434.34        67.38488
434.78        70.28979
435.23         69.7487
435.67        68.38824
436.12        67.89613
436.57        67.88362
437.01        69.23191
437.46        69.78901
437.90        69.54221
438.35        69.21799
438.79        69.57499
439.24        69.48627
439.68        69.16983
440.13         69.0963
440.57        69.27438
441.02        68.98942
441.46         68.3892
441.91        68.95943
442.35        70.19052
442.80        69.96587
443.24        68.60181
443.69        68.67876
444.13        70.02178
444.58        70.42607
445.02        69.80083
445.47        69.35713
445.91        69.27708
446.36        69.24825
446.80        69.26274
447.24        69.66895
447.69        70.36742
448.13          69.926
448.58        70.17321
449.02        69.99789
449.47        70.00798
449.91        69.97952
450.36        69.96142
450.80        70.03383
451.25        70.14465
451.69         70.1519
452.13        70.04023
452.58        69.86815
453.02        69.66402
453.47        69.49709
453.91        69.37612
454.36        69.28851
454.80        69.23017
455.24        69.16697
455.69        69.10035
456.13         69.0895
456.58        69.16649
457.02        68.88763
457.46        69.03661
457.91        68.77876
458.35        68.39567
458.79        68.34068
459.24        68.54025
459.68        68.36736
460.13        67.89468
460.57        67.63218
461.01        67.64643
461.46        67.45975
461.90        67.15855
462.34        67.31065
462.79         66.9132
463.23        66.79012
463.68        66.67001
464.12        66.66882
464.56         66.7305
465.01        66.81086
465.45        66.87283
465.89        66.78856
466.34        66.56092
466.78        66.66782
467.22        67.25119
467.67        66.12567
468.11        66.82596
468.55        66.67179
468.99        66.68213
469.44        66.59956
469.88        66.44541
470.32        66.26259
470.77        66.05788
471.21        65.93314
471.65        65.88105
472.10        65.87714
472.54         65.8851
472.98        65.82758
473.42        65.68065
473.87        65.62606
474.31        65.58957
474.75        65.18962
475.20        64.57661
475.64        64.53715
476.08        65.05024
476.52        65.09317
476.97        64.52318
477.41        65.24467
477.85        65.01297
478.29        64.88925
478.74        64.85486
479.18        65.42399
479.62        65.16351
480.06          65.172
480.50        64.88868
480.95        64.94744
481.39        65.45662
481.83        64.12445
482.27        64.30281
482.72        65.10725
483.16        64.43978
483.60          64.524
484.04         64.8465
484.48        64.63615
484.93        64.02316
485.37        65.11453
485.81        66.05867
486.25        65.29488
486.69        67.42334
487.14        67.05585
487.58        64.14748
488.02        64.24429
488.46        65.63135
488.90        64.15129
489.34        64.83884
489.79        64.77544
490.23        64.94108
490.67        65.08463
491.11        65.01234
491.55        64.80444
491.99        64.47851
492.43        64.26595
492.88        64.20235
493.32        64.24116
493.76        64.33921
494.20         64.4052
494.64         64.4004
495.08        64.47258
495.52         64.6087
495.96        64.43095
496.41        64.07072
496.85        64.35516
497.29        65.09152
497.73        65.09055
498.17        64.43227
498.61        64.24844
499.05        64.57386
499.49        64.65652
499.93        64.43655
500.37          64.255
500.82        64.18041
501.26        63.80869
501.70        63.98365
502.14        63.97465
502.58        64.00404
503.02        64.04396
503.46        64.08478
503.90        64.11916
504.34        64.12444
504.78        64.09076
505.22        64.01933
505.66        63.90086
506.10        63.73991
506.54        63.68163
506.98        63.76381
507.42        63.71111
507.86        63.42918
508.30        64.09679
508.74        63.53442
509.18        63.50556
509.62        63.41745
510.06        63.41356
510.50        63.49308
510.94         63.6442
511.38        63.81017
511.82        63.84016
512.26         63.7136
512.70        63.47822
513.14        63.20789
513.58        63.03027
514.02        62.97808
514.46        62.95949
514.90        63.03088
515.34        63.07858
515.78        63.10897
516.22        63.14977
516.66        63.16976
517.10        63.11365
517.54        62.98301
517.98        62.78749
518.42        62.62376
518.86        62.65161
519.30        62.89029
519.74        63.28307
520.18        63.68961
520.62        63.87795
521.06        63.79293
521.50         63.5121
521.93        63.14841
522.37        62.89992
522.81        62.81945
523.25        62.84582
523.69        62.93924
524.13        63.03529
524.57        63.10706
525.01        63.18703
525.45        63.24959
525.89        63.24756
526.32        63.17307
526.76        63.03568
527.20        62.90008
527.64         62.8812
528.08        62.99864
528.52        63.22246
528.96         63.4525
529.40        63.52887
529.83        63.40736
530.27        63.14602
530.71        62.85715
531.15        62.72313
531.59        62.78305
532.03         62.9906
532.46        63.21255
532.90        63.23682
533.34        63.03279
533.78        62.69028
534.22        62.36481
534.66        62.28256
535.09        62.46941
535.53        62.83829
535.97        63.26272
536.41        63.50031
536.85        63.47489
537.28        63.41462
537.72        63.32251
538.16        62.85029
538.60        62.22113
539.04        62.20861
539.47        62.70007
539.91        62.87979
540.35        62.69524
540.79        62.63142
541.22        62.68859
541.66        62.69016
542.10        62.64262
542.54        62.50198
542.97        62.32829
543.41        62.45853
543.85         62.7944
544.29        62.84113
544.72        62.60477
545.16        62.52812
545.60        62.60656
546.04        62.60112
546.47        62.50433
546.91        62.42405
547.35         62.3678
547.79        62.33974
548.22        62.34424
548.66        62.37469
549.10        62.44403
549.53        62.69311
549.97        63.03635
550.41        63.20033
550.84        63.14198
551.28        63.00243
551.72        62.82126
552.15        62.61433
552.59        62.44451
553.03        62.28817
553.46        62.16589
553.90        62.18525
554.34        62.31518
554.77        62.46589
555.21        62.60906
555.65        62.73733
556.08        62.81841
556.52         62.8734
556.96        62.89331
557.39        62.82962
557.83        62.75529
558.27        62.78509
558.70        62.88541
559.14        62.98046
559.57        62.98512
560.01        62.76459
560.45        62.42724
560.88        62.30941
561.32        62.43895
561.75        62.61858
562.19        62.80454
562.63        62.71117
563.06        62.40956
563.50        62.63002
563.93        63.21173
564.37        63.01317
564.80        62.21727
565.24        62.21515
565.68        62.85925
566.11        63.03477
566.55         62.7304
566.98        62.38617
567.42        62.14137
567.85        62.43046
568.29         62.7493
568.72        62.84034
569.16        62.65214
569.60        62.84264
570.03        62.88535
570.47        63.11463
570.90        63.40293
571.34        62.83373
571.77        63.76434
572.21         63.2824
572.64        63.33427
573.08        63.09177
573.51        63.43327
573.95        63.33963
574.38        63.23891
574.82        62.50301
