SpectraSmart Spectrum 2.9.0.0
--------- Device Information -----------
Spectrum Name :  反射率_0
Saving Time :  2024/05/03 20:26:27
Spectro-Module Model Name : SE2030-DUVN
Spectro-Module Serial Number : OS361AC55029948
Wavelength Start : 200
Wavelength End : 1025
Wavelength Unit : Wavelength(nm)
Spectrum Unit : Reflectance(%)
-----------Spectrum Setting ------------
Integration Time : 20ms
Average : 10
Boxcar : 0
Background removal :  enabled
linearity correction :  enabled
SC :  disabled
Intensity correction :  disabled
DWT denoise :  enabled
savitzky-golay :  disabled
FFT :  disabled
Running average :  disabled
Kalman :  disabled
High pass :  disabled
---------------BEGIN--------------------
Wavelength(nm)             Reflectance(%)
200.29               0
200.75       -2.447071
201.21       -2.211163
201.67          181.78
202.13        19.16482
202.58        22.59286
203.04        27.97734
203.50        34.28563
203.96        42.65536
204.42        57.74054
204.88        109.6406
205.34        -1693.06
205.80       -134.5262
206.26       -130.1142
206.72       -26504.29
207.18        85.02594
207.64        55.52763
208.10        63.61107
208.55        123.2618
209.01        759.5009
209.47        1173.937
209.93        204.4013
210.39        102.1657
210.85        73.96746
211.31        65.93207
211.77        66.47598
212.23        75.34929
212.69        101.6361
213.14        119.7087
213.60        82.05018
214.06        59.41394
214.52        51.72596
214.98        51.37213
215.44        57.72516
215.90        87.08384
216.36        -347.416
216.81       -50.95413
217.27       -60.12689
217.73       -135.6699
218.19       -592.9467
218.65       -12791.93
219.11       -921.1353
219.57       -229.5637
220.02       -117.6293
220.48       -188.7875
220.94        235.3199
221.40        82.49979
221.86        60.83986
222.32        55.55956
222.77        55.79023
223.23        60.46976
223.69        68.81978
224.15         72.2096
224.61        65.57879
225.06        55.68872
225.52        49.12366
225.98        47.63377
226.44        50.18765
226.90        55.97956
227.36        63.19318
227.81        65.66106
228.27        60.68642
228.73        52.27071
229.19        44.47361
229.65        40.04585
230.10        38.44211
230.56        38.49233
231.02         39.1133
231.48        39.45259
231.93        39.37183
232.39        39.25389
232.85        39.24941
233.31        39.59966
233.77        40.33733
234.22        41.28329
234.68        42.34371
235.14        43.36311
235.60        44.29036
236.05        45.29868
236.51        46.20095
236.97        46.76431
237.43        46.91568
237.88        46.81777
238.34        46.95855
238.80         47.9959
239.26         50.4136
239.71        56.89068
240.17        66.10472
240.63        77.88837
241.08         84.9793
241.54        83.16708
242.00        77.77807
242.46        77.81377
242.91        86.37038
243.37        105.1281
243.83        139.1187
244.28        176.1137
244.74          179.83
245.20         151.285
245.66        112.3807
246.11         82.0358
246.57         62.7739
247.03        49.26675
247.48        41.68141
247.94        39.95388
248.40         42.8109
248.85        49.96696
249.31        58.91239
249.77        62.22163
250.22        58.76581
250.68        52.69543
251.14        48.00117
251.59        48.35852
252.05        54.60894
252.51        67.31206
252.96        87.57852
253.42        107.9383
253.88        117.0279
254.33        114.7485
254.79        105.4286
255.25        93.87397
255.70        83.72662
256.16        76.25436
256.62        71.59348
257.07        69.83862
257.53        70.29756
257.99        71.52477
258.44        72.16811
258.90        71.39446
259.35        68.94814
259.81        66.12007
260.27        63.21244
260.72        60.57632
261.18        58.66621
261.63          57.025
262.09        55.82391
262.55        54.83751
263.00        53.88078
263.46         53.0168
263.91         52.1279
264.37         51.3637
264.83        50.66354
265.28        49.98286
265.74        49.23805
266.19        48.06369
266.65         46.5805
267.11        44.85559
267.56        43.20071
268.02        42.13888
268.47        41.67647
268.93        41.67232
269.38        41.75837
269.84        41.32193
270.30        40.26641
270.75        38.81527
271.21        37.39943
271.66        36.52618
272.12        36.28083
272.57        36.41224
273.03        36.63201
273.48        36.51267
273.94        35.95137
274.39         35.1236
274.85        34.14979
275.31         33.0951
275.76        32.02998
276.22        30.99589
276.67        30.12648
277.13        29.71797
277.58        29.69808
278.04        29.98729
278.49        30.26403
278.95        30.07736
279.40        29.33117
279.86        28.29398
280.31        27.19344
280.77        26.42823
281.22        25.99142
281.68        25.79046
282.13        25.68751
282.59        25.55469
283.04        25.33042
283.50        25.09114
283.95        24.84691
284.41        24.62946
284.86        24.43979
285.32         24.2951
285.77         24.1804
286.22         24.1396
286.68        24.18248
287.13        24.25941
287.59        24.39539
288.04        24.57819
288.50        24.81113
288.95        25.06505
289.41        25.28475
289.86        25.33695
290.32          25.238
290.77        25.02973
291.22        24.84576
291.68        24.86646
292.13        25.13206
292.59        25.63311
293.04        26.29449
293.50        26.99406
293.95        27.68201
294.40        28.39335
294.86        29.21698
295.31        30.29001
295.77        31.64757
296.22        33.23736
296.68        34.92807
297.13        36.48405
297.58        37.81612
298.04        39.00705
298.49        40.15153
298.95        41.46743
299.40        42.99702
299.85        44.68302
300.31        46.51398
300.76        48.42847
301.21        50.40438
301.67        52.47254
302.12        54.51773
302.58        56.39046
303.03        58.02523
303.48        59.45663
303.94        60.88059
304.39        62.51878
304.84        64.45529
305.30        66.61408
305.75        68.77301
306.20        70.62504
306.66        72.11547
307.11        73.30583
307.57        74.39377
308.02        75.54299
308.47        76.85384
308.93        78.26698
309.38        79.70246
309.83        81.13581
310.29        82.53643
310.74        83.89016
311.19        85.15229
311.65        86.22936
312.10        87.07093
312.55        87.68955
313.00        88.12928
313.46        88.48373
313.91         88.7745
314.36        89.04457
314.82        89.31423
315.27        89.57525
315.72        89.85672
316.18        90.17462
316.63        90.59003
317.08        91.20697
317.53        92.02527
317.99        92.98508
318.44        93.95505
318.89        94.66389
319.35        95.03416
319.80        95.12783
320.25        95.08941
320.70        95.18256
321.16        95.46483
321.61        95.88598
322.06        96.31944
322.51        96.55848
322.97        96.54736
323.42        96.39478
323.87        96.20625
324.32        96.15627
324.78        96.28752
325.23        96.57869
325.68        96.95724
326.13        97.32241
326.59        97.60775
327.04        97.88783
327.49        98.16794
327.94          98.494
328.39        98.86958
328.85        99.22962
329.30        99.58839
329.75        99.84055
330.20        99.97111
330.66        99.99178
331.11        100.0055
331.56        100.0631
332.01        100.2045
332.46        100.4216
332.92        100.6943
333.37        101.1033
333.82        101.6066
334.27        102.1922
334.72        102.8092
335.17        103.3707
335.63         103.812
336.08         104.192
336.53        104.4918
336.98        104.7466
337.43        104.9773
337.88        105.1841
338.34        105.3799
338.79        105.6077
339.24        105.8815
339.69        106.2272
340.14        106.6469
340.59        107.1311
341.05         107.669
341.50        108.2534
341.95        108.9006
342.40        109.6558
342.85        110.4985
343.30        111.3868
343.75        112.1952
344.20         112.733
344.66        112.9854
345.11         113.005
345.56        112.9389
346.01        113.0096
346.46        113.2886
346.91        113.7199
347.36        114.2557
347.81        114.8111
348.26        115.3442
348.72        115.8809
349.17        116.3772
349.62        116.7869
350.07        117.0948
350.52         117.293
350.97        117.4078
351.42        117.5001
351.87        117.5805
352.32         117.626
352.77        117.6161
353.22        117.5185
353.67        117.3318
354.13        117.1092
354.58         116.819
355.03        116.4796
355.48        116.1156
355.93        115.7489
356.38        115.4271
356.83         115.222
357.28        115.1375
357.73        115.1285
358.18        115.1542
358.63        115.1489
359.08        115.0726
359.53        114.9312
359.98        114.6622
360.43        114.1828
360.88        113.4877
361.33        112.5955
361.78        111.6399
362.23        110.8231
362.68        110.1952
363.13         109.734
363.58         109.283
364.03        108.5863
364.48        107.6109
364.93        106.4454
365.38        105.3378
365.83        104.6597
366.28         104.468
366.73        104.6306
367.18        104.8418
367.63        104.6166
368.08        103.8331
368.53         102.636
368.98        101.3146
369.43        100.3009
369.88        99.70669
370.33         99.4257
370.78        99.22427
371.23        98.72179
371.68        97.83455
372.13        96.69063
372.58          95.593
373.03        94.98231
373.48        94.92483
373.93        95.26353
374.38        95.61781
374.83        95.37645
375.28        94.40247
375.72        92.87727
376.17        91.27744
376.62        90.15339
377.07        89.62651
377.52         89.5271
377.97        89.56118
378.42        89.26346
378.87        88.53373
379.32        87.54759
379.77        86.58196
380.22        86.00729
380.67        85.87772
381.11        86.07161
381.56        86.29661
382.01        86.14734
382.46        85.53299
382.91        84.61577
383.36        83.65838
383.81         83.0318
384.26        82.81026
384.71        82.86159
385.15        83.00259
385.60        82.97542
386.05        82.69021
386.50        82.23572
386.95         81.7055
387.40        81.23325
387.85        80.86568
388.29        80.52621
388.74        80.24325
389.19        79.88512
389.64        79.42927
390.09         78.9083
390.54        78.42146
390.98        78.04485
391.43        77.83265
391.88        77.88143
392.33        78.03789
392.78        77.69351
393.23        77.02245
393.67        76.89594
394.12        77.25311
394.57        77.13838
395.02        76.55367
395.47        76.09458
395.91        75.85383
396.36        75.63195
396.81        75.47387
397.26         75.4731
397.71        75.51428
398.15        75.40149
398.60        75.20515
399.05        74.78334
399.50        74.27527
399.95        74.26756
400.39        74.65774
400.84        74.36018
401.29        73.52012
401.74        73.39883
402.18        73.90383
402.63        73.81063
403.08        73.25574
403.53        72.74641
403.97        73.33736
404.42        73.61494
404.87        73.76988
405.32        73.76449
405.76        73.55243
406.21        73.34371
406.66        73.11014
407.11        72.50603
407.55        71.77271
408.00        71.60964
408.45        71.99478
408.90        72.43032
409.34        72.62907
409.79        72.20121
410.24        71.36663
410.68        70.97639
411.13        71.10342
411.58        71.23907
412.03        71.23618
412.47        71.12574
412.92        70.85271
413.37        70.42517
413.81        70.01118
414.26        69.93626
414.71        70.20707
415.15        70.78466
415.60        71.37353
416.05        71.53866
416.49        71.17174
416.94        70.43593
417.39        69.66386
417.83        69.33385
418.28        69.55142
418.73        70.15047
419.17        70.88982
419.62        71.30369
420.07        71.25692
420.51        70.87995
420.96        70.36782
421.41        69.90826
421.85        69.55148
422.30        69.37077
422.74        69.26993
423.19        69.11623
423.64        68.92688
424.08        69.03128
424.53        69.38401
424.98        69.68298
425.42        69.88799
425.87        70.20999
426.31        70.60351
426.76        70.61642
427.21        70.37295
427.65        70.56801
428.10        71.05704
428.54        71.15565
428.99        70.89783
429.44        70.45034
429.88        70.01463
430.33        70.26173
430.77        70.88001
431.22        70.98766
431.66        70.57202
432.11        70.17271
432.56        69.90353
433.00        70.20618
433.45         70.8561
433.89        71.23335
434.34        68.36246
434.78        70.65365
435.23        71.05874
435.67        70.23048
436.12        69.72046
436.57        69.61156
437.01        70.70058
437.46        71.19738
437.90        71.14506
438.35        70.55099
438.79         71.0417
439.24        70.90605
439.68        70.60283
440.13        70.33997
440.57        70.23959
441.02        70.04931
441.46        69.79593
441.91        70.47973
442.35         71.5689
442.80        71.06439
443.24        69.42217
443.69        69.62814
444.13        71.41534
444.58         71.9872
445.02        71.21622
445.47        70.65805
445.91        70.54253
446.36        70.55614
446.80         70.7162
447.24        71.22337
447.69        71.84033
448.13        71.86774
448.58        71.45564
449.02        71.20081
449.47        71.21848
449.91        71.11271
450.36        70.93403
450.80        70.91726
451.25        71.04109
451.69        71.09135
452.13        71.05294
452.58        71.00851
453.02        70.93784
453.47        70.83955
453.91        70.70007
454.36        70.50476
454.80        70.31869
455.24        70.28181
455.69        70.35384
456.13        70.70045
456.58        70.41074
457.02        70.58112
457.46        70.18306
457.91         70.1266
458.35        70.10401
458.79        70.13397
459.24        70.12608
459.68        69.72536
460.13        69.10979
460.57        68.83047
461.01        68.98463
461.46        69.05231
461.90        68.84937
462.34         69.4454
462.79        68.76791
463.23        68.57929
463.68        68.36277
464.12        68.36417
464.56        68.50557
465.01         68.5436
465.45        68.47399
465.89        68.44964
466.34        68.44981
466.78        68.63161
467.22        69.02916
467.67         68.1981
468.11        68.18649
468.55        68.08833
468.99         68.4035
469.44        68.39488
469.88        68.05777
470.32        67.77641
470.77        67.60806
471.21        67.53316
471.65        67.54398
472.10        67.62966
472.54        67.75459
472.98        67.82136
473.42        67.78744
473.87        67.89769
474.31        67.99913
474.75          67.454
475.20          66.528
475.64        66.31014
476.08        66.75546
476.52        66.87466
476.97        66.62934
477.41        66.63151
477.85        66.83172
478.29         67.0235
478.74        67.23911
479.18        67.29974
479.62        67.28072
480.06         67.2218
480.50        67.09084
480.95        67.07803
481.39        67.22337
481.83        66.58901
482.27        66.56363
482.72        67.04657
483.16        66.67985
483.60        66.80623
484.04        66.99417
484.48        66.72135
484.93        66.08203
485.37        67.20064
485.81         68.1177
486.25        67.63485
486.69        69.65202
487.14        69.51049
487.58        66.64749
488.02         66.5992
488.46        67.41666
488.90        65.93704
489.34        66.86591
489.79        67.14161
490.23        67.04443
490.67        67.05951
491.11        66.90611
491.55        66.83047
491.99        66.78915
492.43        66.67664
492.88        66.50623
493.32        66.44749
493.76        66.50822
494.20        66.53705
494.64        66.50139
495.08        66.64248
495.52        66.90114
495.96        66.63464
496.41        66.04384
496.85        66.39278
497.29        67.42693
497.73        67.48322
498.17        66.62029
498.61         66.2746
499.05        66.53117
499.49        66.54242
499.93        66.30733
500.37        66.28544
500.82         66.4147
501.26        66.36443
501.70        66.14763
502.14        66.01354
502.58        65.99747
503.02        65.99375
503.46        66.01191
503.90        66.12881
504.34        66.28366
504.78        66.34814
505.22        66.30311
505.66        66.12836
506.10         65.8757
506.54        65.87424
506.98        66.13187
507.42        66.10084
507.86         65.6809
508.30        66.34369
508.74        65.76318
509.18        65.70306
509.62        65.53934
510.06        65.50084
510.50        65.59318
510.94        65.78504
511.38        65.99674
511.82        66.04179
512.26         65.9034
512.70        65.60909
513.14        65.25135
513.58        65.10349
514.02        65.23134
514.46        65.04495
514.90        65.40254
515.34        65.48238
515.78        65.52314
516.22        65.54424
516.66        65.52946
517.10        65.43116
517.54        65.25139
517.98        65.00655
518.42        64.79898
518.86        64.79804
519.30        65.02749
519.74         65.4335
520.18        65.86901
520.62        66.08877
521.06        66.03101
521.50        65.76842
521.93         65.4223
522.37        65.20707
522.81        65.17336
523.25         65.2523
523.69         65.3744
524.13        65.43011
524.57        65.39011
525.01        65.30918
525.45        65.20975
525.89        65.11839
526.32         65.0509
526.76        65.00105
527.20        64.99909
527.64        65.11336
528.08        65.34389
528.52        65.63591
528.96        65.91302
529.40         66.1196
529.83        66.18017
530.27         65.9908
530.71        65.64817
531.15         65.4423
531.59        65.41624
532.03         65.4556
532.46        65.47896
532.90        65.39419
533.34        65.19257
533.78        64.93756
534.22        64.71947
534.66         64.6628
535.09        64.77419
535.53         64.9981
535.97        65.28313
536.41        65.50135
536.85        65.59957
537.28        65.78484
537.72        65.96957
538.16        65.60816
538.60        64.91574
539.04        64.82752
539.47        65.27827
539.91        65.42931
540.35        65.24863
540.79        65.25948
541.22        65.41869
541.66        65.45379
542.10        65.35508
542.54        65.10455
542.97        64.81432
543.41        64.91048
543.85        65.30151
544.29        65.43975
544.72        65.27781
545.16        65.20088
545.60        65.19695
546.04        65.05173
546.47        64.80254
546.91        64.66578
547.35        64.67757
547.79        64.70692
548.22        64.75591
548.66        65.05135
549.10        65.47395
549.53        65.63653
549.97        65.53279
550.41        65.50282
550.84        65.55356
551.28         65.4871
551.72        65.30196
552.15        65.08346
552.59        64.87281
553.03        64.69382
553.46         64.5524
553.90        64.50618
554.34        64.48722
554.77        64.84937
555.21        65.01953
555.65        64.89856
556.08        65.25256
556.52        65.30055
556.96        65.30627
557.39        65.27769
557.83        65.25557
558.27        65.13869
558.70        64.96177
559.14        64.97431
559.57        65.11327
560.01        65.06703
560.45        64.88493
560.88        64.89343
561.32        65.09487
561.75        65.26742
562.19        65.38811
562.63        65.24996
563.06        64.94211
563.50        65.11515
563.93        65.63547
564.37        65.52421
564.80        64.90525
565.24        64.92948
565.68        65.46332
566.11        65.58097
566.55        65.29266
566.98        64.98472
567.42        64.77518
567.85        65.04486
568.29        65.28622
568.72        65.36646
569.16        65.22983
569.60        65.44281
570.03        65.37211
570.47        65.64776
570.90        66.04972
571.34        65.36915
571.77        66.00633
572.21        66.32211
572.64        66.10125
573.08        65.74727
573.51         65.9502
573.95        65.94026
574.38         66.2465
574.82        65.34315
