SpectraSmart Spectrum 2.9.0.0
--------- Device Information -----------
Spectrum Name :  反射率_0
Saving Time :  2024/05/03 20:22:12
Spectro-Module Model Name : SE2030-DUVN
Spectro-Module Serial Number : OS361AC55029948
Wavelength Start : 200
Wavelength End : 1025
Wavelength Unit : Wavelength(nm)
Spectrum Unit : Reflectance(%)
-----------Spectrum Setting ------------
Integration Time : 20ms
Average : 10
Boxcar : 0
Background removal :  enabled
linearity correction :  enabled
SC :  disabled
Intensity correction :  disabled
DWT denoise :  enabled
savitzky-golay :  disabled
FFT :  disabled
Running average :  disabled
Kalman :  disabled
High pass :  disabled
---------------BEGIN--------------------
Wavelength(nm)             Reflectance(%)
200.29               0
200.75        19.11193
201.21        29.01079
201.67       -233.2074
202.13        24.03581
202.58        35.02385
203.04        45.04469
203.50        54.26716
203.96        63.20803
204.42        75.94701
204.88        113.9125
205.34       -1221.636
205.80       -84.62918
206.26       -121.1874
206.72       -43322.73
207.18        203.5589
207.64        139.3561
208.10        119.0107
208.55        106.6136
209.01       -14.59137
209.47       -326.4988
209.93       -12.91944
210.39        28.11627
210.85        42.72569
211.31        51.97001
211.77         62.7061
212.23        85.55124
212.69         138.743
213.14        162.1659
213.60        80.42079
214.06        32.13565
214.52        14.25608
214.98        9.115108
215.44        10.85474
215.90        29.27376
216.36       -268.1775
216.81       -65.31114
217.27       -72.55492
217.73       -129.6417
218.19       -477.7704
218.65       -9951.475
219.11       -777.4688
219.57        -230.051
220.02        -150.525
220.48       -278.5255
220.94        331.5856
221.40        104.3185
221.86        70.47957
222.32        61.94293
222.77        62.13831
223.23        68.80704
223.69        80.17372
224.15        82.61977
224.61        69.98722
225.06        54.01495
225.52        44.03707
225.98        42.30983
226.44        47.24606
226.90        57.82827
227.36        71.82323
227.81        79.82883
228.27        76.44216
228.73        66.93061
229.19        56.61459
229.65        49.38262
230.10        45.21204
230.56        42.86253
231.02        41.78707
231.48        41.78133
231.93        42.48278
232.39        43.91052
232.85        45.55305
233.31        46.68289
233.77        47.18378
234.22        47.20245
234.68        47.12994
235.14        47.66994
235.60        49.04191
236.05        51.14727
236.51        53.54316
236.97        55.38782
237.43        56.27767
237.88        56.58058
238.34        56.80768
238.80        57.68701
239.26        59.73209
239.71        65.05026
240.17        72.81657
240.63        84.31628
241.08        94.30087
241.54        97.80161
242.00        96.76817
242.46        97.60133
242.91        103.0649
243.37        113.3327
243.83        129.8143
244.28        142.3216
244.74        130.4044
245.20        100.7996
245.66         72.2105
246.11         55.7247
246.57         49.9633
247.03        50.29913
247.48        52.42773
247.94        51.96689
248.40        48.40582
248.85        42.72205
249.31        37.09644
249.77        35.90569
250.22        39.79395
250.68        46.12444
251.14        52.77697
251.59        59.50445
252.05        67.70814
252.51        79.04392
252.96        95.93475
253.42        116.1214
253.88        130.5288
254.33        134.6418
254.79        128.0854
255.25        113.4662
255.70        97.71372
256.16        85.34451
256.62        77.14336
257.07        73.37419
257.53        72.94391
257.99        73.74237
258.44        74.55013
258.90        74.74659
259.35        73.73452
259.81        72.56164
260.27         70.8364
260.72        68.19298
261.18         65.4024
261.63        62.46657
262.09        60.21056
262.55        59.03747
263.00         58.6908
263.46        58.89722
263.91        59.11609
264.37         58.9374
264.83        58.19848
265.28        57.09764
265.74         55.7871
266.19        54.15924
266.65        52.41697
267.11        50.52168
267.56        48.74563
268.02        47.58008
268.47        47.00827
268.93         46.9234
269.38        46.94631
269.84        46.43135
270.30        45.28265
270.75        43.72763
271.21        42.22184
271.66         41.3065
272.12        41.06718
272.57        41.22348
273.03        41.47149
273.48        41.35642
273.94        40.76923
274.39        39.90342
274.85        38.85814
275.31        37.65738
275.76        36.38368
276.22        35.10796
276.67        34.04205
277.13        33.60131
277.58        33.70943
278.04        34.24601
278.49        34.77789
278.95         34.6773
279.40         33.8095
279.86        32.52028
280.31        31.13511
280.77        30.19198
281.22        29.69422
281.68        29.50683
282.13         29.4309
282.59        29.25981
283.04        28.91425
283.50        28.51221
283.95        28.10094
284.41        27.76956
284.86        27.52664
285.32        27.36705
285.77         27.2509
286.22        27.19378
286.68        27.19469
287.13        27.20815
287.59        27.26563
288.04        27.35434
288.50         27.4846
288.95        27.63166
289.41        27.74187
289.86        27.68305
290.32        27.48174
290.77        27.18138
291.22        26.93958
291.68         26.9697
292.13        27.30642
292.59        27.92175
293.04        28.70144
293.50         29.4575
293.95        30.12741
294.40        30.77832
294.86         31.5202
295.31         32.5205
295.77        33.82866
296.22        35.37305
296.68         37.0593
297.13        38.71356
297.58        40.23709
298.04        41.68266
298.49        43.03804
298.95         44.3667
299.40        45.68921
299.85        47.00605
300.31        48.41654
300.76         50.0331
301.21        51.88053
301.67        53.93939
302.12        56.03611
302.58        57.92512
303.03        59.51864
303.48        60.90181
303.94        62.28564
304.39        63.90681
304.84        65.85682
305.30        68.03324
305.75        70.24993
306.20        72.26252
306.66        74.00873
307.11        75.52355
307.57         76.8991
308.02        78.13946
308.47        79.33057
308.93        80.46991
309.38        81.61265
309.83        82.94601
310.29        84.48495
310.74        86.15233
311.19        87.78483
311.65        89.09309
312.10        89.97968
312.55        90.52786
313.00        90.87448
313.46        91.25549
313.91         91.7244
314.36        92.26244
314.82        92.83745
315.27        93.36488
315.72        93.84101
316.18        94.30483
316.63        94.81084
317.08        95.45133
317.53        96.23367
317.99        97.10167
318.44        97.96044
318.89        98.59988
319.35         98.9646
319.80        99.11127
320.25        99.16422
320.70        99.34885
321.16        99.70824
321.61        100.1982
322.06        100.7027
322.51        101.0331
322.97        101.1321
323.42        101.0973
323.87        101.0019
324.32        100.9755
324.78        101.0528
325.23        101.2287
325.68         101.477
326.13        101.7734
326.59         102.074
327.04        102.4435
327.49        102.8405
327.94        103.2297
328.39        103.5934
328.85        103.8849
329.30        104.1772
329.75         104.459
330.20        104.7332
330.66        104.9714
331.11        105.2066
331.56        105.3712
332.01        105.4765
332.46        105.5595
332.92        105.6514
333.37        105.9248
333.82        106.3741
334.27        106.9604
334.72        107.6418
335.17        108.3461
335.63         108.989
336.08        109.6165
336.53         110.139
336.98        110.4754
337.43        110.6211
337.88        110.6155
338.34        110.5218
338.79        110.4749
339.24        110.5308
339.69        110.6961
340.14        111.0076
340.59        111.5052
341.05        112.1724
341.50        112.9878
341.95        113.8774
342.40        114.7347
342.85        115.5074
343.30        116.1984
343.75        116.7672
344.20        117.1686
344.66        117.4323
345.11        117.5639
345.56        117.6695
346.01        117.9104
346.46        118.3239
346.91        118.8587
347.36        119.4579
347.81        120.0202
348.26        120.5024
348.72        120.9416
349.17        121.2809
349.62        121.4604
350.07        121.4827
350.52        121.3586
350.97        121.1975
351.42         121.186
351.87        121.3478
352.32        121.6102
352.77        121.8448
353.22        121.8441
353.67        121.5611
354.13        121.1067
354.58        120.5115
355.03        119.8952
355.48        119.3268
355.93        118.8079
356.38        118.3931
356.83        118.1662
357.28        118.1234
357.73        118.2103
358.18        118.3666
358.63        118.4882
359.08         118.511
359.53        118.4378
359.98        118.1712
360.43         117.584
360.88        116.6728
361.33        115.4744
361.78         114.192
362.23         113.134
362.68        112.3789
363.13        111.8856
363.58        111.4418
364.03        110.6951
364.48        109.5906
364.93        108.2467
365.38         106.971
365.83        106.2253
366.28        106.0845
366.73        106.3866
367.18        106.7583
367.63         106.606
368.08        105.7831
368.53        104.4686
368.98        103.0232
369.43        101.9926
369.88        101.5077
370.33        101.4141
370.78        101.4134
371.23        101.0137
371.68        100.0991
372.13        98.84634
372.58        97.58229
373.03        96.78111
373.48        96.53337
373.93        96.66864
374.38        96.87027
374.83        96.63406
375.28        95.83087
375.72        94.60383
376.17        93.30363
376.62        92.29342
377.07        91.65729
377.52        91.27209
377.97        90.96022
378.42        90.45485
378.87        89.71037
379.32        88.84997
379.77        88.03915
380.22        87.48293
380.67        87.20918
381.11        87.15448
381.56         87.1427
382.01        86.96572
382.46        86.56637
382.91        86.01041
383.36        85.42734
383.81        85.00171
384.26        84.76059
384.71        84.63818
385.15        84.49869
385.60        84.16315
386.05        83.59238
386.50         82.8651
386.95        82.12489
387.40        81.57889
387.85        81.27557
388.29        81.11453
388.74        81.05078
389.19        80.83965
389.64        80.43056
390.09        79.88022
390.54        79.32473
390.98        78.90297
391.43        78.68479
391.88        78.74986
392.33        78.92199
392.78        78.53286
393.23        77.75563
393.67        77.56148
394.12        77.90733
394.57        77.69843
395.02        77.01661
395.47        76.80161
395.91        77.03684
396.36        77.00597
396.81        76.70872
397.26        76.51888
397.71        76.38886
398.15        76.15678
398.60        75.92318
399.05        75.44213
399.50        74.89127
399.95        75.05273
400.39        75.72826
400.84        75.52646
401.29        74.55325
401.74        74.10522
402.18        74.22855
402.63        74.15131
403.08        73.93466
403.53        73.45677
403.97        73.75705
404.42        73.81683
404.87        73.87491
405.32        73.79509
405.76        73.54488
406.21        73.29654
406.66        73.05207
407.11        72.62033
407.55        72.16821
408.00        72.15233
408.45        72.50738
408.90        72.76407
409.34        72.73174
409.79        72.28876
410.24        71.62296
410.68        71.26596
411.13        71.28317
411.58        71.37843
412.03        71.41899
412.47        71.33875
412.92        71.07578
413.37        70.66464
413.81        70.25897
414.26        70.16225
414.71        70.37672
415.15        70.86273
415.60        71.33845
416.05        71.40172
416.49        70.96092
416.94        70.18115
417.39        69.38143
417.83        69.01253
418.28        69.17886
418.73        69.72797
419.17        70.44594
419.62        70.91113
420.07        70.98197
420.51        70.75357
420.96        70.38853
421.41        69.99905
421.85        69.61914
422.30        69.44299
422.74        69.34816
423.19        68.95889
423.64         68.3962
424.08        68.45955
424.53        69.09598
424.98        69.53732
425.42        69.70127
425.87        70.12513
426.31        70.73145
426.76        70.75175
427.21        70.35634
427.65        70.58784
428.10        71.25288
428.54        71.35526
428.99        70.93018
429.44        70.24068
429.88        69.57346
430.33        69.85881
430.77        70.72182
431.22         70.8154
431.66        70.13686
432.11        69.79025
432.56        69.82381
433.00        69.86644
433.45        69.88968
433.89        70.38332
434.34        68.12818
434.78        70.90189
435.23        70.90369
435.67        69.02377
436.12        68.44588
436.57        68.44946
437.01        70.18803
437.46        70.96603
437.90        70.74355
438.35        70.23765
438.79        70.82298
439.24        70.67323
439.68        70.18237
440.13        69.91312
440.57        69.91802
441.02        69.37917
441.46        68.51356
441.91        69.19051
442.35        70.75831
442.80        70.41245
443.24        68.59177
443.69        68.72672
444.13        70.56823
444.58        71.14015
445.02         70.3195
445.47        69.71058
445.91        69.55089
446.36        69.55595
446.80        69.75074
447.24        70.27126
447.69        70.87165
448.13        70.99842
448.58        70.66119
449.02        70.30403
449.47        70.08005
449.91        69.88976
450.36        69.80705
450.80        69.91847
451.25        70.15365
451.69        70.28139
452.13        70.26051
452.58        70.16506
453.02        70.01602
453.47        69.87141
453.91        69.74378
454.36        69.61477
454.80        69.45437
455.24        69.31261
455.69        69.22068
456.13        69.02292
456.58        68.74353
457.02        69.01335
457.46        68.81129
457.91        68.85545
458.35        68.72979
458.79        68.77361
459.24        68.86404
459.68        68.45522
460.13        67.74483
460.57        67.40712
461.01        67.55359
461.46        67.52547
461.90        67.50777
462.34        67.78851
462.79         67.2133
463.23        66.82769
463.68        66.42637
464.12        66.43755
464.56        66.75305
465.01        66.88983
465.45        66.77014
465.89        66.67625
466.34        66.61602
466.78        66.54457
467.22         66.5675
467.67        66.07905
468.11        66.35842
468.55        66.32536
468.99        66.32437
469.44        66.29214
469.88        66.23442
470.32        66.15075
470.77        66.03495
471.21        65.93538
471.65        65.83755
472.10         65.7221
472.54        65.61808
472.98        65.53764
473.42        65.47634
473.87        65.61701
474.31        65.77444
474.75        65.36179
475.20        64.62739
475.64        64.25588
476.08        64.86562
476.52        64.91219
476.97           64.53
477.41        64.45382
477.85        64.74796
478.29        64.44334
478.74        64.49813
479.18         64.7879
479.62        64.73396
480.06        64.80247
480.50        64.69042
480.95        64.72448
481.39        64.91693
481.83        64.31422
482.27        64.37675
482.72        64.61888
483.16         64.3399
483.60        64.38762
484.04        64.54403
484.48        64.28093
484.93        63.65961
485.37        64.69869
485.81        65.80884
486.25        64.85882
486.69        67.87959
487.14        67.59606
487.58        64.33915
488.02        63.94435
488.46        65.37334
488.90        63.55296
489.34        64.17022
489.79        64.31973
490.23        64.61468
490.67        64.75631
491.11        64.46437
491.55        64.25365
491.99         64.1274
492.43        63.98123
492.88        63.84703
493.32        63.88078
493.76        64.02962
494.20        64.08681
494.64        64.01096
495.08        63.98263
495.52        64.04329
495.96        63.84378
496.41        63.48489
496.85        63.86023
497.29         64.8205
497.73        64.37061
498.17        64.07687
498.61        63.88297
499.05        64.24337
499.49        64.17296
499.93        63.72073
500.37          63.681
500.82        63.98157
501.26        63.87667
501.70        63.38497
502.14        63.51023
502.58        63.50793
503.02        63.58042
503.46        63.49597
503.90        63.47699
504.34         63.5034
504.78        63.47185
505.22        63.38752
505.66         63.2556
506.10        63.08705
506.54        63.04163
506.98        63.15704
507.42        63.13816
507.86        62.87663
508.30        63.56892
508.74        62.97752
509.18        62.91728
509.62        62.78522
510.06          62.736
510.50         62.7749
510.94        62.88865
511.38        63.03406
511.82        63.07932
512.26        63.00314
512.70         62.8495
513.14         62.6669
513.58        62.53067
514.02        62.46234
514.46        62.43065
514.90         62.4311
515.34         62.4566
515.78        62.49938
516.22        62.57479
516.66        62.63923
517.10        62.61937
517.54        62.51036
517.98        62.32962
518.42        62.16973
518.86        62.18219
519.30        62.38872
519.74         62.7351
520.18        63.09856
520.62        63.27801
521.06        63.22152
521.50        62.99185
521.93        62.68282
522.37        62.46137
522.81        62.37137
523.25        62.36537
523.69        62.40202
524.13        62.41435
524.57        62.38442
525.01        62.34948
525.45         62.3184
525.89        62.29789
526.32        62.28833
526.76        62.28188
527.20        62.29882
527.64        62.38275
528.08        62.53251
528.52        62.73362
528.96        62.91644
529.40        62.97194
529.83        62.87087
530.27        62.65775
530.71        62.41778
531.15         62.2934
531.59        62.31593
532.03        62.45084
532.46        62.60305
532.90        62.61932
533.34         62.4771
533.78        62.24447
534.22        62.02046
534.66        61.94777
535.09        62.03879
535.53        62.23571
535.97        62.47307
536.41        62.60348
536.85        62.57723
537.28        62.60702
537.72        62.64697
538.16        62.23573
538.60        61.59025
539.04        61.58118
539.47        62.10907
539.91        62.31622
540.35        62.15535
540.79        62.13871
541.22        62.25742
541.66        62.30513
542.10        62.28217
542.54        62.15092
542.97        61.97915
543.41        62.11596
543.85        62.46449
544.29        62.52467
544.72        62.29064
545.16        62.18877
545.60        62.21905
546.04        62.15328
546.47         62.0022
546.91        61.92619
547.35        61.93998
547.79        61.95596
548.22        61.97787
548.66         62.1547
549.10        62.41672
549.53         62.5617
549.97        62.55067
550.41        62.51263
550.84        62.44579
551.28        62.25516
551.72        61.99121
552.15        61.81528
552.59        61.76719
553.03        61.71633
553.46        61.65124
553.90        61.69307
554.34        61.80531
554.77        61.87162
555.21        61.89743
555.65        61.98108
556.08        62.10094
556.52        62.17274
556.96        62.18897
557.39        62.22272
557.83        62.29327
558.27        62.30891
558.70        62.26342
559.14        62.26947
559.57        62.27478
560.01        62.11872
560.45        61.87466
560.88        61.76699
561.32        61.82809
561.75        62.00578
562.19        62.25591
562.63        62.14915
563.06        61.79021
563.50        62.09206
563.93        62.86077
564.37          62.763
564.80        61.95995
565.24        61.92475
565.68        62.54843
566.11        62.73049
566.55        62.46659
566.98        62.23864
567.42        62.12096
567.85        62.32476
568.29        62.37364
568.72        62.30769
569.16        62.15708
569.60          62.208
570.03        62.40337
570.47        62.86362
570.90        63.49018
571.34        62.91882
571.77        63.45874
572.21        63.23148
572.64        63.12471
573.08         63.0523
573.51        63.14207
573.95        63.10423
574.38        63.14429
574.82        62.82891
