SpectraSmart Spectrum 2.9.0.0
--------- Device Information -----------
Spectrum Name :  反射率_0
Saving Time :  2024/05/03 20:11:21
Spectro-Module Model Name : SE2030-DUVN
Spectro-Module Serial Number : OS361AC55029948
Wavelength Start : 200
Wavelength End : 1025
Wavelength Unit : Wavelength(nm)
Spectrum Unit : Reflectance(%)
-----------Spectrum Setting ------------
Integration Time : 20ms
Average : 10
Boxcar : 0
Background removal :  enabled
linearity correction :  enabled
SC :  disabled
Intensity correction :  disabled
DWT denoise :  enabled
savitzky-golay :  disabled
FFT :  disabled
Running average :  disabled
Kalman :  disabled
High pass :  disabled
---------------BEGIN--------------------
Wavelength(nm)             Reflectance(%)
200.29               0
200.75        23.44379
201.21         36.1856
201.67       -819.1522
202.13       -23.27167
202.58       -13.77285
203.04       -12.47403
203.50       -13.05705
203.96       -13.74754
204.42       -14.23466
204.88       -16.18179
205.34        24.68237
205.80       -18.97969
206.26       -39.00932
206.72       -12155.46
207.18        50.39708
207.64        37.62316
208.10        44.84956
208.55        83.91777
209.01        461.6596
209.47        610.1069
209.93        91.20275
210.39        40.04086
210.85        26.53079
211.31        22.66039
211.77        22.57179
212.23        25.95164
212.69        35.85393
213.14        40.65825
213.60        23.25003
214.06        14.59428
214.52        11.64933
214.98        10.49655
215.44        9.947135
215.90        8.732365
216.36      -0.3146574
216.81       -6.586523
217.27        -26.4649
217.73       -84.28708
218.19       -403.8525
218.65       -8604.631
219.11       -569.8216
219.57       -115.9849
220.02       -38.03719
220.48       -48.54908
220.94        89.44554
221.40        43.02453
221.86        38.02604
222.32        38.84513
222.77        42.68227
223.23        51.07726
223.69        63.30134
224.15        66.74318
224.61        55.26514
225.06        39.75777
225.52        29.81958
225.98        28.32377
226.44        33.86289
226.90         45.6776
227.36        61.73902
227.81        72.17526
228.27        70.83789
228.73        62.86141
229.19        53.68664
229.65        47.47979
230.10        44.36676
230.56        43.05435
231.02        43.00528
231.48        44.07244
231.93         45.9114
232.39        48.53748
232.85        51.56598
233.31        54.43265
233.77        56.99647
234.22        59.33538
234.68        61.52687
235.14        63.73424
235.60         66.0415
236.05        68.53738
236.51        70.90402
236.97        72.73209
237.43        73.81715
237.88        74.27388
238.34        74.90997
238.80        77.06534
239.26        81.72539
239.71        91.48147
240.17         107.414
240.63        126.0509
241.08        136.5262
241.54        132.1036
242.00        121.8069
242.46        119.7021
242.91         129.906
243.37        154.0873
243.83        198.0483
244.28        242.8522
244.74        238.9046
245.20        191.5019
245.66        133.8652
246.11        91.76846
246.57        66.89661
247.03        52.03722
247.48        45.20989
247.94        44.28226
248.40        47.72783
248.85        55.56873
249.31        66.73573
249.77        75.71129
250.22        79.63232
250.68        80.35126
251.14        80.87199
251.59         85.1821
252.05        95.07301
252.51        111.8599
252.96        137.0996
253.42        161.5346
253.88         171.725
254.33        167.8089
254.79        155.9602
255.25        142.2298
255.70        130.5895
256.16        122.6767
256.62        118.1398
257.07        116.8752
257.53        118.3317
257.99        120.6058
258.44        122.2035
258.90        122.4295
259.35        120.6529
259.81         118.518
260.27        115.8556
260.72        112.5521
261.18        109.6029
261.63         106.578
262.09         104.393
262.55        103.2039
263.00        102.6297
263.46        102.5163
263.91        102.2173
264.37         101.422
264.83        99.95879
265.28        98.04755
265.74        95.87278
266.19        93.14633
266.65        90.20105
267.11        87.03372
267.56        84.12489
268.02        82.32985
268.47        81.60576
268.93        81.71759
269.38        82.01745
269.84        81.41555
270.30        79.71791
270.75        77.32062
271.21        74.87399
271.66        73.12341
272.12        72.23251
272.57        71.80145
273.03        71.58932
273.48        71.24552
273.94          70.655
274.39         69.9504
274.85        69.01443
275.31        67.48884
275.76        65.41287
276.22        63.05347
276.67        60.85892
277.13        59.65561
277.58        59.36602
278.04        59.76206
278.49        60.18946
278.95        59.72561
279.40        58.18005
279.86        56.09315
280.31        53.93028
280.77        52.47945
281.22        51.71148
281.68          51.424
282.13        51.28516
282.59         50.9616
283.04        50.32415
283.50        49.57905
283.95        48.80648
284.41        48.18715
284.86         47.7372
285.32        47.44603
285.77        47.26206
286.22        47.21951
286.68        47.31227
287.13        47.45288
287.59        47.65889
288.04         47.8511
288.50        48.03682
288.95        48.18549
289.41        48.24231
289.86        48.05256
290.32        47.67126
290.77        47.14934
291.22        46.70272
291.68        46.61501
292.13        46.92688
292.59         47.6056
293.04        48.51252
293.50        49.41954
293.95        50.23684
294.40        51.02786
294.86         51.9095
295.31        53.04706
295.77        54.48576
296.22        56.13099
296.68        57.85466
297.13         59.4417
297.58        60.78443
298.04        61.97398
298.49        63.01662
298.95        64.02577
299.40        65.02992
299.85        66.03402
300.31        67.16421
300.76        68.55732
301.21        70.23981
301.67        72.17945
302.12        74.14671
302.58        75.83467
303.03        77.12474
303.48        78.12007
303.94         79.0773
304.39        80.26654
304.84        81.80244
305.30        83.58511
305.75        85.38998
306.20        86.93269
306.66        88.16879
307.11        89.15096
307.57        90.06813
308.02        91.03318
308.47        92.14467
308.93        93.35641
309.38        94.59843
309.83        95.88046
310.29        97.18043
310.74         98.4715
311.19        99.69662
311.65        100.7417
312.10        101.5482
312.55        102.1347
313.00        102.5583
313.46        102.9348
313.91        103.2795
314.36        103.6235
314.82        103.9644
315.27        104.2587
315.72        104.5257
316.18        104.7878
316.63        105.1168
317.08        105.6385
317.53        106.3604
317.99        107.2178
318.44        108.0805
318.89         108.667
319.35        108.9081
319.80        108.8869
320.25         108.757
320.70        108.7962
321.16        109.0571
321.61        109.4657
322.06        109.9099
322.51        110.2104
322.97        110.2987
323.42        110.2792
323.87        110.1538
324.32        109.9348
324.78        109.6488
325.23        109.3405
325.68        109.1148
326.13        109.1658
326.59        109.5055
327.04        110.1401
327.49        110.9153
327.94         111.602
328.39         112.107
328.85         112.419
329.30        112.6512
329.75        112.8571
330.20        113.0661
330.66        113.2197
331.11        113.3421
331.56        113.3527
332.01        113.2667
332.46        113.1419
332.92        113.0407
333.37        113.1845
333.82        113.5765
334.27         114.166
334.72        114.8757
335.17        115.5696
335.63        116.1445
336.08        116.6717
336.53        117.0813
336.98        117.3329
337.43        117.4331
337.88        117.3957
338.34        117.2906
338.79        117.2682
339.24        117.3738
339.69        117.6094
340.14        117.9493
340.59        118.3321
341.05        118.7288
341.50        119.1544
341.95        119.6286
342.40        120.1978
342.85        120.8476
343.30        121.5348
343.75        122.1458
344.20        122.5144
344.66        122.6315
345.11        122.5383
345.56        122.3739
346.01        122.3466
346.46        122.5168
346.91        122.8278
347.36        123.2176
347.81          123.58
348.26        123.8764
348.72        124.1497
349.17        124.3751
349.62        124.5404
350.07        124.6421
350.52        124.6587
350.97        124.6272
351.42        124.6243
351.87        124.6468
352.32        124.6546
352.77        124.5702
353.22        124.2714
353.67        123.7467
354.13        123.0905
354.58        122.3253
355.03        121.5584
355.48        120.8441
355.93        120.1773
356.38        119.6079
356.83        119.2083
357.28         118.966
357.73        118.8316
358.18        118.7074
358.63        118.4352
359.08        117.9612
359.53        117.3213
359.98        116.5258
360.43        115.6074
360.88         114.596
361.33        113.4856
361.78        112.3632
362.23        111.3546
362.68         110.484
363.13        109.7415
363.58        109.0102
364.03        108.0971
364.48        106.9802
364.93        105.7307
365.38        104.5227
365.83        103.6145
366.28        103.0498
366.73        102.7371
367.18        102.4921
367.63        102.0273
368.08        101.2668
368.53        100.2935
368.98        99.25969
369.43        98.38666
369.88        97.72522
370.33        97.21285
370.78        96.71878
371.23        96.04344
371.68        95.15358
372.13        94.12577
372.58        93.14043
373.03        92.45033
373.48        92.08939
373.93        91.96751
374.38        91.86298
374.83        91.42682
375.28        90.57887
375.72        89.40183
376.17        88.19422
376.62        87.25393
377.07        86.64305
377.52        86.27201
377.97        85.95273
378.42        85.39675
378.87         84.5639
379.32        83.57486
379.77        82.65012
380.22        82.08087
380.67        81.89908
381.11        82.01118
381.56         82.1595
382.01        81.98843
382.46          81.413
382.91        80.56314
383.36        79.65833
383.81         79.0102
384.26        78.68476
384.71        78.58225
385.15        78.54626
385.60        78.36153
386.05        77.96027
386.50        77.41658
386.95        76.85117
387.40        76.43692
387.85        76.20972
388.29        76.07413
388.74        75.97655
389.19        75.67734
389.64        75.13825
390.09        74.42417
390.54        73.71252
390.98        73.21454
391.43        73.01422
391.88        73.15721
392.33        73.42735
392.78        73.14561
393.23        72.45913
393.67        72.22742
394.12        72.44034
394.57        72.28444
395.02        71.76816
395.47        71.38388
395.91        71.20831
396.36        71.06107
396.81        70.98027
397.26        71.06039
397.71        71.13944
398.15        70.99657
398.60        70.70221
399.05        70.02628
399.50         69.2426
399.95        69.30671
400.39        70.01919
400.84         69.8596
401.29        68.91218
401.74        68.49868
402.18        68.68007
402.63        68.74949
403.08        68.71441
403.53        68.33879
403.97         68.5661
404.42        68.49922
404.87        68.41545
405.32         68.2407
405.76         67.9695
406.21         67.7934
406.66        67.62929
407.11         67.1253
407.55        66.45837
408.00        66.14011
408.45         66.2444
408.90        66.63684
409.34         67.1406
409.79        66.96517
410.24        66.28989
410.68        66.04655
411.13        66.28559
411.58        66.43515
412.03        66.37622
412.47         66.2299
412.92        65.96332
413.37        65.55982
413.81        65.16501
414.26        65.06535
414.71        65.26515
415.15        65.74148
415.60        66.23708
416.05        66.37266
416.49        66.05484
416.94        65.42551
417.39        64.77404
417.83        64.51702
418.28         64.7454
418.73        65.31155
419.17        65.99837
419.62        66.38597
420.07        66.35023
420.51        66.00552
420.96        65.53169
421.41        65.09057
421.85        64.72702
422.30         64.5499
422.74        64.46302
423.19        64.25454
423.64        63.97869
424.08        64.12166
424.53        64.61586
424.98        64.97292
425.42        65.13761
425.87        65.40639
426.31        65.75596
426.76        65.79797
427.21        65.62651
427.65        65.76168
428.10         66.1017
428.54        66.18452
428.99        65.96854
429.44        65.69408
429.88        65.42755
430.33        65.56196
430.77        65.90724
431.22        65.87594
431.66        65.51688
432.11         65.5319
432.56        65.86451
433.00        66.14589
433.45        66.25205
433.89        66.55267
434.34         64.1983
434.78        66.62249
435.23        66.95578
435.67        65.49435
436.12        65.28199
436.57        65.14613
437.01        66.22394
437.46        66.79663
437.90        66.95467
438.35        65.66872
438.79        66.56671
439.24        66.32622
439.68        65.96529
440.13        65.86385
440.57        66.05209
441.02         65.8683
441.46        65.39047
441.91        66.03284
442.35         67.2636
442.80        66.93641
443.24        65.42158
443.69        65.47399
444.13        66.91209
444.58        67.34644
445.02         66.6848
445.47        66.26409
445.91        66.23913
446.36        66.28249
446.80        66.39384
447.24        66.83188
447.69        67.13739
448.13        67.33504
448.58         67.2899
449.02        67.04757
449.47        66.73277
449.91        66.51483
450.36        66.46416
450.80        66.49885
451.25        66.57996
451.69        66.61557
452.13        66.58392
452.58        66.51934
453.02        66.43008
453.47        66.35351
453.91        66.28957
454.36        66.22548
454.80        66.12823
455.24        66.03098
455.69        65.96172
456.13        65.78492
456.58        65.51765
457.02        65.73901
457.46        65.49522
457.91        65.48914
458.35        65.37312
458.79        65.44653
459.24        65.63938
459.68        65.27936
460.13        64.47455
460.57        64.56444
461.01        64.57314
461.46        64.15981
461.90        64.26131
462.34        64.51454
462.79        64.19311
463.23        63.94235
463.68        63.90075
464.12        63.82017
464.56        63.79099
465.01        63.91835
465.45        64.10191
465.89         63.9968
466.34        63.66437
466.78        63.74825
467.22        64.30809
467.67        63.69617
468.11        63.90846
468.55        63.79095
468.99        63.91545
469.44        63.90739
469.88         63.7754
470.32        63.65656
470.77        63.54616
471.21        63.44953
471.65        63.35794
472.10        63.27078
472.54        63.18768
472.98         63.1207
473.42        63.07951
473.87        63.10129
474.31        63.07121
474.75        62.87996
475.20        62.64893
475.64        62.09163
476.08        62.29464
476.52        62.25957
476.97        62.31394
477.41        62.39211
477.85        62.37346
478.29        63.07129
478.74        62.55828
479.18         62.6401
479.62        62.76813
480.06         62.7254
480.50        62.47598
480.95        62.36271
481.39        62.43989
481.83        61.96568
482.27        61.90494
482.72        62.28363
483.16        62.00795
483.60        62.11455
484.04        62.25381
484.48        62.04756
484.93         61.5463
485.37        62.32517
485.81         62.8545
486.25        62.49601
486.69        63.72573
487.14        63.90526
487.58        61.44371
488.02        61.54167
488.46        62.88472
488.90        61.06711
489.34        62.32546
489.79        62.39897
490.23        62.04208
490.67        61.98241
491.11        61.93866
491.55        61.96041
491.99        61.94867
492.43        61.87281
492.88        61.72514
493.32        61.61487
493.76        61.57695
494.20        61.53519
494.64        61.46735
495.08        61.60202
495.52        61.87085
495.96        61.57125
496.41        60.91569
496.85        61.29879
497.29        62.43575
497.73        62.46365
498.17        61.47209
498.61         61.1098
499.05        61.44658
499.49         61.5183
499.93         61.2802
500.37        61.07858
500.82         60.9424
501.26        60.89299
501.70        60.92619
502.14        60.95533
502.58         60.9558
503.02        60.95143
503.46        60.93464
503.90        60.88657
504.34        60.81782
504.78        60.75791
505.22         60.7054
505.66        60.66879
506.10        60.65317
506.54        60.62789
506.98        60.58226
507.42         60.8072
507.86         60.5359
508.30        60.82533
508.74        60.46418
509.18        60.29272
509.62        60.10348
510.06        60.08307
510.50        60.25524
510.94        60.57096
511.38        60.90389
511.82        61.01686
512.26        60.86161
512.70        60.51698
513.14         60.1162
513.58        59.86981
514.02        59.83101
514.46        59.92606
514.90        60.08441
515.34        60.18901
515.78        60.20162
516.22        60.17842
516.66        60.11704
517.10        60.00639
517.54        59.86362
517.98        59.68377
518.42        59.55112
518.86        59.60772
519.30        59.86609
519.74        60.27449
520.18        60.69891
520.62        60.91636
521.06        60.87027
521.50        60.62993
521.93        60.29462
522.37        60.04224
522.81        59.92413
523.25        59.88999
523.69         59.9134
524.13        59.95066
524.57        59.98262
525.01        60.03577
525.45        60.08975
525.89        60.10323
526.32        60.06776
526.76        59.99499
527.20        59.92693
527.64        59.94188
528.08        60.05348
528.52         60.2375
528.96        60.43283
529.40        60.54357
529.83        60.53411
530.27        60.43834
530.71        60.31025
531.15        60.24333
531.59        60.25828
532.03        60.33527
532.46        60.39866
532.90        60.33081
533.34        60.12483
533.78        59.84078
534.22        59.58436
534.66        59.50616
535.09         59.6173
535.53        59.86092
535.97        60.15131
536.41        60.30669
536.85        60.27029
537.28        60.25679
537.72        60.24712
538.16        59.84039
538.60        59.25352
539.04        59.30754
539.47         59.8852
539.91        60.12622
540.35        59.97462
540.79        59.93444
541.22        60.00933
541.66        60.02022
542.10        59.97271
542.54        59.82339
542.97        59.63087
543.41        59.71907
543.85         59.9961
544.29        59.99626
544.72        59.71722
545.16        59.56932
545.60        59.55073
546.04        59.43573
546.47        59.26033
546.91        59.19568
547.35        59.25324
547.79        59.40864
548.22        59.59338
548.66        59.69251
549.10        59.69714
549.53        59.77451
549.97        59.90643
550.41        59.94238
550.84        59.87491
551.28        59.80576
551.72        59.72707
552.15        59.58142
552.59        59.40587
553.03        59.20916
553.46        59.05727
553.90        59.03588
554.34        59.11049
554.77        59.34312
555.21        59.72306
555.65        59.44962
556.08        59.81517
556.52        59.75712
556.96        59.68365
557.39         59.6381
557.83        59.66236
558.27        59.64102
558.70        59.57783
559.14        59.66433
559.57        59.82964
560.01        59.81627
560.45        59.65495
560.88        59.60923
561.32        59.70229
561.75        59.75581
562.19         59.7902
562.63         59.7136
563.06        59.57112
563.50        59.78522
563.93        60.21278
564.37        60.07021
564.80        59.47527
565.24        59.40854
565.68        59.79184
566.11        59.88105
566.55        59.67808
566.98        59.51252
567.42        59.43384
567.85        59.59225
568.29        59.56479
568.72        59.55882
569.16        59.53514
569.60         59.5657
570.03        59.62092
570.47         59.8037
570.90        60.08539
571.34        59.67453
571.77        60.44184
572.21        59.87897
572.64        59.81427
573.08        59.60362
573.51        60.29322
573.95         60.1857
574.38        59.76138
574.82        59.22778
