SpectraSmart Spectrum 2.9.0.0
--------- Device Information -----------
Spectrum Name :  反射率_0
Saving Time :  2024/05/03 19:59:37
Spectro-Module Model Name : SE2030-DUVN
Spectro-Module Serial Number : OS361AC55029948
Wavelength Start : 200
Wavelength End : 1025
Wavelength Unit : Wavelength(nm)
Spectrum Unit : Reflectance(%)
-----------Spectrum Setting ------------
Integration Time : 20ms
Average : 10
Boxcar : 0
Background removal :  enabled
linearity correction :  enabled
SC :  disabled
Intensity correction :  disabled
DWT denoise :  enabled
savitzky-golay :  disabled
FFT :  disabled
Running average :  disabled
Kalman :  disabled
High pass :  disabled
---------------BEGIN--------------------
Wavelength(nm)             Reflectance(%)
200.29               0
200.75       -23.42202
201.21        -63.9136
201.67         2617.88
202.13        112.5694
202.58           75.12
203.04        63.27273
203.50        58.58021
203.96        57.47079
204.42        59.64128
204.88        74.93644
205.34       -498.9834
205.80       0.5659893
206.26        12.22986
206.72       -1212.411
207.18        31.57378
207.64        38.44295
208.10        57.16669
208.55        128.0022
209.01        791.4242
209.47        1024.749
209.93        132.0876
210.39        43.49706
210.85        21.34986
211.31        19.21515
211.77        28.97623
212.23        58.61803
212.69        141.6114
213.14        220.0343
213.60        129.3593
214.06        59.59349
214.52        29.95205
214.98        19.36354
215.44        18.03326
215.90        29.53632
216.36       -189.5597
216.81       -47.01056
217.27       -62.21018
217.73       -133.3155
218.19        -557.064
218.65       -12176.86
219.11       -938.0679
219.57       -261.3201
220.02        -153.688
220.48       -252.8944
220.94        278.7068
221.40        84.62846
221.86         56.0558
222.32        47.76212
222.77        45.59283
223.23        47.02283
223.69        51.38746
224.15        54.00467
224.61        51.72649
225.06        47.87001
225.52        45.58008
225.98        45.82586
226.44        48.32237
226.90         52.3802
227.36        57.60765
227.81         61.5857
228.27        62.06323
228.73         60.4033
229.19        57.05191
229.65         52.2165
230.10        46.74043
230.56        41.58384
231.02        37.80631
231.48        36.73016
231.93        37.93757
232.39        40.56671
232.85        43.55492
233.31        45.47105
233.77        46.01407
234.22        45.67611
234.68        44.88172
235.14        44.32086
235.60        44.29744
236.05        44.61327
236.51        45.28045
236.97        46.49391
237.43        48.04743
237.88        49.87709
238.34        51.67274
238.80        53.09726
239.26         54.2729
239.71        57.23958
240.17         59.5401
240.63        62.13144
241.08        62.31543
241.54        59.22898
242.00        56.45974
242.46        58.28865
242.91         66.4843
243.37        83.46519
243.83        114.1877
244.28        148.9903
244.74        156.1616
245.20        134.0066
245.66        99.29057
246.11        68.28635
246.57        44.98108
247.03        26.34003
247.48        15.35422
247.94        14.44343
248.40        22.39958
248.85        38.02165
249.31        57.19473
249.77        67.21354
250.22        64.69711
250.68        56.07145
251.14        48.07641
251.59        46.45642
252.05        52.08886
252.51        65.08215
252.96        85.28007
253.42         101.966
253.88         103.714
254.33         94.2037
254.79        82.25746
255.25        74.26285
255.70        70.25774
256.16        68.55384
256.62        67.93072
257.07        67.82632
257.53        68.27082
257.99        68.71661
258.44        68.59399
258.90        67.86426
259.35        66.23521
259.81        64.51852
260.27        62.62733
260.72         60.5418
261.18        58.74996
261.63        57.00063
262.09        55.68017
262.55        54.77251
263.00         54.0868
263.46        53.59298
263.91        53.01233
264.37        52.27757
264.83        51.32234
265.28        50.21594
265.74        49.04875
266.19        47.67239
266.65        46.22994
267.11        44.70511
267.56        43.28121
268.02        42.30425
268.47        41.74728
268.93        41.52679
269.38         41.3741
269.84        40.84159
270.30        39.87309
270.75        38.63067
271.21        37.44059
271.66        36.66837
272.12        36.37113
272.57        36.34094
273.03        36.37508
273.48        36.18511
273.94        35.69499
274.39         35.0249
274.85        34.20656
275.31         33.1791
275.76        32.00475
276.22        30.79494
276.67        29.75032
277.13         29.2493
277.58        29.23433
278.04        29.58249
278.49        29.96817
278.95        29.93116
279.40        29.34753
279.86         28.4796
280.31         27.4925
280.77        26.70695
281.22         26.1211
281.68        25.67515
282.13        25.32026
282.59        25.06362
283.04        24.87315
283.50        24.78735
283.95        24.73046
284.41        24.60873
284.86        24.39504
285.32        24.13425
285.77        23.89373
286.22        23.84167
286.68        23.99936
287.13        24.26859
287.59        24.55692
288.04        24.68469
288.50         24.6403
288.95        24.46524
289.41        24.24428
289.86        24.06261
290.32        23.98286
290.77        23.96957
291.22        24.03809
291.68        24.19938
292.13        24.45135
292.59        24.83618
293.04        25.33601
293.50        25.92132
293.95        26.57118
294.40        27.28526
294.86        28.11622
295.31        29.15396
295.77        30.42025
296.22        31.88036
296.68        33.43111
297.13         34.8805
297.58        36.14956
298.04         37.3022
298.49        38.39907
298.95        39.60627
299.40        40.95677
299.85        42.41093
300.31        43.98934
300.76        45.68126
301.21        47.47961
301.67        49.40424
302.12        51.32504
302.58        53.06419
303.03        54.55977
303.48        55.86878
303.94        57.20621
304.39        58.82047
304.84        60.80228
305.30        63.06857
305.75        65.39159
306.20        67.45309
306.66        69.18024
307.11        70.61714
307.57         71.9536
308.02         73.3541
308.47         74.9067
308.93        76.54491
309.38        78.15371
309.83        79.65428
310.29        81.02151
310.74        82.27808
311.19         83.4446
311.65        84.52838
312.10        85.50812
312.55        86.36459
313.00        87.11372
313.46        87.80377
313.91        88.42848
314.36        89.03178
314.82        89.60163
315.27        90.08151
315.72        90.49057
316.18        90.85254
316.63        91.26431
317.08        91.89311
317.53        92.76292
317.99        93.81041
318.44        94.88946
318.89        95.69556
319.35         96.1463
319.80        96.31851
320.25        96.38329
320.70        96.64591
321.16        97.16364
321.61        97.85641
322.06        98.55605
322.51        98.99096
322.97        99.08161
323.42        98.95746
323.87        98.72881
324.32        98.58198
324.78         98.5783
325.23        98.70227
325.68        98.93394
326.13        99.25496
326.59        99.62154
327.04        100.1022
327.49        100.6404
327.94        101.1697
328.39        101.6587
328.85        102.0566
329.30        102.4435
329.75          102.83
330.20        103.2199
330.66        103.5743
331.11        103.8963
331.56        104.0757
332.01        104.1148
332.46        104.0616
332.92        103.9935
333.37        104.1574
333.82         104.573
334.27        105.1956
334.72         105.932
335.17        106.6145
335.63         107.144
336.08        107.6007
336.53        107.9812
336.98         108.345
337.43        108.7114
337.88        109.0586
338.34         109.356
338.79        109.5882
339.24        109.7649
339.69        109.9414
340.14         110.181
340.59        110.5724
341.05        111.1287
341.50        111.8085
341.95        112.5941
342.40        113.4718
342.85        114.3979
343.30        115.3559
343.75         116.196
344.20        116.6876
344.66        116.8243
345.11        116.6715
345.56        116.4598
346.01        116.5455
346.46         117.015
346.91        117.7575
347.36        118.6241
347.81        119.3687
348.26        119.9043
348.72        120.3071
349.17        120.5816
349.62        120.7626
350.07        120.8737
350.52          120.89
350.97        120.8533
351.42        120.8505
351.87        120.8903
352.32        120.9427
352.77        120.9649
353.22        120.8784
353.67        120.6693
354.13        120.4109
354.58        120.0585
355.03        119.6153
355.48        119.1166
355.93        118.5884
356.38        118.1426
356.83        117.9559
357.28        118.0372
357.73        118.2923
358.18        118.5822
358.63         118.681
359.08        118.5051
359.53         118.113
359.98         117.498
360.43        116.6673
360.88        115.6623
361.33        114.4891
361.78        113.3066
362.23        112.3523
362.68        111.6749
363.13        111.2404
363.58        110.8571
364.03        110.2038
364.48        109.2243
364.93        108.0217
365.38        106.8389
365.83        106.0449
366.28        105.7076
366.73        105.6977
367.18        105.7561
367.63        105.4771
368.08        104.7531
368.53        103.7037
368.98        102.5611
369.43        101.6682
369.88        101.1077
370.33          100.79
370.78        100.5093
371.23        99.93406
371.68        99.00456
372.13        97.84759
372.58        96.74054
373.03        96.08626
373.48        95.94518
373.93        96.16296
374.38        96.43307
374.83        96.26151
375.28        95.51925
375.72        94.34352
376.17        93.05699
376.62        91.98646
377.07        91.22333
377.52        90.66775
377.97         90.2104
378.42        89.69427
378.87        89.08722
379.32        88.45935
379.77        87.90241
380.22        87.51886
380.67        87.30817
381.11        87.23852
381.56        87.14086
382.01        86.82343
382.46        86.25624
382.91        85.51402
383.36        84.77357
383.81        84.28761
384.26        84.09327
384.71        84.10513
385.15        84.15154
385.60        83.98708
386.05        83.54426
386.50        82.91325
386.95        82.22888
387.40        81.69125
387.85        81.35365
388.29        81.11478
388.74        80.96429
389.19        80.70827
389.64        80.30794
390.09        79.81615
390.54        79.32833
390.98        78.91805
391.43        78.64297
391.88          78.591
392.33        78.64999
392.78        78.25927
393.23        77.58064
393.67        77.53162
394.12        78.00586
394.57        77.76389
395.02        76.91648
395.47        76.62543
395.91        76.88821
396.36        76.81966
396.81        76.43951
397.26        76.25755
397.71        76.18541
398.15        75.99205
398.60        75.77981
399.05        75.16824
399.50        74.45039
399.95        74.90354
400.39         76.1891
400.84        76.08576
401.29        74.70323
401.74        74.05072
402.18        74.23646
402.63         74.1636
403.08        73.88198
403.53        73.37167
403.97        73.67191
404.42        73.76607
404.87         73.9014
405.32        73.91587
405.76        73.76716
406.21        73.65545
406.66         73.5174
407.11        73.04729
407.55        72.42263
408.00        72.12561
408.45        72.19151
408.90        72.44727
409.34        72.65915
409.79        72.28741
410.24        71.52016
410.68        71.20746
411.13        71.40697
411.58         71.6217
412.03        71.69307
412.47        71.62047
412.92        71.34219
413.37        70.87213
413.81        70.40283
414.26        70.29779
414.71        70.57063
415.15        71.17388
415.60        71.79247
416.05        71.95395
416.49        71.54227
416.94        70.73955
417.39        69.89825
417.83        69.52197
418.28        69.72343
418.73        70.32693
419.17        71.08815
419.62        71.53461
420.07        71.51995
420.51        71.17329
420.96        70.67807
421.41         70.1833
421.85        69.73481
422.30        69.48302
422.74        69.34025
423.19        69.03526
423.64        68.66769
424.08        68.91328
424.53        69.64661
424.98        70.11429
425.42        70.22557
425.87        70.37522
426.31        70.62012
426.76        70.69487
427.21        70.69355
427.65        70.99251
428.10        71.41003
428.54         71.4684
428.99        71.20441
429.44        70.65675
429.88        70.02331
430.33        70.12183
430.77        70.65411
431.22        70.49344
431.66        69.73598
432.11        69.51653
432.56        69.83707
433.00        70.26429
433.45        70.58509
433.89        70.90749
434.34         68.2226
434.78        70.76862
435.23        71.10965
435.67        69.74387
436.12        69.47758
436.57        69.26617
437.01        70.27726
437.46        70.74094
437.90        70.73479
438.35        69.84579
438.79        70.51796
439.24        70.38027
439.68        70.14948
440.13        70.14673
440.57        70.39629
441.02        70.29949
441.46        69.87276
441.91        70.34603
442.35        71.31766
442.80        70.70691
443.24        69.48222
443.69        69.65468
444.13        71.15887
444.58        71.68031
445.02        71.08223
445.47        70.53255
445.91         70.2329
446.36        70.12371
446.80        70.24144
447.24        70.55793
447.69        70.93839
448.13        71.20188
448.58        71.29726
449.02        71.24239
449.47        71.11359
449.91        70.99313
450.36        70.93254
450.80        70.87634
451.25        70.82648
451.69        70.75926
452.13        70.67516
452.58        70.58836
453.02        70.50062
453.47        70.43525
453.91        70.38371
454.36        70.36389
454.80        70.36205
455.24        70.26714
455.69        70.06291
456.13         69.9366
456.58        70.04464
457.02        69.47752
457.46        69.98653
457.91        70.13219
458.35        69.70801
458.79        69.69049
459.24        69.80647
459.68        69.32931
460.13        68.45138
460.57        68.09674
461.01        68.40627
461.46        68.08208
461.90        68.50842
462.34        68.53076
462.79        68.06357
463.23        67.68075
463.68        67.36958
464.12        67.29119
464.56        67.41435
465.01        67.60965
465.45        67.75584
465.89        67.88283
466.34        67.94336
466.78        67.90878
467.22        67.88058
467.67        67.38733
468.11        67.51017
468.55        67.45035
468.99        67.46417
469.44        67.37795
469.88        67.19579
470.32        67.00053
470.77        66.82717
471.21        66.73921
471.65        66.72625
472.10         66.7587
472.54        66.80842
472.98        66.79752
473.42        66.69672
473.87        66.73312
474.31        66.77789
474.75        66.27963
475.20        65.47283
475.64        65.30432
476.08        65.72861
476.52        65.86295
476.97        65.65376
477.41        65.67454
477.85        65.91743
478.29         66.0461
478.74        65.75209
479.18        66.18475
479.62        66.21062
480.06        66.24576
480.50         65.8858
480.95        65.89198
481.39        66.38635
481.83        64.98808
482.27        65.37257
482.72        65.84868
483.16        65.32469
483.60         65.4651
484.04        65.72192
484.48        65.57394
484.93        65.01057
485.37        66.21085
485.81        66.57628
486.25        66.25416
486.69         68.2401
487.14         68.0278
487.58        65.44384
488.02        65.24798
488.46          66.098
488.90        64.96921
489.34         65.2923
489.79        65.37962
490.23         65.6818
490.67         65.9037
491.11        65.84867
491.55        65.70274
491.99         65.4803
492.43        65.28345
492.88        65.13895
493.32        65.05116
493.76        65.02503
494.20        64.99697
494.64        64.93935
495.08        65.08829
495.52        65.37221
495.96        65.09496
496.41        64.47652
496.85        64.85431
497.29        65.96919
497.73        66.13945
498.17         65.3873
498.61        65.01424
499.05        65.11918
499.49        65.08907
499.93        64.90483
500.37        64.72654
500.82        64.55905
501.26        64.47835
501.70        64.48462
502.14         64.4479
502.58        64.37798
503.02        64.42937
503.46        64.61514
503.90         64.5676
504.34        64.85486
504.78        64.75503
505.22        64.46508
505.66        64.26844
506.10        64.23615
506.54         64.1144
506.98        63.87602
507.42        64.38145
507.86        64.12469
508.30        64.41542
508.74        64.21999
509.18         64.0918
509.62        63.92026
510.06        63.85295
510.50        63.92466
510.94        64.08106
511.38        64.24488
511.82        64.27734
512.26        64.15262
512.70        63.91835
513.14        63.64138
513.58        63.48927
514.02        63.50351
514.46        63.50828
514.90        63.43172
515.34        63.81143
515.78        63.61697
516.22        63.66928
516.66        63.63276
517.10        63.63338
517.54        63.41945
517.98        63.20777
518.42        63.04551
518.86        63.11085
519.30        63.42293
519.74        63.92163
520.18        64.42879
520.62        64.64504
521.06        64.50193
521.50        64.09338
521.93        63.58424
522.37        63.25626
522.81        63.18107
523.25        63.27518
523.69        63.44632
524.13        63.54559
524.57        63.53054
525.01        63.46619
525.45        63.38392
525.89        63.32457
526.32        63.30254
526.76        63.29705
527.20        63.32462
527.64        63.43248
528.08        63.61631
528.52        63.84488
528.96        64.04857
529.40        64.15085
529.83        64.10277
530.27        63.87309
530.71         63.5548
531.15        63.37209
531.59        63.36429
532.03        63.45084
532.46        63.55551
532.90         63.5755
533.34        63.49139
533.78        63.35679
534.22        63.23335
534.66        63.20774
535.09        63.28177
535.53        63.41257
535.97        63.57417
536.41        63.68407
536.85        63.70655
537.28        63.83577
537.72        63.98191
538.16        63.60426
538.60        62.90969
539.04        62.81445
539.47        63.25217
539.91        63.40369
540.35        63.23595
540.79        63.25039
541.22        63.41718
541.66        63.49335
542.10        63.46833
542.54        63.31676
542.97         63.1139
543.41        63.22149
543.85        63.54508
544.29        63.57474
544.72        63.30777
545.16        63.17768
545.60        63.17988
546.04        63.09628
546.47        62.93916
546.91        62.81209
547.35         62.7439
547.79        62.80211
548.22        62.94832
548.66        63.04387
549.10        63.08511
549.53        63.27758
549.97        63.55314
550.41        63.63288
550.84        63.46292
551.28        63.26016
551.72        63.11312
552.15        62.80919
552.59        62.35546
553.03        62.77666
553.46        62.53988
553.90        62.28988
554.34        62.67846
554.77        62.74408
555.21        62.81288
555.65        62.91854
556.08        63.06276
556.52        63.18143
556.96        63.23679
557.39        63.25834
557.83        63.26411
558.27        63.17027
558.70        63.01481
559.14        63.02032
559.57         63.1304
560.01         63.0545
560.45        62.83982
560.88        62.81178
561.32        62.98739
561.75        63.11432
562.19        63.18871
562.63        63.16399
563.06        63.06049
563.50        63.17429
563.93        63.42261
564.37        63.27354
564.80        62.83064
565.24        62.85413
565.68        63.23151
566.11        63.32814
566.55        63.14307
566.98        62.88236
567.42        62.66094
567.85        62.89723
568.29        63.10526
568.72         63.1975
569.16        63.10931
569.60        63.17145
570.03        63.35614
570.47        63.49836
570.90        63.58471
571.34        63.46714
571.77        64.16955
572.21        63.70411
572.64        63.92809
573.08        63.59446
573.51        64.11044
573.95        63.87979
574.38         63.5677
574.82        62.98538
