SpectraSmart Spectrum 2.9.0.0
--------- Device Information -----------
Spectrum Name :  反射率_0
Saving Time :  2024/05/03 20:04:28
Spectro-Module Model Name : SE2030-DUVN
Spectro-Module Serial Number : OS361AC55029948
Wavelength Start : 200
Wavelength End : 1025
Wavelength Unit : Wavelength(nm)
Spectrum Unit : Reflectance(%)
-----------Spectrum Setting ------------
Integration Time : 20ms
Average : 10
Boxcar : 0
Background removal :  enabled
linearity correction :  enabled
SC :  disabled
Intensity correction :  disabled
DWT denoise :  enabled
savitzky-golay :  disabled
FFT :  disabled
Running average :  disabled
Kalman :  disabled
High pass :  disabled
---------------BEGIN--------------------
Wavelength(nm)             Reflectance(%)
200.29               0
200.75       -21.45714
201.21       -45.86238
201.67        1730.519
202.13        74.08491
202.58         51.2415
203.04        45.65206
203.50        46.11771
203.96         52.9055
204.42        70.92376
204.88        138.1291
205.34       -2255.259
205.80       -192.9973
206.26       -200.2632
206.72       -43461.66
207.18        140.2102
207.64        79.58035
208.10        65.74809
208.55        72.34455
209.01        202.6576
209.47        289.7245
209.93        85.75909
210.39        64.19128
210.85          59.771
211.31        62.43272
211.77        71.36611
212.23        94.21359
212.69        150.6882
213.14        181.1757
213.60          99.035
214.06        49.68454
214.52        31.71142
214.98        27.63293
215.44        32.64842
215.90        62.25967
216.36       -398.7591
216.81       -87.83688
217.27       -103.6791
217.73       -202.4778
218.19       -778.3873
218.65       -15280.68
219.11       -999.6994
219.57       -211.4865
220.02       -78.57747
220.48       -95.45811
220.94        136.2249
221.40        60.00254
221.86        51.39082
222.32        50.67004
222.77         53.1142
223.23        59.58812
223.69        70.32294
224.15        77.01637
224.61         73.0444
225.06        64.39242
225.52        58.37363
225.98          57.678
226.44        61.55747
226.90        68.91174
227.36        78.31055
227.81        83.65402
228.27        81.14638
228.73        74.52993
229.19        66.57908
229.65        59.07227
230.10        52.54576
230.56        47.12639
231.02        43.36363
231.48        42.12549
231.93        42.93634
232.39        45.18974
232.85        47.77398
233.31        49.18628
233.77        49.15701
234.22        48.12601
234.68        46.85263
235.14        46.63546
235.60        47.90949
236.05        50.41574
236.51        53.52489
236.97        55.97327
237.43         57.1368
237.88        57.47961
238.34        57.66567
238.80         58.6491
239.26        61.04004
239.71        66.94895
240.17        75.59231
240.63        87.38448
241.08        96.21322
241.54        97.48996
242.00        94.40397
242.46        94.04092
242.91        98.94901
243.37        109.0121
243.83        126.3014
244.28        142.4182
244.74        137.1234
245.20         115.311
245.66        90.35157
246.11        70.54749
246.57        57.12668
247.03        47.58648
247.48         42.4623
247.94        42.13398
248.40        45.68997
248.85        52.33747
249.31        60.25887
249.77        63.66769
250.22        61.48395
250.68        57.29675
251.14        53.78286
251.59        53.29736
252.05        56.46849
252.51        63.46927
252.96        76.23445
253.42        93.34822
253.88        107.5583
254.33        114.6557
254.79        113.2723
255.25         104.617
255.70        93.95709
256.16        85.23952
256.62        79.24282
257.07        76.32337
257.53        75.93637
257.99        76.45714
258.44        76.99622
258.90        77.29514
259.35         76.7251
259.81        76.09743
260.27         74.9819
260.72        72.98672
261.18        70.80399
261.63        68.36691
262.09        66.39558
262.55        65.11923
263.00        64.33591
263.46        63.92954
263.91        63.50211
264.37        62.87936
264.83        61.95793
265.28        60.85349
265.74        59.70457
266.19        58.36618
266.65        57.00326
267.11        55.55543
267.56        54.20103
268.02        53.31518
268.47        52.85086
268.93        52.71794
269.38        52.59148
269.84        51.93751
270.30        50.68906
270.75        49.03907
271.21        47.39871
271.66        46.22395
272.12        45.59917
272.57        45.30106
273.03        45.08452
273.48        44.58763
273.94        43.74394
274.39        42.70871
274.85         41.6018
275.31        40.46619
275.76        39.34982
276.22        38.30337
276.67        37.42117
277.13        36.97608
277.58        36.87809
278.04        37.05611
278.49        37.20344
278.95        36.91572
279.40         36.0989
279.86         35.0132
280.31         33.8553
280.77        33.00965
281.22        32.45218
281.68        32.11584
282.13        31.85695
282.59        31.55597
283.04         31.1574
283.50        30.74802
283.95        30.35613
284.41        30.05463
284.86        29.83717
285.32        29.70509
285.77        29.61008
286.22        29.55268
286.68        29.53437
287.13        29.51851
287.59        29.53427
288.04         29.5643
288.50        29.62044
288.95        29.66342
289.41        29.67998
289.86        29.59999
290.32        29.44839
290.77         29.2451
291.22        29.05202
291.68        28.93793
292.13        28.92543
292.59        29.04466
293.04        29.30541
293.50        29.73064
293.95        30.30658
294.40        31.01795
294.86        31.87324
295.31        32.88714
295.77        34.05263
296.22        35.33548
296.68        36.64096
297.13        37.80677
297.58        38.76409
298.04         39.5716
298.49        40.27519
298.95        41.01555
299.40        41.83156
299.85        42.71751
300.31        43.73018
300.76        44.90946
301.21        46.26369
301.67        47.78799
302.12        49.35865
302.58        50.80877
303.03        52.06034
303.48        53.15474
303.94         54.2344
304.39        55.44382
304.84        56.85866
305.30        58.43417
305.75        60.03083
306.20        61.47118
306.66        62.73111
307.11        63.83611
307.57        64.92687
308.02        66.09789
308.47        67.41426
308.93        68.83044
309.38        70.27029
309.83        71.70297
310.29         73.1031
310.74        74.46283
311.19        75.74478
311.65        76.87238
312.10        77.80759
312.55        78.56077
313.00        79.19456
313.46        79.82948
313.91        80.48195
314.36         81.1685
314.82        81.85882
315.27        82.46917
315.72        83.00259
316.18        83.48981
316.63          84.013
317.08        84.71468
317.53        85.61318
317.99        86.64448
318.44        87.68299
318.89        88.46795
319.35        88.92828
319.80        89.13422
320.25        89.22807
320.70        89.46487
321.16        89.89767
321.61        90.46713
322.06        91.05329
322.51        91.46021
322.97        91.62871
323.42        91.66432
323.87        91.63364
324.32        91.65002
324.78          91.753
325.23        91.94089
325.68        92.21915
326.13        92.61537
326.59        93.09298
327.04        93.68686
327.49        94.31857
327.94        94.88681
328.39        95.35074
328.85        95.68799
329.30        95.96489
329.75        96.17625
330.20        96.34054
330.66        96.43166
331.11        96.53737
331.56        96.69005
332.01        96.91659
332.46        97.22675
332.92        97.56927
333.37        97.96094
333.82        98.35515
334.27        98.75532
334.72         99.1842
335.17        99.68436
335.63        100.2226
336.08        100.8167
336.53        101.3668
336.98        101.7691
337.43        102.0006
337.88         102.099
338.34        102.1223
338.79        102.1899
339.24        102.3435
339.69        102.5818
340.14        102.8986
340.59        103.2738
341.05        103.6919
341.50        104.1592
341.95        104.6845
342.40        105.2929
342.85        105.9642
343.30        106.6637
343.75        107.2909
344.20        107.6959
344.66        107.8752
345.11        107.8746
345.56        107.8158
346.01        107.8812
346.46        108.1288
346.91        108.5045
347.36        108.9843
347.81        109.5228
348.26        110.0808
348.72        110.6694
349.17        111.1935
349.62        111.5289
350.07        111.6487
350.52        111.5711
350.97        111.3949
351.42        111.2957
351.87        111.3074
352.32        111.3712
352.77        111.3957
353.22        111.2316
353.67        110.8556
354.13        110.3708
354.58        109.8058
355.03        109.2648
355.48        108.7996
355.93           108.4
356.38        108.1007
356.83        107.9565
357.28        107.9516
357.73        108.0365
358.18        108.1387
358.63        108.1408
359.08        107.9904
359.53        107.7065
359.98        107.2506
360.43        106.5818
360.88        105.7185
361.33        104.6833
361.78        103.6189
362.23         102.737
362.68        102.0872
363.13         101.639
363.58        101.2378
364.03         100.627
364.48        99.76132
364.93        98.72141
365.38        97.70898
365.83        97.02874
366.28        96.73071
366.73        96.70602
367.18        96.72028
367.63         96.4052
368.08        95.67496
368.53        94.65144
368.98        93.55959
369.43        92.73082
369.88        92.24687
370.33          92.014
370.78        91.85979
371.23        91.50674
371.68        90.88062
372.13        90.06643
372.58        89.24667
373.03        88.68342
373.48        88.42073
373.93        88.37164
374.38        88.31095
374.83         87.8866
375.28        87.03223
375.72        85.84644
376.17        84.67365
376.62        83.88113
377.07        83.53352
377.52        83.50735
377.97          83.547
378.42         83.2485
378.87        82.53249
379.32        81.55196
379.77        80.56098
380.22        79.90219
380.67        79.63319
381.11        79.65347
381.56        79.72631
382.01        79.53029
382.46        78.99004
382.91        78.23077
383.36         77.4541
383.81        76.94112
384.26        76.74345
384.71        76.75983
385.15        76.82584
385.60         76.7146
386.05        76.35919
386.50        75.84432
386.95        75.29359
387.40        74.88585
387.85        74.66702
388.29         74.5425
388.74        74.49029
389.19        74.32056
389.64        73.99339
390.09        73.55067
390.54        73.10619
390.98        72.76684
391.43        72.59371
391.88        72.66965
392.33        72.82996
392.78        72.47774
393.23        71.77977
393.67        71.56101
394.12         71.8065
394.57        71.69965
395.02          71.244
395.47        70.94628
395.91        70.85087
396.36          70.716
396.81        70.56997
397.26        70.52399
397.71        70.48944
398.15         70.3342
398.60        70.13505
399.05        69.68922
399.50        69.17202
399.95        69.26868
400.39        69.82906
400.84        69.68909
401.29        68.92881
401.74        68.60868
402.18        68.75799
402.63         68.7248
403.08        68.57889
403.53        68.21196
403.97        68.58606
404.42        68.72739
404.87        68.84657
405.32        68.82677
405.76        68.64789
406.21        68.43268
406.66        68.15527
407.11        67.77717
407.55        67.41601
408.00        67.03292
408.45        66.74911
408.90        67.17892
409.34         67.9946
409.79        67.77265
410.24        66.72711
410.68        66.36565
411.13        66.75526
411.58        67.03676
412.03        67.04301
412.47        66.92848
412.92        66.64109
413.37        66.16632
413.81        65.67221
414.26        65.47198
414.71        65.58048
415.15        65.97097
415.60        66.40409
416.05        66.53046
416.49        66.26219
416.94        65.73507
417.39        65.20301
417.83        65.02707
418.28        65.28841
418.73          65.854
419.17        66.53011
419.62        66.93944
420.07        66.96225
420.51        66.68754
420.96        66.28174
421.41        65.87082
421.85        65.48892
422.30        65.31515
422.74        65.23357
423.19        64.87734
423.64        64.36725
424.08        64.48492
424.53        65.14424
424.98        65.58366
425.42        65.73432
425.87         65.9771
426.31        66.29376
426.76        66.49382
427.21        66.60161
427.65        66.54007
428.10        66.25771
428.54        66.58161
428.99        66.25925
429.44        66.17736
429.88        65.98061
430.33        66.21758
430.77        66.62514
431.22        66.43256
431.66        65.76058
432.11        65.59306
432.56        65.92154
433.00        66.16246
433.45        66.20636
433.89        66.63976
434.34        64.49025
434.78        66.86002
435.23        67.12235
435.67        65.19347
436.12        65.27451
436.57         65.1825
437.01        66.37265
437.46        66.96465
437.90        67.00546
438.35        66.19347
438.79        66.88673
439.24        66.73009
439.68        66.43209
440.13        66.25653
440.57        66.27723
441.02        66.20713
441.46         66.0162
441.91        66.40968
442.35          67.027
442.80        66.60361
443.24        65.44046
443.69        65.51882
444.13        66.67198
444.58         67.0576
445.02        66.59117
445.47         66.3106
445.91        66.33579
446.36        66.42354
446.80        66.57142
447.24        66.91156
447.69        67.30105
448.13        67.36229
448.58        67.13445
449.02         66.9851
449.47        66.98772
449.91        66.93752
450.36        66.87376
450.80        66.91896
451.25        67.03685
451.69        67.05183
452.13        66.94891
452.58        66.79012
453.02        66.60466
453.47        66.46386
453.91        66.37537
454.36        66.31448
454.80        66.24583
455.24        66.17619
455.69        66.11296
456.13         65.9958
456.58        65.82111
457.02        65.94388
457.46         65.4623
457.91        65.64939
458.35        65.68864
458.79        65.83477
459.24        65.85797
459.68        65.38103
460.13        64.65247
460.57        64.49879
461.01        64.75629
461.46        64.86189
461.90         65.4176
462.34        65.30498
462.79        64.52795
463.23         63.9431
463.68        63.66176
464.12         63.6208
464.56        63.74957
465.01        64.02538
465.45        64.28494
465.89         64.2476
466.34        63.97929
466.78        64.08639
467.22        64.61797
467.67        64.04698
468.11         64.1242
468.55        63.94287
468.99        64.01898
469.44        63.98611
469.88        63.85916
470.32        63.78976
470.77        63.76164
471.21        63.74395
471.65        63.71553
472.10        63.67796
472.54        63.63955
472.98        63.61993
473.42        63.62104
473.87         63.7085
474.31        63.75076
474.75        63.51224
475.20        63.11877
475.64        62.64613
476.08        62.75853
476.52        62.70066
476.97        62.64847
477.41         62.7439
477.85        62.90436
478.29        63.31376
478.74        62.79142
479.18        63.23423
479.62        63.15689
480.06        63.16314
480.50        62.86645
480.95        62.92348
481.39        62.92441
481.83        62.33282
482.27        62.64333
482.72        62.62554
483.16        62.67263
483.60        62.72552
484.04        62.84648
484.48        62.62172
484.93        62.11562
485.37        62.89064
485.81        63.82209
486.25        63.21038
486.69        64.34113
487.14        64.76252
487.58        62.60007
488.02        62.68531
488.46        63.59228
488.90        62.50831
489.34        62.47839
489.79         63.0467
490.23        62.76825
490.67        62.97888
491.11        62.94816
491.55        62.84558
491.99        62.67848
492.43        62.58983
492.88        62.61104
493.32        62.69548
493.76        62.79807
494.20        62.80782
494.64        62.69085
495.08        62.65611
495.52        62.70492
495.96        62.36908
496.41        61.84864
496.85        62.21942
497.29        63.23801
497.73        63.41092
498.17        62.76104
498.61        62.56503
499.05        62.86317
499.49        62.80574
499.93        62.44016
500.37        62.34787
500.82        62.49255
501.26        62.50006
501.70        62.35733
502.14         62.2622
502.58        62.24881
503.02        62.27678
503.46        62.34855
503.90        62.47916
504.34        62.60691
504.78        62.62675
505.22        62.52102
505.66         62.3104
506.10        62.05055
506.54         61.9551
506.98        62.07692
507.42        62.17261
507.86         61.9929
508.30        62.74693
508.74        62.17762
509.18         62.0947
509.62         61.9287
510.06        61.87397
510.50        61.94668
510.94        62.11983
511.38         62.3196
511.82          62.367
512.26        62.23222
512.70        61.97591
513.14         61.6887
513.58        61.51135
514.02         61.4762
514.46        61.52786
514.90        61.61848
515.34        61.66862
515.78         61.6556
516.22        61.62823
516.66        61.57253
517.10        61.46086
517.54        61.30724
517.98        61.11149
518.42        60.98218
518.86        61.09679
519.30        61.47033
519.74        62.03857
520.18        62.61733
520.62        62.90397
521.06        62.82513
521.50        62.47116
521.93        62.00405
522.37        61.70332
522.81        61.64038
523.25         61.7318
523.69        61.88856
524.13        61.96684
524.57        61.92712
525.01        61.83641
525.45        61.72544
525.89        61.63205
526.32        61.57193
526.76        61.52838
527.20        61.52517
527.64        61.61401
528.08        61.79185
528.52        62.03999
528.96        62.28157
529.40        62.39394
529.83        62.34079
530.27        62.16602
530.71        61.94003
531.15        61.80593
531.59        61.80212
532.03        61.86041
532.46        61.89928
532.90         62.0031
533.34        61.81654
533.78        61.66333
534.22         61.5261
534.66         61.5318
535.09        61.68168
535.53        61.93041
535.97        62.20387
536.41        62.33121
536.85        62.26623
537.28        62.22901
537.72        62.20772
538.16        61.80156
538.60        61.23152
539.04        61.33588
539.47        61.98532
539.91        62.27418
540.35        62.13803
540.79        62.10885
541.22        62.17532
541.66        62.12689
542.10        61.97787
542.54        61.70055
542.97        61.40741
543.41        61.51112
543.85        61.92443
544.29        62.13021
544.72        62.07136
545.16        62.08118
545.60        62.12983
546.04        62.04112
546.47        61.84752
546.91        61.64641
547.35        61.50539
547.79        61.57316
548.22        61.78348
548.66        61.89139
549.10        61.87783
549.53        61.97414
549.97        62.15002
550.41        62.21145
550.84        62.13925
551.28        62.04223
551.72        61.93254
552.15        61.76665
552.59        61.58377
553.03        61.49124
553.46         61.3215
553.90        61.33075
554.34        61.43025
554.77        61.62118
555.21        61.71228
555.65        61.83515
556.08        61.91811
556.52        61.95316
556.96        61.93598
557.39        61.91475
557.83        61.91962
558.27         61.8578
558.70        61.76125
559.14        61.82566
559.57        61.98392
560.01        61.98243
560.45        61.83671
560.88        61.75937
561.32        61.78604
561.75        61.82542
562.19        61.90068
562.63        61.82243
563.06        61.65523
563.50        61.95879
563.93        62.55618
564.37        62.48139
564.80        61.85036
565.24        61.77318
565.68        62.17072
566.11        62.25322
566.55        62.03306
566.98        61.81075
567.42          61.675
567.85        61.95119
568.29         62.1451
568.72        62.19946
569.16        62.07778
569.60          62.085
570.03        62.18206
570.47        62.34344
570.90        62.56872
571.34        62.15261
571.77        62.79744
572.21        62.51523
572.64        62.46094
573.08        62.16624
573.51        62.74695
573.95        62.68336
574.38        62.54725
574.82        61.90287
