SpectraSmart Spectrum 2.9.0.0
--------- Device Information -----------
Spectrum Name :  反射率_0
Saving Time :  2024/05/03 20:10:26
Spectro-Module Model Name : SE2030-DUVN
Spectro-Module Serial Number : OS361AC55029948
Wavelength Start : 200
Wavelength End : 1025
Wavelength Unit : Wavelength(nm)
Spectrum Unit : Reflectance(%)
-----------Spectrum Setting ------------
Integration Time : 20ms
Average : 10
Boxcar : 0
Background removal :  enabled
linearity correction :  enabled
SC :  disabled
Intensity correction :  disabled
DWT denoise :  enabled
savitzky-golay :  disabled
FFT :  disabled
Running average :  disabled
Kalman :  disabled
High pass :  disabled
---------------BEGIN--------------------
Wavelength(nm)             Reflectance(%)
200.29               0
200.75        32.18832
201.21        69.76163
201.67       -2124.349
202.13       -60.22159
202.58       -20.63805
203.04      -0.8645086
203.50        11.84239
203.96        18.62664
204.42        20.91222
204.88        15.81323
205.34         265.739
205.80        44.17999
206.26        28.82001
206.72       -4734.328
207.18        55.04252
207.64        39.31576
208.10        18.33662
208.55       -42.32284
209.01       -642.5246
209.47       -996.8569
209.93       -106.5709
210.39       -14.14189
210.85        12.58721
211.31        24.12405
211.77        32.35812
212.23        44.75643
212.69        69.72563
213.14        77.60016
213.60         36.0653
214.06        13.09954
214.52        3.971954
214.98       -1.376911
215.44       -8.209174
215.90       -28.59187
216.36        212.8759
216.81         29.7576
217.27         6.30038
217.73       -33.98989
218.19       -245.2068
218.65       -6128.432
219.11       -465.2459
219.57        -114.337
220.02       -55.11683
220.48       -94.06878
220.94        134.7876
221.40        51.88272
221.86        39.58292
222.32        35.34407
222.77        33.07375
223.23        31.91046
223.69        30.72662
224.15        27.77332
224.61        24.45279
225.06        22.18675
225.52         22.4967
225.98        26.37932
226.44        34.01804
226.90        45.94968
227.36        60.49671
227.81        69.01862
228.27        66.47625
228.73        57.71143
229.19        48.00972
229.65        41.42289
230.10        37.89936
230.56        36.01828
231.02        35.43656
231.48        36.09602
231.93        37.59036
232.39        39.95794
232.85        42.18784
233.31        42.79375
233.77        41.62676
234.22        39.03433
234.68        36.34277
235.14        35.87182
235.60        38.28532
236.05        43.18482
236.51        49.00557
236.97        52.34503
237.43        51.95085
237.88         49.0857
238.34        45.70904
238.80        44.10414
239.26         44.9726
239.71         50.3834
240.17        58.63848
240.63        70.22313
241.08        78.09255
241.54        78.66091
242.00        75.24249
242.46        74.54908
242.91        78.97062
243.37        88.18239
243.83        104.4072
244.28        121.6246
244.74        121.8766
245.20        107.0322
245.66        87.42612
246.11        70.49809
246.57        58.25814
247.03        48.98652
247.48        42.91987
247.94        39.92427
248.40        39.33278
248.85        40.35411
249.31        43.35445
249.77        47.47266
250.22        51.23667
250.68        54.58635
251.14        57.14894
251.59        59.38157
252.05        61.99541
252.51        65.13457
252.96        70.31988
253.42        78.83591
253.88          88.301
254.33        95.53371
254.79        97.18829
255.25        91.95355
255.70        84.03637
256.16        77.23096
256.62        73.03955
257.07        72.37938
257.53        74.53288
257.99         77.6782
258.44        79.99158
258.90         80.1532
259.35        77.92511
259.81        74.98415
260.27        71.98208
260.72         69.6014
261.18        68.28049
261.63        67.30299
262.09        66.68867
262.55        65.99095
263.00        65.03643
263.46        64.03793
263.91        62.97456
264.37        62.18416
264.83         61.6084
265.28        61.10274
265.74        60.53332
266.19        59.41743
266.65        57.88379
267.11        56.03805
267.56        54.19243
268.02         52.8899
268.47        52.13281
268.93        51.76387
269.38        51.47529
269.84        50.77012
270.30        49.57947
270.75        48.10949
271.21        46.66993
271.66        45.56163
272.12        44.84901
272.57        44.33929
273.03        43.93086
273.48         43.5029
273.94        43.01801
274.39        42.53043
274.85         41.9565
275.31        41.05433
275.76        39.83593
276.22        38.46817
276.67        37.22128
277.13        36.59665
277.58        36.53904
278.04        36.89529
278.49        37.24851
278.95         37.0169
279.40        36.07357
279.86        34.76725
280.31        33.37885
280.77        32.38685
281.22        31.78499
281.68        31.46345
282.13        31.25739
282.59        31.02098
283.04        30.68057
283.50         30.3247
283.95        29.97081
284.41        29.67142
284.86        29.42206
285.32        29.23759
285.77          29.075
286.22        28.94506
286.68         28.8609
287.13        28.78679
287.59        28.78653
288.04        28.89281
288.50        29.11744
288.95        29.40484
289.41        29.67844
289.86        29.76584
290.32        29.67279
290.77         29.4522
291.22        29.23515
291.68        29.19483
292.13        29.37629
292.59        29.77784
293.04        30.35702
293.50        31.04693
293.95        31.80645
294.40        32.64979
294.86         33.6291
295.31         34.8242
295.77         36.2504
296.22         37.8571
296.68        39.52034
297.13        41.02472
297.58         42.2811
298.04        43.36404
298.49        44.34784
298.95        45.42458
299.40        46.64111
299.85        47.97247
300.31        49.44204
300.76        51.03742
301.21         52.7526
301.67         54.5974
302.12        56.46966
302.58        58.23837
303.03        59.83026
303.48        61.28341
303.94        62.71833
304.39        64.24046
304.84        65.92908
305.30        67.74435
305.75        69.59203
306.20        71.37006
306.66        73.05109
307.11        74.61463
307.57        76.10935
308.02        77.47584
308.47        78.77132
308.93        80.01594
309.38        81.23154
309.83        82.55271
310.29        83.99324
310.74        85.48267
311.19        86.93638
311.65        88.19788
312.10        89.19191
312.55         89.9612
313.00         90.5412
313.46        91.00722
313.91        91.38373
314.36        91.71121
314.82        92.05015
315.27        92.46178
315.72         92.9814
316.18        93.59782
316.63        94.31056
317.08        95.12675
317.53        96.02145
317.99        96.96168
318.44        97.86028
318.89        98.51946
319.35        98.88785
319.80          99.008
320.25        99.00655
320.70         99.1195
321.16        99.39487
321.61        99.79639
322.06        100.2071
322.51        100.4311
322.97        100.4173
323.42        100.2742
323.87        100.0961
324.32        100.0422
324.78        100.1533
325.23        100.4129
325.68        100.7735
326.13        101.1759
326.59        101.5577
327.04        101.9797
327.49        102.4043
327.94        102.8076
328.39        103.1745
328.85        103.4586
329.30        103.7116
329.75        103.8895
330.20        103.9978
330.66        104.0262
331.11        104.0702
331.56        104.1617
332.01        104.3316
332.46        104.5861
332.92        104.8815
333.37        105.2603
333.82        105.6763
334.27        106.1255
334.72        106.6144
335.17        107.1571
335.63         107.708
336.08        108.2952
336.53         108.823
336.98           109.2
337.43        109.4112
337.88        109.4962
338.34         109.517
338.79        109.6009
339.24        109.7924
339.69        110.0907
340.14        110.4917
340.59        110.9774
341.05        111.5243
341.50        112.1272
341.95        112.7793
342.40         113.486
342.85        114.2176
343.30        114.9434
343.75        115.5569
344.20        115.9002
344.66        115.9815
345.11        115.8613
345.56        115.6936
346.01        115.7084
346.46        115.9726
346.91        116.4124
347.36        116.9916
347.81        117.6417
348.26         118.309
348.72        119.0129
349.17        119.6241
349.62         119.965
350.07        120.0115
350.52        119.8041
350.97        119.5113
351.42        119.4235
351.87        119.5906
352.32        119.9005
352.77        120.2013
353.22        120.2447
353.67         119.971
354.13        119.5219
354.58        118.9071
355.03        118.2061
355.48        117.4954
355.93         116.787
356.38        116.2181
356.83        116.0066
357.28        116.1608
357.73        116.5713
358.18        117.0599
358.63        117.3302
359.08        117.2689
359.53        116.9436
359.98         116.341
360.43        115.4667
360.88        114.3735
361.33        113.0747
361.78         111.768
362.23        110.7514
362.68          110.09
363.13        109.7395
363.58        109.4801
364.03         108.941
364.48        108.0435
364.93        106.8902
365.38        105.7372
365.83        104.9782
366.28        104.6828
366.73        104.7153
367.18        104.7764
367.63        104.3971
368.08        103.4733
368.53        102.1617
368.98        100.7783
369.43        99.79028
369.88        99.30547
370.33         99.1933
370.78        99.18205
371.23        98.82224
371.68        98.00571
372.13        96.88603
372.58        95.75598
373.03        95.04693
373.48        94.83814
373.93        94.96946
374.38        95.15493
374.83        94.93947
375.28        94.20724
375.72        93.09164
376.17        91.90469
376.62        90.95449
377.07        90.32014
377.52        89.89771
377.97        89.56023
378.42        89.12292
378.87        88.54456
379.32        87.90176
379.77        87.29833
380.22        86.85513
380.67        86.58348
381.11        86.45567
381.56        86.31274
382.01        85.97867
382.46        85.42614
382.91        84.71967
383.36        84.03725
383.81        83.63178
384.26        83.53355
384.71        83.65671
385.15        83.78853
385.60         83.6203
386.05        83.07909
386.50        82.27636
386.95          81.421
387.40        80.82593
387.85        80.56204
388.29        80.48979
388.74         80.5201
389.19        80.34821
389.64        79.91401
390.09        79.30618
390.54        78.68867
390.98        78.24223
391.43        78.05527
391.88        78.18591
392.33        78.45406
392.78         78.2245
393.23        77.65912
393.67        77.61438
394.12        78.03633
394.57        78.03686
395.02        77.57723
395.47        77.09166
395.91        76.70319
396.36        76.39615
396.81         76.2508
397.26        76.29223
397.71        76.34592
398.15        76.21939
398.60        75.98602
399.05        75.33633
399.50        74.57076
399.95        74.83821
400.39         75.8763
400.84        75.77053
401.29        74.61794
401.74        74.14649
402.18        74.41333
402.63         74.3917
403.08        74.12705
403.53        73.60563
403.97        73.87532
404.42        73.88646
404.87        73.91527
405.32        73.86427
405.76        73.69386
406.21        73.61896
406.66        73.58356
407.11        73.13306
407.55        72.48382
408.00        72.52864
408.45        73.14227
408.90        73.30729
409.34        72.86936
409.79        72.20175
410.24        71.55831
410.68        71.25269
411.13        71.35609
411.58        71.70972
412.03        72.07419
412.47        72.11255
412.92          71.716
413.37        71.01235
413.81        70.29478
414.26        70.06479
414.71         70.3676
415.15        71.09982
415.60         71.9066
416.05        72.24656
416.49        71.96301
416.94        71.25467
417.39        70.46622
417.83        70.09129
418.28        70.24876
418.73        70.76141
419.17        71.41443
419.62        71.79427
420.07        71.77211
420.51        71.46238
420.96        71.02496
421.41        70.57308
421.85        70.14104
422.30        69.87762
422.74        69.69794
423.19        69.36708
423.64        68.96986
424.08        69.10229
424.53        69.66813
424.98        70.03214
425.42        70.12167
425.87        70.30616
426.31        70.60548
426.76         70.6488
427.21         70.5486
427.65        70.84305
428.10        71.34962
428.54        71.46902
428.99        71.23714
429.44        70.72121
429.88        70.12183
430.33        70.33572
430.77        71.03352
431.22        70.85113
431.66        69.91253
432.11        69.79169
432.56        70.43356
433.00        70.63156
433.45        70.28728
433.89        70.74479
434.34        68.82764
434.78        71.50294
435.23        71.24989
435.67        69.93902
436.12        69.17711
436.57         69.1946
437.01        70.70881
437.46        71.23679
437.90        70.73227
438.35        70.39314
438.79        70.56878
439.24        70.47255
439.68        70.19251
440.13        70.18223
440.57        70.42953
441.02        70.21992
441.46        69.64838
441.91        70.16547
442.35        71.25269
442.80        70.73933
443.24        69.07134
443.69          69.134
444.13        70.65501
444.58        71.48786
445.02        70.52204
445.47         70.0568
445.91        69.97773
446.36         69.9946
446.80        70.12103
447.24        70.44762
447.69        70.83551
448.13        71.03727
448.58        71.01026
449.02        70.79115
449.47        70.50822
449.91        70.32853
450.36        70.31783
450.80        70.39182
451.25        70.50025
451.69        70.53624
452.13         70.4753
452.58        70.35372
453.02        70.19897
453.47        70.08173
453.91         70.0154
454.36        69.98383
454.80        69.92472
455.24        69.86274
455.69        69.82595
456.13        69.57343
456.58        69.17755
457.02        69.56474
457.46        69.61718
457.91        69.53893
458.35        69.05622
458.79        68.98178
459.24        69.22038
459.68        68.96458
460.13        68.36739
460.57        68.04251
461.01        68.05654
461.46        68.07673
461.90        68.02184
462.34        67.93958
462.79        67.32507
463.23        67.14362
463.68        67.23925
464.12        67.24201
464.56        67.12712
465.01        67.17839
465.45        67.31664
465.89        67.36735
466.34        67.33846
466.78        67.42091
467.22         67.5789
467.67        67.31635
468.11        66.78663
468.55        66.66708
468.99        66.93451
469.44        66.95048
469.88        66.70649
470.32        66.58625
470.77        66.59771
471.21        66.58797
471.65        66.52332
472.10        66.42833
472.54        66.33768
472.98        66.24315
473.42        66.12492
473.87        66.26809
474.31        66.46872
474.75        65.83608
475.20        64.70055
475.64        64.57467
476.08        65.33923
476.52        65.52161
476.97        65.04049
477.41        64.93174
477.85        64.94559
478.29        65.05833
478.74        65.27441
479.18        65.69376
479.62        65.42557
480.06        65.40225
480.50        65.24318
480.95        65.38563
481.39        65.92564
481.83        64.51208
482.27        64.80141
482.72        65.45304
483.16        64.71693
483.60        64.87025
484.04        65.19396
484.48        65.03343
484.93        64.33666
485.37        65.87659
485.81        66.19446
486.25        65.79016
486.69        67.75574
487.14        67.65996
487.58        64.44493
488.02        65.18069
488.46        65.60769
488.90        63.90266
489.34         64.6506
489.79        65.22528
490.23         65.2229
490.67        65.45873
491.11        65.37514
491.55        65.23109
491.99        65.02565
492.43        64.82362
492.88        64.66735
493.32        64.60915
493.76        64.63177
494.20        64.61568
494.64        64.52975
495.08        64.56717
495.52        64.70074
495.96         64.4642
496.41        64.02303
496.85        64.33091
497.29        65.16879
497.73        65.27417
498.17        64.66467
498.61        64.31116
499.05         64.3356
499.49          64.338
499.93        64.27205
500.37         64.2568
500.82        64.29341
501.26        63.99297
501.70        64.02164
502.14        64.05602
502.58        63.74555
503.02        63.71929
503.46        63.81592
503.90        63.99387
504.34        64.15128
504.78        64.15759
505.22        63.98202
505.66        63.67998
506.10        63.36001
506.54        63.22651
506.98        63.32409
507.42        63.74714
507.86        63.55651
508.30        64.40791
508.74        63.77982
509.18        63.57714
509.62        63.26001
510.06        63.11245
510.50        63.17903
510.94        63.39558
511.38        63.66807
511.82        63.78183
512.26        63.68988
512.70        63.46864
513.14        63.19293
513.58        62.97531
514.02        62.85221
514.46         62.7786
514.90        62.75156
515.34        62.76945
515.78        62.82262
516.22        62.92773
516.66        63.02792
517.10        63.02588
517.54         62.9108
517.98        62.70397
518.42        62.51036
518.86        62.50339
519.30        62.71012
519.74        63.07008
520.18        63.44948
520.62        63.62898
521.06        63.55378
521.50         63.2957
521.93        62.96018
522.37        62.73141
522.81        62.65703
523.25        62.68118
523.69        62.75687
524.13        62.80882
524.57         62.8138
525.01        62.81054
525.45        62.80014
525.89        62.77739
526.32        62.74219
526.76        62.69059
527.20        62.65762
527.64        62.71075
528.08        62.85486
528.52        63.06995
528.96        63.27415
529.40        63.33773
529.83        63.22605
530.27        62.99054
530.71         62.7272
531.15        62.59418
531.59        62.62786
532.03        62.79121
532.46        62.97972
532.90        63.02477
533.34        62.90095
533.78        62.68032
534.22        62.47571
534.66        62.45255
535.09        62.62196
535.53        62.91041
535.97        63.23166
536.41        63.40425
536.85         63.3698
537.28        63.36029
537.72        63.33123
538.16        62.82143
538.60         62.0635
539.04        61.93624
539.47        62.37435
539.91        62.57196
540.35        62.48616
540.79        62.61337
541.22        62.88445
541.66         62.9912
542.10        62.91224
542.54        62.64114
542.97        62.30671
543.41        62.35418
543.85        62.70888
544.29        62.83797
544.72        62.69198
545.16        62.63286
545.60        62.63919
546.04        62.50451
546.47        62.26552
546.91        62.10104
547.35        62.03776
547.79        62.04494
548.22        62.10535
548.66         62.1981
549.10        62.31551
549.53        62.57354
549.97        62.88858
550.41         63.0195
550.84        62.92219
551.28        62.73133
551.72        62.50933
552.15        62.25915
552.59        62.03625
553.03        62.05206
553.46        61.87707
553.90         61.9161
554.34        62.00793
554.77        62.07543
555.21        62.11844
555.65        62.22048
556.08         62.3574
556.52        62.43618
556.96        62.43608
557.39        62.43174
557.83        62.44361
558.27        62.35081
558.70        62.19955
559.14        62.23277
559.57        62.39384
560.01        62.40477
560.45        62.26793
560.88        62.21474
561.32        62.26566
561.75        62.24359
562.19        62.20939
562.63        62.14641
563.06        62.08448
563.50        62.39043
563.93        62.88361
564.37        62.69258
564.80        61.98167
565.24        61.92938
565.68        62.43242
566.11        62.57662
566.55        62.36425
566.98         62.1479
567.42          62.029
567.85        62.38364
568.29        62.68556
568.72        62.73249
569.16        62.49119
569.60        62.49495
570.03        62.56022
570.47        62.70555
570.90        62.79121
571.34         62.4704
571.77        63.43405
572.21        62.94117
572.64        63.18415
573.08        63.13103
573.51        63.31619
573.95        63.16085
574.38        63.04207
574.82        62.15998
