SpectraSmart Spectrum 2.9.0.0
--------- Device Information -----------
Spectrum Name :  反射率_0
Saving Time :  2024/05/03 20:20:40
Spectro-Module Model Name : SE2030-DUVN
Spectro-Module Serial Number : OS361AC55029948
Wavelength Start : 200
Wavelength End : 1025
Wavelength Unit : Wavelength(nm)
Spectrum Unit : Reflectance(%)
-----------Spectrum Setting ------------
Integration Time : 20ms
Average : 10
Boxcar : 0
Background removal :  enabled
linearity correction :  enabled
SC :  disabled
Intensity correction :  disabled
DWT denoise :  enabled
savitzky-golay :  disabled
FFT :  disabled
Running average :  disabled
Kalman :  disabled
High pass :  disabled
---------------BEGIN--------------------
Wavelength(nm)             Reflectance(%)
200.29               0
200.75       -12.48215
201.21       -55.09732
201.67        2827.755
202.13        125.3659
202.58        78.40681
203.04        59.23595
203.50        49.93301
203.96        50.14737
204.42        62.91684
204.88        119.8678
205.34       -1996.652
205.80        -180.859
206.26       -204.9996
206.72        -50187.8
207.18        186.8086
207.64        127.7649
208.10        138.0977
208.55         230.968
209.01        1188.277
209.47        1643.511
209.93        279.6882
210.39        141.4969
210.85        103.9639
211.31        92.03553
211.77        89.54321
212.23         94.7436
212.69        108.8308
213.14         94.8811
213.60        51.01667
214.06        35.73706
214.52        33.53731
214.98        36.43246
215.44        45.82269
215.90         84.6773
216.36       -465.4295
216.81       -80.96365
217.27       -79.40753
217.73       -137.5934
218.19       -506.3327
218.65       -10361.49
219.11       -772.9298
219.57       -214.8019
220.02       -131.1137
220.48       -233.0715
220.94        277.6609
221.40        89.09194
221.86        61.04108
222.32        53.28613
222.77        52.00271
223.23        54.86642
223.69        60.64037
224.15         61.8323
224.61        55.21443
225.06        47.12386
225.52        42.40283
225.98        42.17861
226.44        45.72155
226.90        52.31553
227.36        61.10182
227.81        67.41501
228.27        67.55682
228.73        63.81572
229.19        58.04474
229.65        51.59781
230.10        45.28202
230.56         39.6395
231.02        35.37408
231.48        33.42962
231.93        33.46537
232.39         34.8608
232.85        36.80383
233.31        38.22143
233.77        38.87205
234.22        39.05835
234.68        39.14373
235.14        39.72051
235.60        41.00348
236.05        42.86921
236.51         44.9752
236.97         46.7269
237.43        47.76269
237.88        48.30881
238.34        48.82563
238.80        49.98403
239.26        52.28114
239.71        58.15442
240.17         66.1152
240.63        76.14428
241.08        81.83788
241.54        79.84219
242.00        74.83882
242.46         74.3222
242.91        80.78751
243.37        95.23646
243.83        122.2532
244.28        154.4589
244.74        164.0477
245.20        149.4358
245.66        122.9954
246.11         97.1656
246.57        76.29495
247.03        58.01003
247.48        45.62646
247.94        41.99295
248.40        45.99054
248.85        56.31907
249.31        69.64291
249.77        76.10545
250.22         73.3847
250.68        66.74235
251.14        61.13963
251.59        61.00418
252.05        67.22177
252.51        80.04521
252.96        99.91196
253.42        117.8193
253.88        122.3389
254.33        115.0045
254.79        102.6851
255.25        91.10817
255.70        82.43295
256.16         76.8082
256.62        73.20078
257.07        70.97957
257.53        69.90784
257.99        69.06881
258.44        68.07079
258.90        67.15887
259.35        65.83871
259.81        64.63767
260.27         63.0458
260.72        60.60682
261.18        57.96294
261.63        55.20272
262.09        52.96191
262.55        51.46849
263.00        50.53081
263.46        49.96539
263.91        49.47122
264.37        48.94646
264.83        48.26813
265.28        47.48809
265.74        46.57867
266.19        45.24436
266.65        43.62701
267.11        41.78391
267.56        40.00545
268.02        38.78402
268.47        38.13058
268.93         37.9096
269.38        37.83103
269.84        37.40915
270.30        36.55198
270.75        35.42328
271.21        34.30801
271.66        33.51264
272.12        33.09402
272.57        32.88236
273.03        32.70939
273.48        32.35017
273.94        31.76663
274.39        31.06962
274.85        30.33304
275.31        29.56304
275.76        28.78563
276.22        28.03324
276.67        27.40111
277.13        27.12677
277.58         27.1378
278.04        27.36515
278.49        27.51746
278.95        27.19809
279.40        26.34543
279.86        25.22842
280.31        24.07823
280.77        23.27735
281.22        22.82292
281.68        22.62034
282.13        22.55155
282.59        22.50718
283.04         22.4192
283.50        22.34023
283.95        22.23984
284.41        22.08692
284.86        21.87853
285.32        21.65586
285.77        21.44126
286.22        21.33234
286.68        21.35489
287.13        21.44447
287.59          21.619
288.04        21.86389
288.50        22.16922
288.95        22.50309
289.41        22.78874
289.86        22.85969
290.32        22.72803
290.77        22.45792
291.22        22.19553
291.68        22.13918
292.13        22.34485
292.59         22.8018
293.04        23.46527
293.50        24.25892
293.95        25.13065
294.40        26.08838
294.86        27.16796
295.31        28.43333
295.77        29.90193
296.22        31.54311
296.68        33.24398
297.13        34.80262
297.58        36.14807
298.04        37.35484
298.49        38.53602
298.95        39.93502
299.40        41.59762
299.85        43.46214
300.31        45.49092
300.76        47.57748
301.21        49.69127
301.67         51.8801
302.12        54.05164
302.58         56.0901
303.03        57.93957
303.48        59.62216
303.94        61.32724
304.39        63.27149
304.84        65.53703
305.30        68.04947
305.75        70.58214
306.20         72.8149
306.66        74.68692
307.11        76.26013
307.57        77.72694
308.02        79.24379
308.47        80.91382
308.93        82.67305
309.38        84.46342
309.83         86.3016
310.29        88.15722
310.74        90.00037
311.19        91.73074
311.65        93.16166
312.10        94.22579
312.55        94.97163
313.00        95.50841
313.46         96.0341
313.91        96.59544
314.36        97.20267
314.82        97.84479
315.27        98.46078
315.72        99.05502
316.18        99.65385
316.63        100.3086
317.08        101.1099
317.53        102.0594
317.99        103.1004
318.44        104.1171
318.89        104.8602
319.35        105.2674
319.80        105.4045
320.25        105.4307
320.70        105.6313
321.16        106.0614
321.61          106.66
322.06        107.2768
322.51        107.6645
322.97        107.7493
323.42        107.6524
323.87        107.4707
324.32        107.3712
324.78         107.405
325.23        107.5633
325.68        107.8182
326.13        108.1433
326.59        108.4883
327.04        108.9161
327.49        109.3865
327.94        109.8669
328.39        110.3331
328.85        110.7328
329.30        111.1044
329.75         111.372
330.20        111.5292
330.66         111.564
331.11        111.5862
331.56        111.6482
332.01        111.7938
332.46        112.0337
332.92        112.3198
333.37        112.6926
333.82         113.105
334.27         113.553
334.72        114.0709
335.17        114.7162
335.63        115.4423
336.08        116.2643
336.53        117.0119
336.98        117.4778
337.43        117.6225
337.88        117.5167
338.34        117.3088
338.79        117.2736
339.24        117.4897
339.69        117.9092
340.14        118.4585
340.59         119.002
341.05        119.4887
341.50         119.972
341.95        120.4775
342.40        121.0574
342.85        121.7104
343.30        122.3835
343.75        123.0155
344.20        123.5275
344.66        123.9141
345.11        124.1852
345.56         124.379
346.01        124.5448
346.46        124.7168
346.91        124.8942
347.36        125.1136
347.81        125.4273
348.26        125.8378
348.72        126.3318
349.17        126.8306
349.62        127.2368
350.07        127.5107
350.52        127.6566
350.97        127.7071
351.42        127.7273
351.87        127.7288
352.32        127.6888
352.77        127.5626
353.22        127.2843
353.67        126.8607
354.13        126.3686
354.58        125.8434
355.03        125.4087
355.48        125.1024
355.93        124.9049
356.38        124.7804
356.83        124.6723
357.28        124.5422
357.73        124.3678
358.18        124.1547
358.63        123.9184
359.08        123.6482
359.53        123.3374
359.98        122.8832
360.43         122.139
360.88         121.099
361.33        119.8146
361.78        118.5052
362.23        117.4967
362.68        116.8548
363.13        116.5087
363.58        116.1933
364.03        115.4811
364.48        114.2964
364.93        112.7793
365.38        111.2703
365.83        110.2848
366.28        109.9242
366.73        110.0255
367.18        110.2286
367.63        109.9568
368.08        109.0713
368.53        107.7545
368.98        106.3583
369.43        105.4094
369.88         105.024
370.33        105.0351
370.78        105.1308
371.23        104.8039
371.68        103.9239
372.13        102.6621
372.58        101.3309
373.03        100.3862
373.48        99.92494
373.93         99.7956
374.38        99.72046
374.83        99.26135
375.28        98.31647
375.72        97.01657
376.17         95.7034
376.62        94.71551
377.07        94.12202
377.52        93.80347
377.97        93.55486
378.42        93.06659
378.87        92.28283
379.32         91.3295
379.77         90.4097
380.22        89.78802
380.67        89.49963
381.11        89.46488
381.56        89.46389
382.01        89.21392
382.46        88.65282
382.91        87.89231
383.36        87.11626
383.81        86.58284
384.26        86.33768
384.71        86.28432
385.15        86.27737
385.60        86.12312
386.05        85.75315
386.50        85.23154
386.95        84.64815
387.40        84.13136
387.85        83.72588
388.29        83.36833
388.74        83.06758
389.19        82.65367
389.64        82.09911
390.09        81.43732
390.54        80.82298
390.98        80.41862
391.43        80.28864
391.88        80.51281
392.33        80.85079
392.78        80.50372
393.23        79.63457
393.67        79.28469
394.12        79.52054
394.57        79.12076
395.02        78.81856
395.47        78.61187
395.91        78.68414
396.36        78.60174
396.81        78.36784
397.26        78.15396
397.71        77.93356
398.15        77.67102
398.60         77.4694
399.05        77.08013
399.50        76.62143
399.95        76.72048
400.39        77.20297
400.84        76.88033
401.29        75.91026
401.74        75.49536
402.18        75.69577
402.63        75.82506
403.08        75.88897
403.53        75.60007
403.97        75.99396
404.42         76.0641
404.87         76.0724
405.32        75.92358
405.76        75.61039
406.21        75.24786
406.66         74.8502
407.11        74.40183
407.55        74.03083
408.00        73.81665
408.45        73.77502
408.90        74.08741
409.34        74.48398
409.79        74.07504
410.24        73.11396
410.68        72.77206
411.13        73.12484
411.58        73.53822
412.03        73.77441
412.47        73.73499
412.92        73.32996
413.37        72.62753
413.81        71.90296
414.26        71.62749
414.71        71.83952
415.15        72.46043
415.60        73.15316
416.05        73.40282
416.49        73.06853
416.94        72.34624
417.39        71.57249
417.83        71.22398
418.28        71.41724
418.73        71.98581
419.17        72.71191
419.62        73.17296
420.07        73.22931
420.51        72.98318
420.96        72.61277
421.41        72.23471
421.85        71.87741
422.30        71.76551
422.74        71.76513
423.19        71.35961
423.64        70.68532
424.08        70.82816
424.53        71.73931
424.98        71.88692
425.42        72.15366
425.87        72.39552
426.31        72.85692
426.76        72.80164
427.21        72.42139
427.65        72.61176
428.10        73.16093
428.54        73.56609
428.99        73.11664
429.44        72.64668
429.88        72.15565
430.33         72.5048
430.77        73.30762
431.22        73.23001
431.66        72.37572
432.11        72.06721
432.56         72.3695
433.00        72.71666
433.45        72.92091
433.89        73.43282
434.34        71.03846
434.78        73.32829
435.23        73.71235
435.67        71.94651
436.12        71.72292
436.57        71.64999
437.01        72.95811
437.46        73.98438
437.90        73.35797
438.35        73.05927
438.79        73.33039
439.24        73.17381
439.68        72.78355
440.13        72.55277
440.57        72.57502
441.02        72.44314
441.46        72.18447
441.91        72.81467
442.35        73.84375
442.80        73.43192
443.24        71.97697
443.69        72.17315
444.13        73.78091
444.58         74.2904
445.02        73.59402
445.47        73.09819
445.91        72.98289
446.36        72.97262
446.80        73.08817
447.24        73.40486
447.69        73.78276
448.13        73.99261
448.58        73.99124
449.02        73.81661
449.47        73.57362
449.91        73.38938
450.36        73.32475
450.80        73.30321
451.25        73.32047
451.69         73.3372
452.13        73.34466
452.58        73.36863
453.02          73.367
453.47        73.29998
453.91        73.15382
454.36        72.93912
454.80        72.69751
455.24         72.5815
455.69        72.63783
456.13        72.69045
456.58         72.6534
457.02        72.96957
457.46        72.56978
457.91        72.39451
458.35        72.14168
458.79        72.08632
459.24        72.14376
459.68        71.81226
460.13        71.22032
460.57        70.91615
461.01        70.98528
461.46         70.8587
461.90        70.55674
462.34        71.01907
462.79        70.35983
463.23        70.39622
463.68         70.5186
464.12        70.51501
464.56        70.35285
465.01        70.24369
465.45        70.20197
465.89        70.17761
466.34        70.15331
466.78        70.26661
467.22        70.60493
467.67        69.91376
468.11        70.43155
468.55         70.2136
468.99        69.96777
469.44        69.78551
469.88        69.71512
470.32        69.67528
470.77        69.62676
471.21        69.61143
471.65        69.59127
472.10        69.54806
472.54        69.50242
472.98        69.44175
473.42        69.34666
473.87        69.44904
474.31        69.57008
474.75        69.00791
475.20        68.02523
475.64        67.78642
476.08        68.25423
476.52        68.33634
476.97        67.97155
477.41        67.99379
477.85        68.30379
478.29        68.24876
478.74        68.59878
479.18        69.02611
479.62        69.00993
480.06         69.0309
480.50        68.77589
480.95        68.71696
481.39        68.98457
481.83        67.82354
482.27        67.73925
482.72         68.6443
483.16        68.15315
483.60        68.09886
484.04        68.17758
484.48        68.55802
484.93        67.73032
485.37        68.64047
485.81        69.46204
486.25        68.96891
486.69        71.09117
487.14        71.26245
487.58        67.84631
488.02        68.23678
488.46        69.25983
488.90        67.45206
489.34        68.05529
489.79        68.01778
490.23        68.22971
490.67         68.4872
491.11        68.51405
491.55        68.40731
491.99        68.16703
492.43        68.01621
492.88        67.98634
493.32        68.02165
493.76         68.0826
494.20        68.09139
494.64        68.00983
495.08         68.0087
495.52        68.11494
495.96        67.88766
496.41        67.49043
496.85        68.05544
497.29        69.23722
497.73         69.1301
498.17        67.90279
498.61        67.57561
499.05        68.17957
499.49        68.24067
499.93        67.73921
500.37        67.51173
500.82        67.55975
501.26        67.48392
501.70        67.30405
502.14        67.26765
502.58        67.34782
503.02        67.36124
503.46        67.29443
503.90        67.22691
504.34          67.177
504.78        67.14358
505.22        67.12429
505.66        67.13212
506.10        67.13039
506.54          67.094
506.98        67.02166
507.42        67.10542
507.86        66.51071
508.30         67.1612
508.74        66.58205
509.18        66.60448
509.62          66.594
510.06        66.64796
510.50        66.81824
510.94        67.04559
511.38        67.27125
511.82        67.30344
512.26        67.11967
512.70         66.7859
513.14          66.416
513.58        66.19328
514.02        66.16212
514.46        66.25534
514.90        66.42411
515.34        66.58352
515.78        66.69636
516.22        66.80398
516.66        66.85621
517.10        66.77017
517.54         66.5517
517.98        66.21994
518.42        65.92074
518.86        65.89352
519.30        66.17536
519.74        66.68913
520.18        67.24677
520.62        67.53499
521.06        67.47275
521.50          67.156
521.93        66.72973
522.37        66.44595
522.81        66.36976
523.25        66.42114
523.69        66.53101
524.13        66.59077
524.57         66.5687
525.01        66.52168
525.45        66.46002
525.89        66.38927
526.32        66.31649
526.76        66.23511
527.20        66.18916
527.64        66.26138
528.08        66.45678
528.52           66.75
528.96        67.04129
529.40        67.17113
529.83          67.096
530.27        66.87444
530.71        66.61364
531.15        66.49281
531.59        66.55208
532.03        66.74346
532.46        66.95493
532.90        67.00745
533.34        66.87127
533.78        66.62498
534.22        66.37917
534.66        66.29195
535.09         66.3796
535.53        66.58017
535.97        66.82251
536.41        66.94781
536.85        66.90366
537.28        66.91739
537.72        66.94405
538.16         66.5046
538.60        65.83089
539.04        65.83416
539.47        66.39305
539.91        66.63523
540.35        66.39861
540.79        66.32587
541.22        66.38561
541.66        66.37695
542.10        66.30826
542.54        66.13885
542.97        65.94273
543.41        66.09201
543.85        66.47929
544.29        66.56504
544.72        66.34097
545.16        66.25824
545.60        66.31683
546.04          66.279
546.47        66.13453
546.91        66.03549
547.35        66.00237
547.79        65.90892
548.22        65.81852
548.66        66.07957
549.10        66.57946
549.53        66.84903
549.97        66.82922
550.41        66.82765
550.84          66.836
551.28        66.63577
551.72        66.28979
552.15         66.0526
552.59        65.97508
553.03         65.8831
553.46        65.77735
553.90        65.81995
554.34         65.9678
554.77        66.08736
555.21        66.17498
555.65        66.27335
556.08        66.35635
556.52        66.45664
556.96        66.54606
557.39        66.40112
557.83        66.34522
558.27        66.27053
558.70        66.26462
559.14         66.3588
559.57        66.48048
560.01        66.39632
560.45        66.16949
560.88        66.18517
561.32        66.41315
561.75        66.47084
562.19        66.39643
562.63        66.18801
563.06         65.9491
563.50        66.29759
563.93        67.00592
564.37        66.83282
564.80        65.94981
565.24        65.85528
565.68        66.44707
566.11        66.58186
566.55        66.27796
566.98        66.10086
567.42        66.11073
567.85        66.42752
568.29        66.53284
568.72        66.53772
569.16        66.42947
569.60        66.43418
570.03         66.5003
570.47        66.72095
570.90        67.12325
571.34        66.47267
571.77        67.36472
572.21        67.11642
572.64        67.37582
573.08        66.85898
573.51        67.00906
573.95        66.89319
574.38        67.10909
574.82        66.51859
