SpectraSmart Spectrum 2.9.0.0
--------- Device Information -----------
Spectrum Name :  反射率_0
Saving Time :  2024/05/03 20:14:18
Spectro-Module Model Name : SE2030-DUVN
Spectro-Module Serial Number : OS361AC55029948
Wavelength Start : 200
Wavelength End : 1025
Wavelength Unit : Wavelength(nm)
Spectrum Unit : Reflectance(%)
-----------Spectrum Setting ------------
Integration Time : 20ms
Average : 10
Boxcar : 0
Background removal :  enabled
linearity correction :  enabled
SC :  disabled
Intensity correction :  disabled
DWT denoise :  enabled
savitzky-golay :  disabled
FFT :  disabled
Running average :  disabled
Kalman :  disabled
High pass :  disabled
---------------BEGIN--------------------
Wavelength(nm)             Reflectance(%)
200.29               0
200.75         -48.853
201.21       -96.71812
201.67        3231.494
202.13        130.5693
202.58        90.26556
203.04        81.89058
203.50        83.05765
203.96        91.39075
204.42        112.1786
204.88        191.9595
205.34       -2684.158
205.80       -210.7789
206.26       -230.5165
206.72       -58088.34
207.18        225.5011
207.64        155.3606
208.10          162.45
208.55        259.1738
209.01        1239.532
209.47        1557.028
209.93        245.9737
210.39        117.9004
210.85        85.66142
211.31        80.18067
211.77        88.77451
212.23         119.746
212.69         202.193
213.14        251.0918
213.60        134.7829
214.06        62.47128
214.52        36.44345
214.98        32.86168
215.44        46.82914
215.90        116.4283
216.36       -897.7995
216.81       -190.2964
217.27       -189.5014
217.73       -305.7821
218.19       -1032.052
218.65       -19974.52
219.11       -1453.945
219.57       -399.4009
220.02       -239.2894
220.48       -399.8874
220.94         440.675
221.40         133.071
221.86         88.7831
222.32        78.47295
222.77        80.36281
223.23        92.33824
223.69        113.6986
224.15        125.7484
224.61        115.1031
225.06        96.02985
225.52         83.6701
225.98         83.5861
226.44         94.4014
226.90        114.5639
227.36        140.2975
227.81        155.1951
228.27        149.4575
228.73        132.4055
229.19        113.6367
229.65        100.0984
230.10        91.82925
230.56        86.90774
231.02        84.21117
231.48        83.15919
231.93        83.21564
232.39        84.65762
232.85        86.81359
233.31        88.87884
233.77        90.61806
234.22        91.90211
234.68        93.30892
235.14        95.91551
235.60         99.9611
236.05        105.5627
236.51        110.8145
236.97        112.2628
237.43        109.1864
237.88        102.9393
238.34        97.13805
238.80        96.42011
239.26        102.6288
239.71        118.5655
240.17        148.0195
240.63        181.2023
241.08         197.235
241.54        185.7633
242.00        163.5862
242.46        154.5841
242.91        164.4053
243.37        193.7736
243.83        250.8378
244.28        313.9611
244.74        319.8987
245.20        272.2337
245.66        209.9249
246.11        166.1752
246.57        143.1769
247.03        129.1513
247.48         120.986
247.94        116.1122
248.40        112.4564
248.85        111.0467
249.31         109.658
249.77        103.8047
250.22        95.27571
250.68        87.82073
251.14        84.25895
251.59        87.69072
252.05         99.5338
252.51        122.0224
252.96        158.6879
253.42        199.5453
253.88        224.3585
254.33        227.9606
254.79        215.0044
255.25        193.6912
255.70         172.846
256.16        157.1979
256.62        146.9302
257.07        142.0166
257.53        141.4583
257.99        142.5424
258.44        143.7808
258.90        144.6892
259.35        144.1411
259.81        143.5619
260.27        142.0486
260.72        138.7496
261.18        135.0124
261.63        130.7174
262.09        127.4036
262.55        125.6604
263.00        125.0418
263.46        125.2016
263.91        125.1884
264.37        124.4063
264.83        122.6153
265.28        120.1781
265.74        117.4378
266.19        114.1875
266.65        110.8321
267.11        107.2811
267.56        104.0251
268.02        101.9774
268.47        101.0784
268.93        101.1343
269.38        101.3861
269.84        100.5615
270.30        98.45618
270.75        95.49734
271.21         92.5966
271.66        90.85107
272.12        90.44067
272.57        90.80189
273.03        91.31451
273.48        91.00168
273.94        89.66243
274.39        87.70671
274.85        85.41035
275.31        82.93265
275.76        80.43678
276.22        78.02034
276.67        76.00529
277.13        75.12331
277.58        75.19019
278.04        76.00661
278.49        76.75968
278.95        76.28414
279.40        74.35232
279.86        71.63902
280.31        68.76572
280.77        66.78139
281.22        65.67621
281.68        65.20937
282.13        64.98334
282.59        64.60339
283.04          63.897
283.50        63.09452
283.95        62.27089
284.41        61.63111
284.86        61.16081
285.32        60.83195
285.77        60.52822
286.22          60.217
286.68        59.90666
287.13        59.55342
287.59        59.25246
288.04        58.99916
288.50         58.8374
288.95        58.70413
289.41        58.56573
289.86        58.28714
290.32        57.91006
290.77        57.45388
291.22        57.06187
291.68         56.9026
292.13        56.99757
292.59        57.36746
293.04         57.9273
293.50         58.5532
293.95        59.19286
294.40        59.86689
294.86        60.72371
295.31        61.96515
295.77        63.61917
296.22        65.57861
296.68        67.57472
297.13        69.15783
297.58        70.18597
298.04        70.84225
298.49        71.32265
298.95        72.04044
299.40        73.07482
299.85        74.32854
300.31        75.79741
300.76        77.40556
301.21        79.12009
301.67        80.98901
302.12        82.80795
302.58        84.31818
303.03        85.42798
303.48         86.2195
303.94        87.01602
304.39        88.17881
304.84        89.82668
305.30        91.83037
305.75        93.85316
306.20        95.43515
306.66        96.50858
307.11        97.18861
307.57        97.77392
308.02        98.52921
308.47        99.58704
308.93        100.8341
309.38        102.1476
309.83        103.4689
310.29        104.7426
310.74        105.9668
311.19        107.0527
311.65        107.8306
312.10        108.2565
312.55        108.3867
313.00        108.3725
313.46        108.4747
313.91        108.7374
314.36        109.1449
314.82        109.6424
315.27        110.0933
315.72        110.4785
316.18        110.8463
316.63        111.2383
317.08        111.7391
317.53        112.3556
317.99         113.019
318.44        113.6804
318.89        114.1996
319.35        114.5335
319.80        114.7262
320.25        114.8208
320.70        114.9133
321.16        115.0207
321.61        115.1391
322.06        115.2587
322.51        115.3712
322.97        115.4619
323.42         115.578
323.87        115.6785
324.32        115.7067
324.78        115.6504
325.23        115.5743
325.68        115.5419
326.13        115.6807
326.59        115.9879
327.04        116.4746
327.49        117.0525
327.94        117.6178
328.39        118.1125
328.85        118.5027
329.30        118.8355
329.75         119.032
330.20        119.0942
330.66        119.0145
331.11        118.9053
331.56         118.821
332.01        118.8134
332.46        118.8891
332.92        119.0497
333.37        119.4234
333.82        119.9666
334.27        120.6489
334.72        121.3866
335.17        122.0368
335.63        122.5058
336.08        122.8736
336.53        123.1083
336.98         123.238
337.43        123.2971
337.88        123.2963
338.34        123.2947
338.79        123.4169
339.24        123.6888
339.69        124.1055
340.14        124.6297
340.59        125.1838
341.05         125.727
341.50        126.2728
341.95        126.8169
342.40        127.3748
342.85        127.9389
343.30        128.4862
343.75         128.966
344.20        129.3108
344.66        129.5333
345.11        129.6413
345.56        129.7176
346.01        129.8797
346.46         130.157
346.91        130.5119
347.36        130.8982
347.81        131.2368
348.26        131.5023
348.72        131.7328
349.17        131.9027
349.62        132.0019
350.07        132.0349
350.52        131.9903
350.97        131.9249
351.42         131.942
351.87        132.0371
352.32        132.1507
352.77        132.1789
353.22        131.9588
353.67        131.4643
354.13         130.806
354.58        130.0032
355.03        129.1609
355.48        128.3531
355.93        127.5958
356.38         126.978
356.83        126.6336
357.28        126.5573
357.73        126.6615
358.18        126.8343
358.63        126.8919
359.08        126.7465
359.53        126.4289
359.98        125.8564
360.43        124.9254
360.88        123.6591
361.33        122.1015
361.78        120.5014
362.23        119.2343
362.68        118.3857
363.13        117.8879
363.58         117.481
364.03         116.733
364.48        115.5588
364.93        114.0937
365.38        112.6456
365.83        111.6802
366.28        111.2835
366.73        111.2939
367.18        111.3737
367.63        110.9926
368.08        110.0231
368.53        108.6339
368.98        107.1539
369.43        106.0717
369.88        105.4983
370.33          105.29
370.78         105.164
371.23        104.6583
371.68        103.6686
372.13         102.365
372.58        101.0538
373.03         100.181
373.48        99.82899
373.93        99.82939
374.38        99.90543
374.83         99.6183
375.28        98.84971
375.72        97.72555
376.17        96.52218
376.62        95.48719
377.07        94.69304
377.52        94.05694
377.97        93.50352
378.42        92.93611
378.87        92.33657
379.32        91.75149
379.77        91.23943
380.22        90.85786
380.67        90.59493
381.11        90.43143
381.56         90.2221
382.01         89.8199
382.46         89.2073
382.91        88.44652
383.36        87.68693
383.81        87.13584
384.26        86.82913
384.71        86.71123
385.15        86.63934
385.60        86.41498
386.05        85.97964
386.50        85.38901
386.95        84.78313
387.40        84.37202
387.85        84.18906
388.29        84.12222
388.74        84.08121
389.19        83.75156
389.64        83.08914
390.09        82.19263
390.54        81.28944
390.98         80.6616
391.43        80.41973
391.88        80.60041
392.33        80.96656
392.78        80.75424
393.23        80.10495
393.67        80.00459
394.12        80.41082
394.57        80.25665
395.02        79.59661
395.47        79.25856
395.91        79.25806
396.36         79.0438
396.81        78.64952
397.26        78.38039
397.71        78.17669
398.15        77.91019
398.60        77.68675
399.05        77.17159
399.50        76.56454
399.95        76.88279
400.39        77.84629
400.84         77.5518
401.29        76.19328
401.74        75.73545
402.18        76.22299
402.63         76.3494
403.08         76.1347
403.53        75.72446
403.97        76.18092
404.42        76.30619
404.87         76.3486
405.32        76.26009
405.76        76.02242
406.21        75.72394
406.66        75.37897
407.11        74.99356
407.55        74.67149
408.00        74.44955
408.45        74.35112
408.90         74.5471
409.34        74.83283
409.79        74.51049
410.24        73.76907
410.68        73.49865
411.13        73.75462
411.58        74.05538
412.03        74.19987
412.47        74.08604
412.92        73.64428
413.37        72.94579
413.81        72.24663
414.26        71.98994
414.71        72.20748
415.15        72.82752
415.60        73.52405
416.05        73.80286
416.49        73.52104
416.94        72.85584
417.39        72.12603
417.83         71.7842
418.28        71.94419
418.73        72.45757
419.17        73.10313
419.62         73.4526
420.07        73.37451
420.51        72.97596
420.96        72.49048
421.41        72.08437
421.85        71.77973
422.30        71.85978
422.74        72.08321
423.19        71.61511
423.64        70.69121
424.08        70.83169
424.53        71.90572
424.98        72.41693
425.42        72.24764
425.87        72.27563
426.31        72.58368
426.76         72.6713
427.21        72.64709
427.65        73.02528
428.10        73.59029
428.54        73.74868
428.99        73.51035
429.44        72.92778
429.88        72.24859
430.33        72.32363
430.77        72.85925
431.22         72.8469
431.66        72.26081
432.11        71.80026
432.56        71.59986
433.00          71.767
433.45        72.16119
433.89        72.95629
434.34        70.85759
434.78        72.99168
435.23        73.21632
435.67         71.8389
436.12        71.37394
436.57        71.51958
437.01        73.11332
437.46        73.77709
437.90        73.46898
438.35        72.78108
438.79        73.06754
439.24        72.78942
439.68        72.34631
440.13        72.15366
440.57        72.26923
441.02        72.04931
441.46        71.57935
441.91        72.35533
442.35        73.73952
442.80        73.21947
443.24        71.26665
443.69        71.21665
444.13        72.88315
444.58        73.38861
445.02        72.62807
445.47        72.23503
445.91        72.34056
446.36        72.43109
446.80        72.49114
447.24        72.84902
447.69         73.0938
448.13        73.15721
448.58        73.12489
449.02        72.86799
449.47         72.5707
449.91        72.39959
450.36        72.42005
450.80        72.53902
451.25        72.70567
451.69         72.8084
452.13        72.82135
452.58        72.79122
453.02        72.71452
453.47        72.61432
453.91        72.49137
454.36        72.33696
454.80        72.17664
455.24        72.09756
455.69        72.12602
456.13        72.18741
456.58        72.21488
457.02        72.31534
457.46        71.94053
457.91         71.7877
458.35        71.64957
458.79         71.6184
459.24        71.62497
459.68        71.16559
460.13        70.39385
460.57        70.16457
461.01        70.65649
461.46         70.1874
461.90        70.46773
462.34         71.2411
462.79        69.77118
463.23        69.60494
463.68        69.79407
464.12        69.89677
464.56        69.80383
465.01        69.80083
465.45        69.87467
465.89        69.81006
466.34        69.60593
466.78        69.71929
467.22        70.23631
467.67        69.14352
468.11        69.39883
468.55        69.31466
468.99        69.66599
469.44           69.74
469.88        69.52968
470.32        69.36506
470.77        69.26082
471.21        69.18171
471.65        69.11277
472.10        69.05427
472.54        69.01658
472.98        68.96648
473.42        68.87857
473.87        69.00905
474.31        69.17712
474.75        68.63077
475.20          67.651
475.64        67.50082
476.08        68.09489
476.52        68.24194
476.97        67.86472
477.41        67.86934
477.85        67.85931
478.29        68.23013
478.74        67.91296
479.18        68.75159
479.62        68.42162
480.06        68.48763
480.50          68.267
480.95        68.23496
481.39          68.492
481.83        67.37252
482.27        67.62323
482.72        68.00283
483.16        67.62937
483.60        67.73946
484.04        67.94827
484.48        67.85414
484.93        67.44052
485.37        68.20635
485.81        68.86211
486.25        67.93086
486.69        70.16625
487.14        70.05263
487.58        67.30795
488.02        67.42991
488.46        68.59681
488.90        67.25954
489.34         67.4494
489.79        67.32714
490.23        67.80235
490.67        68.05267
491.11         67.9323
491.55        67.69487
491.99        67.39518
492.43        67.22882
492.88        67.22812
493.32        67.32639
493.76        67.46947
494.20        67.54992
494.64        67.51594
495.08        67.59007
495.52        67.75209
495.96        67.39809
496.41        66.74635
496.85        67.14371
497.29        68.29103
497.73        68.25281
498.17        67.13856
498.61        66.83784
499.05        67.40278
499.49        67.41161
499.93        66.86108
500.37        66.84481
500.82        67.30486
501.26        66.91093
501.70        66.42812
502.14         66.5424
502.58        66.69324
503.02        66.85168
503.46        66.77699
503.90        66.81668
504.34         66.9285
504.78        66.92465
505.22        66.80169
505.66        66.59014
506.10        66.32874
506.54        66.22752
506.98        66.33929
507.42        66.34404
507.86        66.10667
508.30        66.85201
508.74        66.21687
509.18        66.11629
509.62        65.93946
510.06        65.88502
510.50        65.96564
510.94        66.15865
511.38        66.38046
511.82        66.43181
512.26        66.28004
512.70         65.9896
513.14        65.67048
513.58        65.49434
514.02        65.49938
514.46        65.62193
514.90        65.78808
515.34        65.87601
515.78        65.85211
516.22         65.7749
516.66        65.65981
517.10         65.5267
517.54        65.39829
517.98        65.25836
518.42        65.18027
518.86        65.28599
519.30        65.58016
519.74        66.02021
520.18        66.45959
520.62        66.65571
521.06        66.55357
521.50        66.22687
521.93        65.81345
522.37        65.55521
522.81        65.51104
523.25        65.60905
523.69        65.77082
524.13        65.86923
524.57        65.86771
525.01        65.82245
525.45        65.75626
525.89        65.69827
526.32        65.66274
526.76        65.63642
527.20        65.64288
527.64        65.75047
528.08        65.95944
528.52        66.19721
528.96        66.39543
529.40         66.5601
529.83        66.60069
530.27        66.30953
530.71        65.81657
531.15        65.55741
531.59        65.58778
532.03        65.71543
532.46        65.84821
532.90        65.90561
533.34        65.85867
533.78        65.75124
534.22        65.64701
534.66         65.6359
535.09        65.71856
535.53        65.85192
535.97        65.99982
536.41        66.06213
536.85        66.00459
537.28        66.03787
537.72        66.09447
538.16        65.65611
538.60        64.94373
539.04         64.8881
539.47        65.39742
539.91        65.58707
540.35        65.41164
540.79        65.40313
541.22        65.53807
541.66        65.57781
542.10        65.52008
542.54        65.33516
542.97        65.11147
543.41        65.24181
543.85        65.62811
544.29        65.73185
544.72        65.53357
545.16        65.46188
545.60        65.50922
546.04        65.44427
546.47        65.27367
546.91        65.15179
547.35        65.10039
547.79        65.05483
548.22        65.04128
548.66        65.21143
549.10        65.51333
549.53        65.80315
549.97        66.00259
550.41        66.09675
550.84        66.05412
551.28        65.86016
551.72        65.56223
552.15          65.262
552.59        65.03462
553.03        64.84187
553.46        64.69729
553.90         64.6997
554.34        64.81128
554.77         64.9342
555.21        65.06082
555.65        65.21931
556.08        65.36984
556.52        65.52393
556.96        65.62539
557.39        65.51962
557.83          65.304
558.27        65.23307
558.70        65.30854
559.14         65.4142
559.57        65.47662
560.01        65.37269
560.45         65.1654
560.88         65.1852
561.32        65.41439
561.75        65.47096
562.19         65.4019
562.63        65.30669
563.06        65.22659
563.50        65.52123
563.93        66.01897
564.37         65.7822
564.80         64.9972
565.24        65.01181
565.68        65.68221
566.11        65.71622
566.55        65.45934
566.98        65.04082
567.42        64.73099
567.85         65.0435
568.29        65.41399
568.72        65.49083
569.16        65.24844
569.60        65.24212
570.03        65.33054
570.47        65.64547
570.90        65.83514
571.34        65.26924
571.77        66.30396
572.21        65.77155
572.64        66.22108
573.08        65.50031
573.51        66.17982
573.95        65.82114
574.38        65.44373
574.82        64.77628
