SpectraSmart Spectrum 2.9.0.0
--------- Device Information -----------
Spectrum Name :  反射率_0
Saving Time :  2024/05/03 20:13:32
Spectro-Module Model Name : SE2030-DUVN
Spectro-Module Serial Number : OS361AC55029948
Wavelength Start : 200
Wavelength End : 1025
Wavelength Unit : Wavelength(nm)
Spectrum Unit : Reflectance(%)
-----------Spectrum Setting ------------
Integration Time : 20ms
Average : 10
Boxcar : 0
Background removal :  enabled
linearity correction :  enabled
SC :  disabled
Intensity correction :  disabled
DWT denoise :  enabled
savitzky-golay :  disabled
FFT :  disabled
Running average :  disabled
Kalman :  disabled
High pass :  disabled
---------------BEGIN--------------------
Wavelength(nm)             Reflectance(%)
200.29               0
200.75       -39.93167
201.21       -89.06161
201.67        3296.401
202.13        130.5855
202.58        81.23775
203.04        65.19839
203.50          60.163
203.96        64.57796
204.42         83.0406
204.88        156.9125
205.34       -2586.476
205.80       -245.1688
206.26       -304.8037
206.72       -81669.52
207.18        317.9252
207.64        210.6885
208.10        203.1831
208.55        274.8271
209.01        1027.043
209.47        1177.555
209.93        221.5976
210.39        133.4526
210.85        112.9296
211.31         111.038
211.77        119.7474
212.23        147.3459
212.69        218.2266
213.14        255.0723
213.60        150.4159
214.06        88.35023
214.52        66.65427
214.98         64.0519
215.44        76.74237
215.90        138.6406
216.36       -782.9227
216.81       -151.5246
217.27        -167.978
217.73       -321.6023
218.19       -1240.723
218.65       -24879.18
219.11       -1700.462
219.57       -395.6829
220.02       -182.9531
220.48       -272.0971
220.94        349.1205
221.40        130.9186
221.86        101.4118
222.32        94.48785
222.77        95.16759
223.23        102.4988
223.69        116.3167
224.15         125.456
224.61         120.893
225.06        110.1796
225.52        103.3363
225.98        104.2017
226.44        112.1808
226.90        126.1844
227.36        143.7578
227.81        154.0751
228.27        150.1874
228.73        138.2247
229.19        124.4123
229.65        113.1561
230.10         104.732
230.56        98.71107
231.02          94.396
231.48        91.53056
231.93        89.73905
232.39         89.1379
232.85        89.43205
233.31        90.45942
233.77         92.0548
234.22        94.01865
234.68        96.26662
235.14        98.68765
235.60        101.1942
236.05        104.0455
236.51        106.3787
236.97        106.9827
237.43        105.7312
237.88        103.1493
238.34        101.0807
238.80         102.123
239.26        107.5891
239.71        119.7563
240.17        141.9832
240.63        168.4177
241.08          184.81
241.54        181.5995
242.00        169.0862
242.46        164.7903
242.91        173.8065
243.37        196.4176
243.83        238.9165
244.28        286.1386
244.74        291.0493
245.20        256.9336
245.66        210.6023
246.11        174.3398
246.57        151.0702
247.03        133.3712
247.48        121.3036
247.94        114.8872
248.40        112.4569
248.85        114.3298
249.31        117.3264
249.77        114.5111
250.22        106.6993
250.68        98.57862
251.14        95.02345
251.59        101.4211
252.05        120.0489
252.51        154.1759
252.96          206.23
253.42        255.4097
253.88        272.7467
254.33        258.7463
254.79        229.3914
255.25        200.4409
255.70        178.3316
256.16        163.7605
256.62        154.4446
257.07        148.8595
257.53        146.3882
257.99        145.1303
258.44        144.3247
258.90        144.3256
259.35        143.9219
259.81        143.9391
260.27        143.0974
260.72        140.2095
261.18        136.5845
261.63        132.2461
262.09        128.7825
262.55        126.7901
263.00        125.8596
263.46        125.6706
263.91        125.3156
264.37        124.2831
264.83         122.352
265.28        119.8452
265.74        117.1257
266.19        114.0079
266.65        110.8739
267.11        107.6245
267.56        104.6263
268.02        102.6233
268.47         101.534
268.93        101.1919
269.38        101.0253
269.84        100.0833
270.30        98.22667
270.75        95.79579
271.21        93.41915
271.66        91.78475
272.12        91.02179
272.57         90.6977
273.03        90.52862
273.48        90.08968
273.94        89.26444
274.39         88.2198
274.85        86.85441
275.31         84.7923
275.76        82.11909
276.22        79.18181
276.67        76.52621
277.13        75.16654
277.58        74.98678
278.04        75.66866
278.49         76.4186
278.95        76.11003
279.40        74.46725
279.86        72.14097
280.31        69.57758
280.77        67.59371
281.22        66.18113
281.68        65.19271
282.13        64.42051
282.59        63.76939
283.04        63.12232
283.50        62.59281
283.95        62.11998
284.41        61.70724
284.86        61.29198
285.32        60.92994
285.77        60.53726
286.22        60.12586
286.68        59.73328
287.13        59.28991
287.59        58.94804
288.04        58.79696
288.50        58.87609
288.95        59.08685
289.41        59.28249
289.86        59.14286
290.32         58.6785
290.77        57.97814
291.22        57.29214
291.68        56.94471
292.13        56.99446
292.59        57.40981
293.04        58.06623
293.50        58.77438
293.95        59.45479
294.40        60.15474
294.86        61.01389
295.31        62.21568
295.77        63.79184
296.22        65.63627
296.68        67.51979
297.13        69.06271
297.58        70.14214
298.04        70.92892
298.49        71.57387
298.95        72.41936
299.40        73.53084
299.85        74.82826
300.31        76.35186
300.76        78.09744
301.21        80.03376
301.67        82.16659
302.12        84.22953
302.58        85.87144
303.03         86.9837
303.48        87.69723
303.94        88.37089
304.39        89.41191
304.84        90.96647
305.30        92.89404
305.75        94.89664
306.20         96.5761
306.66        97.85535
307.11        98.81224
307.57        99.66551
308.02        100.5559
308.47        101.5965
308.93        102.7236
309.38        103.8602
309.83        105.0226
310.29        106.1892
310.74        107.3377
311.19        108.4089
311.65        109.2798
312.10        109.8969
312.55        110.2933
313.00        110.5431
313.46        110.7853
313.91         111.039
314.36        111.3288
314.82        111.6525
315.27        111.9628
315.72        112.2738
316.18        112.6073
316.63        113.0123
317.08        113.5818
317.53        114.3176
317.99        115.1594
318.44        116.0074
318.89        116.6306
319.35         116.964
319.80        117.0624
320.25        117.0485
320.70        117.1518
321.16        117.4142
321.61        117.7961
322.06        118.1748
322.51         118.355
322.97        118.2806
323.42        118.0562
323.87        117.7788
324.32        117.6154
324.78        117.6069
325.23        117.7518
325.68        117.9805
326.13         118.198
326.59        118.3414
327.04        118.4973
327.49        118.6915
327.94        119.0092
328.39        119.4582
328.85        119.9545
329.30        120.4804
329.75        120.8425
330.20        121.0021
330.66        120.9844
331.11         120.943
331.56        120.9964
332.01        121.2044
332.46        121.5301
332.92        121.9223
333.37        122.4339
333.82        122.9997
334.27        123.6253
334.72        124.2475
335.17        124.7585
335.63        125.0898
336.08        125.3107
336.53        125.4456
336.98        125.6151
337.43        125.8538
337.88        126.1383
338.34        126.4042
338.79        126.5714
339.24        126.6269
339.69        126.6433
340.14        126.6974
340.59         126.903
341.05        127.2841
341.50        127.7932
341.95        128.4156
342.40        129.1456
342.85        129.9412
343.30        130.7865
343.75        131.5274
344.20        131.9254
344.66        131.9681
345.11        131.7107
345.56        131.3819
346.01        131.3365
346.46        131.6587
346.91        132.2435
347.36          132.93
347.81        133.4504
348.26        133.7296
348.72        133.8692
349.17        133.9168
349.62        133.9772
350.07        134.0839
350.52        134.1736
350.97        134.2596
351.42        134.3857
351.87        134.5256
352.32        134.6464
352.77        134.6502
353.22        134.3771
353.67         133.816
354.13        133.0853
354.58         132.224
355.03        131.3752
355.48        130.6101
355.93          129.91
356.38        129.3598
356.83        129.0853
357.28        129.0654
357.73        129.2251
358.18        129.3699
358.63         129.183
359.08        128.5827
359.53        127.6631
359.98          126.53
360.43        125.3751
360.88        124.2695
361.33        123.1457
361.78        122.0706
362.23        121.1318
362.68        120.3322
363.13        119.6981
363.58        119.0303
364.03        117.9995
364.48        116.5787
364.93        114.8714
365.38        113.2484
365.83        112.2794
366.28        112.0563
366.73        112.3922
367.18        112.8402
367.63         112.675
368.08        111.7149
368.53        110.1781
368.98        108.4762
369.43        107.2342
369.88        106.6055
370.33         106.408
370.78        106.3259
371.23        105.8436
371.68        104.8369
372.13        103.4974
372.58         102.153
373.03        101.2736
373.48        100.9472
373.93        100.9977
374.38        101.1155
374.83        100.8116
375.28        99.96271
375.72        98.71281
376.17        97.39504
376.62        96.34063
377.07        95.62719
377.52         95.1316
377.97        94.71641
378.42        94.18255
378.87        93.48926
379.32        92.73299
379.77        92.00163
380.22        91.38779
380.67        90.90161
381.11        90.51514
381.56        90.13914
382.01        89.72231
382.46        89.25908
382.91        88.77859
383.36        88.32675
383.81        87.95896
384.26        87.67278
384.71        87.43947
385.15        87.19581
385.60        86.87856
386.05        86.46383
386.50        85.97356
386.95        85.45892
387.40        84.99625
387.85        84.60812
388.29        84.24394
388.74        83.93861
389.19        83.54447
389.64        83.04609
390.09        82.49194
390.54        81.97299
390.98        81.55112
391.43        81.27346
391.88        81.23746
392.33         81.3551
392.78        81.01705
393.23        80.38796
393.67        80.57816
394.12        81.36472
394.57        80.98051
395.02        79.64768
395.47        79.24029
395.91        79.74216
396.36         79.6835
396.81        79.06856
397.26        78.74312
397.71        78.64898
398.15        78.44312
398.60        78.24094
399.05        77.69283
399.50        77.01057
399.95        77.43963
400.39        78.63124
400.84        78.12691
401.29        76.24198
401.74        75.80665
402.18        76.78986
402.63        76.95071
403.08        76.31388
403.53        75.75439
403.97        76.34871
404.42        76.49075
404.87        76.44827
405.32        76.33604
405.76        76.13005
406.21        76.00475
406.66        75.88559
407.11        75.33527
407.55        74.58395
408.00        74.39802
408.45        74.76073
408.90        75.15228
409.34        75.29145
409.79        74.78583
410.24        73.89443
410.68        73.53465
411.13          73.783
411.58        74.10499
412.03        74.28728
412.47        74.24517
412.92        73.89117
413.37         73.2724
413.81        72.62655
414.26        72.37887
414.71        72.55612
415.15        73.09272
415.60        73.66252
416.05        73.77962
416.49        73.32596
416.94        72.49834
417.39         71.6503
417.83         71.2793
418.28        71.50061
418.73        72.13985
419.17        72.95708
419.62        73.48728
420.07        73.56995
420.51        73.31273
420.96        72.89599
421.41        72.43348
421.85         71.9641
422.30        71.74747
422.74        71.64763
423.19        71.12901
423.64        70.38024
424.08        70.53673
424.53        71.48792
424.98        72.05528
425.42        72.11659
425.87        72.42608
426.31        72.96529
426.76        72.97926
427.21        72.64336
427.65        72.94585
428.10        73.67807
428.54        73.83476
428.99        73.43952
429.44        72.82165
429.88        72.21229
430.33        72.32765
430.77         72.8696
431.22         72.8161
431.66         72.2041
432.11        71.89904
432.56         71.9362
433.00        72.29769
433.45        72.82798
433.89        73.18111
434.34        70.49688
434.78         73.3483
435.23        73.12007
435.67        71.88659
436.12        71.34222
436.57        71.45059
437.01        72.99896
437.46        73.70459
437.90        73.57688
438.35        72.55247
438.79        72.99898
439.24        72.80135
439.68        72.57737
440.13        72.44894
440.57        72.45199
441.02        72.04844
441.46        71.38922
441.91        72.08523
442.35        73.50516
442.80        73.03316
443.24        71.13054
443.69        71.18558
444.13        72.97698
444.58        73.55286
445.02        72.78887
445.47        72.33372
445.91        72.36553
446.36        72.42754
446.80        72.51344
447.24        73.07166
447.69        73.33966
448.13        73.53257
448.58        73.43193
449.02        73.09647
449.47        72.69398
449.91        72.46508
450.36        72.49169
450.80         72.6597
451.25         72.8807
451.69        72.97589
452.13         72.9119
452.58        72.76857
453.02        72.58148
453.47        72.43259
453.91        72.32821
454.36         72.2284
454.80        72.15556
455.24        72.13368
455.69        72.16087
456.13        72.34048
456.58        72.55297
457.02        72.35029
457.46        71.58279
457.91        71.49392
458.35        71.50143
458.79        71.63989
459.24        71.69093
459.68        71.38549
460.13        70.78137
460.57        70.85025
461.01        70.74114
461.46        70.57497
461.90        69.93533
462.34        70.76464
462.79        69.81576
463.23        69.70335
463.68        69.54047
464.12        69.46767
464.56        69.45892
465.01         69.6519
465.45        69.94006
465.89        69.88111
466.34        69.51998
466.78         69.5766
467.22          70.179
467.67        69.28237
468.11        69.78075
468.55        69.69118
468.99        69.82676
469.44        69.81658
469.88        69.67004
470.32        69.49688
470.77        69.30085
471.21        69.14417
471.65        69.01918
472.10        68.90668
472.54        68.81806
472.98        68.72944
473.42        68.62032
473.87         68.7224
474.31         68.8728
474.75        68.40686
475.20        67.57257
475.64        67.47041
476.08        68.03456
476.52        68.17889
476.97        67.84759
477.41        67.77744
477.85        68.03739
478.29        67.84337
478.74        68.10474
479.18        68.24364
479.62         68.5144
480.06          68.582
480.50        68.37926
480.95        68.34569
481.39        68.55003
481.83        67.66656
482.27        67.65744
482.72        68.05173
483.16        67.60575
483.60        67.61902
484.04        67.96809
484.48        67.81785
484.93        67.21767
485.37        68.42654
485.81        69.13114
486.25        68.33926
486.69        69.89117
487.14        70.20785
487.58        67.06892
488.02        67.07036
488.46        68.19019
488.90        66.82068
489.34        67.62904
489.79        68.06985
490.23        67.68433
490.67        67.74841
491.11         67.7254
491.55        67.65332
491.99        67.50935
492.43         67.4144
492.88         67.3987
493.32        67.50976
493.76        67.68228
494.20        67.72108
494.64        67.58279
495.08        67.46613
495.52        67.42236
495.96        67.12247
496.41        66.72266
496.85        67.15607
497.29        68.14632
497.73        68.12012
498.17        67.14716
498.61        67.00446
499.05        67.27115
499.49        67.17686
499.93        66.60851
500.37        66.39524
500.82        66.57985
501.26        66.31025
501.70        66.49064
502.14        66.55748
502.58        66.72001
503.02        66.80179
503.46         66.7905
503.90        66.61573
504.34         66.5148
504.78        66.41663
505.22        66.39737
505.66        66.43093
506.10        66.50145
506.54        66.53539
506.98        66.49904
507.42        66.63287
507.86        66.47459
508.30        66.44913
508.74        66.25951
509.18          66.062
509.62        65.86534
510.06         65.7866
510.50        65.84835
510.94        66.01437
511.38        66.21204
511.82        66.31396
512.26        66.28667
512.70        66.16949
513.14        66.01456
513.58        65.90665
514.02        65.86618
514.46        65.85498
514.90        65.85833
515.34        65.85361
515.78        65.83427
516.22        65.82992
516.66        65.80921
517.10        65.71609
517.54        65.55405
517.98        65.33511
518.42        65.16431
518.86        65.21143
519.30        65.49475
519.74        65.95195
520.18        66.42082
520.62        66.63649
521.06        66.53408
521.50        66.19507
521.93        65.75851
522.37        65.46547
522.81        65.37933
523.25        65.43284
523.69        65.55271
524.13        65.62006
524.57        65.60265
525.01         65.5545
525.45        65.50677
525.89        65.49966
526.32        65.54108
526.76        65.61008
527.20        65.70489
527.64        65.83807
528.08         66.0007
528.52        66.18715
528.96        66.34876
529.40        66.40925
529.83        66.34541
530.27        66.19181
530.71         66.0091
531.15        65.90298
531.59         65.8984
532.03        65.97466
532.46        66.06249
532.90        66.05005
533.34        65.92488
533.78        65.74091
534.22        65.57529
534.66        65.53842
535.09        65.63368
535.53        65.81357
535.97        66.02503
536.41        66.13805
536.85        66.10809
537.28        66.15033
537.72        66.20718
538.16         65.7781
538.60        65.08766
539.04        65.06031
539.47        65.59464
539.91        65.78993
540.35        65.59778
540.79        65.55727
541.22        65.65459
541.66         65.6656
542.10        65.59182
542.54        65.39964
542.97        65.17002
543.41        65.28181
543.85        65.63726
544.29        65.70978
544.72        65.48463
545.16        65.39599
545.60        65.43451
546.04        65.35897
546.47        65.19186
546.91        65.09518
547.35        65.08394
547.79        65.14215
548.22        65.23933
548.66          65.316
549.10        65.37445
549.53         65.5806
549.97        65.86544
550.41        65.97821
550.84        65.88097
551.28        65.71491
551.72        65.52692
552.15        65.29962
552.59         65.0808
553.03        65.03193
553.46         64.9018
553.90        64.86951
554.34        64.79652
554.77        65.00581
555.21        64.97425
555.65        65.00369
556.08        65.28796
556.52        65.73647
556.96        65.68539
557.39        65.74776
557.83        65.73669
558.27        65.56721
558.70        65.30319
559.14        65.22587
559.57        65.30035
560.01         65.2494
560.45        65.08747
560.88        65.03159
561.32         65.1061
561.75         65.1936
562.19        65.31989
562.63        65.30324
563.06        65.18958
563.50        65.54994
563.93        66.17616
564.37        65.97015
564.80        65.10968
565.24         64.9669
565.68        65.45045
566.11        65.52478
566.55        65.19925
566.98        64.96037
567.42        64.87186
567.85        65.08057
568.29         65.1456
568.72        65.14303
569.16        65.34608
569.60        65.43364
570.03        65.44538
570.47         65.5509
570.90         65.8199
571.34        65.27223
571.77        66.10418
572.21        65.93362
572.64        66.12995
573.08        65.59927
573.51        65.76337
573.95        65.51055
574.38        65.38989
574.82        65.27847
