SpectraSmart Spectrum 2.9.0.0
--------- Device Information -----------
Spectrum Name :  反射率_0
Saving Time :  2024/05/03 20:27:52
Spectro-Module Model Name : SE2030-DUVN
Spectro-Module Serial Number : OS361AC55029948
Wavelength Start : 200
Wavelength End : 1025
Wavelength Unit : Wavelength(nm)
Spectrum Unit : Reflectance(%)
-----------Spectrum Setting ------------
Integration Time : 20ms
Average : 10
Boxcar : 0
Background removal :  enabled
linearity correction :  enabled
SC :  disabled
Intensity correction :  disabled
DWT denoise :  enabled
savitzky-golay :  disabled
FFT :  disabled
Running average :  disabled
Kalman :  disabled
High pass :  disabled
---------------BEGIN--------------------
Wavelength(nm)             Reflectance(%)
200.29               0
200.75        1.090488
201.21        29.21184
201.67       -1622.813
202.13       -53.89002
202.58       -12.62288
203.04        13.46182
203.50        32.64551
203.96        44.36818
204.42        51.50117
204.88        61.91395
205.34       -268.3506
205.80      -0.5129454
206.26       -43.22741
206.72       -30024.04
207.18        176.5358
207.64        137.6229
208.10        137.5337
208.55        177.9746
209.01        537.8922
209.47        420.5468
209.93        73.50719
210.39        49.16269
210.85        45.39659
211.31        46.88334
211.77        51.83621
212.23        64.79747
212.69        96.89974
213.14        112.6998
213.60        63.52128
214.06        35.79194
214.52        24.84541
214.98        18.87229
215.44        12.24906
215.90       -7.848848
216.36        200.9433
216.81         24.3465
217.27       -24.34056
217.73       -139.2614
218.19       -760.2823
218.65       -16968.11
219.11       -1142.846
219.57       -229.4155
220.02       -67.56198
220.48       -63.39536
220.94        122.7579
221.40        66.03484
221.86        60.67762
222.32        60.33709
222.77        61.79498
223.23        66.59256
223.69        74.49819
224.15         78.1878
224.61           73.23
225.06         64.6518
225.52        59.70412
225.98         61.4345
226.44        69.34202
226.90        83.17078
227.36        99.93415
227.81        107.6162
228.27         100.258
228.73        85.17886
229.19        70.40199
229.65         61.6707
230.10        58.20247
230.56        57.65771
231.02        58.23043
231.48        58.45156
231.93        58.05938
232.39        57.81886
232.85        57.73748
233.31        57.87022
233.77        58.24269
234.22        58.57407
234.68        59.21943
235.14        60.85328
235.60        63.59258
236.05        67.55424
236.51        71.45827
236.97        72.85423
237.43        71.10574
237.88        67.14016
238.34        63.22598
238.80        62.13876
239.26        64.84092
239.71        73.83179
240.17        88.94971
240.63        105.9912
241.08        112.6974
241.54        104.3063
242.00        90.97456
242.46        85.92651
242.91        92.19884
243.37          110.67
243.83        146.4141
244.28         185.677
244.74        189.0594
245.20        157.6697
245.66        116.8714
246.11        88.51921
246.57        74.05759
247.03        66.22171
247.48        61.96037
247.94        58.21404
248.40        53.87821
248.85        49.60962
249.31        46.26902
249.77        45.21676
250.22        46.64143
250.68         49.4589
251.14        52.83686
251.59        57.10749
252.05        63.39695
252.51        73.28739
252.96        88.63536
253.42        106.4209
253.88        118.6629
254.33        122.0036
254.79        118.2086
255.25        110.4399
255.70        102.2386
256.16        96.04954
256.62        91.78513
257.07        89.32806
257.53        88.53313
257.99        88.17236
258.44        87.68712
258.90        87.25388
259.35        86.26666
259.81        85.47811
260.27         84.2987
260.72        82.17745
261.18        79.88844
261.63         77.3925
262.09        75.52506
262.55        74.57981
263.00        74.29192
263.46        74.44476
263.91        74.53681
264.37        74.30906
264.83        73.58262
265.28        72.49375
265.74        71.12872
266.19        69.20768
266.65        66.97866
267.11        64.48242
267.56        62.09272
268.02        60.46221
268.47        59.58976
268.93        59.31241
269.38         59.2322
269.84        58.67933
270.30        57.52759
270.75        56.00231
271.21        54.48956
271.66        53.40127
272.12        52.81872
272.57        52.49413
273.03        52.22831
273.48        51.75012
273.94        51.00594
274.39        50.11449
274.85        49.12104
275.31        47.94448
275.76        46.62294
276.22        45.27913
276.67        44.08949
277.13        43.45411
277.58        43.28948
278.04        43.49121
278.49        43.68419
278.95        43.36847
279.40        42.42321
279.86        41.15456
280.31        39.80584
280.77        38.84185
281.22        38.23005
281.68        37.88366
282.13        37.59851
282.59        37.18347
283.04        36.57444
283.50        35.90406
283.95        35.25846
284.41        34.80382
284.86         34.5439
285.32        34.44731
285.77         34.4208
286.22        34.40663
286.68        34.38533
287.13        34.32964
287.59        34.28003
288.04        34.22082
288.50        34.17933
288.95        34.12493
289.41        34.05129
289.86        33.89613
290.32        33.69783
290.77        33.47022
291.22        33.31431
291.68        33.35359
292.13        33.60466
292.59        34.07729
293.04        34.69655
293.50        35.34465
293.95        35.97886
294.40        36.63371
294.86        37.41694
295.31         38.4901
295.77        39.88863
296.22        41.53931
296.68        43.29523
297.13        44.89531
297.58        46.23312
298.04        47.40451
298.49        48.46907
298.95        49.60615
299.40        50.85683
299.85        52.18213
300.31        53.65229
300.76        55.32768
301.21        57.20985
301.67        59.29764
302.12         61.3802
302.58        63.16196
303.03        64.55368
303.48         65.6566
303.94        66.76128
304.39        68.21424
304.84        70.12297
305.30        72.34976
305.75        74.62044
306.20        76.55682
306.66        78.07503
307.11        79.25776
307.57        80.28573
308.02        81.28304
308.47        82.36542
308.93        83.49512
309.38        84.66131
309.83        85.95435
310.29        87.36657
310.74        88.84814
311.19        90.29669
311.65        91.51989
312.10        92.43229
312.55        93.07149
313.00         93.4978
313.46        93.83412
313.91         94.1111
314.36        94.35806
314.82        94.60144
315.27        94.84577
315.72         95.1245
316.18        95.45875
316.63        95.89699
317.08        96.52036
317.53        97.32398
317.99        98.25001
318.44        99.19242
318.89        99.91785
319.35        100.3557
319.80        100.5586
320.25        100.6272
320.70        100.7588
321.16        100.9962
321.61        101.3039
322.06         101.614
322.51        101.8187
322.97        101.8821
323.42        101.8838
323.87         101.848
324.32        101.8192
324.78        101.8103
325.23        101.8429
325.68         101.932
326.13        102.1209
326.59        102.3868
327.04        102.7731
327.49        103.2093
327.94        103.6156
328.39        103.9538
328.85        104.1814
329.30        104.3935
329.75        104.6127
330.20        104.8559
330.66        105.1015
331.11        105.3355
331.56        105.4127
332.01        105.3378
332.46        105.1663
332.92        105.0533
333.37        105.3774
333.82        106.1691
334.27        107.3247
334.72         108.604
335.17        109.5961
335.63        110.1234
336.08        110.3245
336.53        110.3012
336.98        110.3009
337.43        110.4185
337.88         110.598
338.34        110.7822
338.79        110.9048
339.24        110.9616
339.69        111.0388
340.14        111.2262
340.59        111.6396
341.05         112.291
341.50        113.1159
341.95         114.044
342.40        114.9868
342.85         115.881
343.30        116.7251
343.75        117.4234
344.20        117.8372
344.66        117.9825
345.11        117.8983
345.56        117.7583
346.01        117.8305
346.46        118.1823
346.91        118.7333
347.36        119.3951
347.81        120.0127
348.26        120.5247
348.72        120.9888
349.17        121.3492
349.62        121.5448
350.07        121.5804
350.52         121.457
350.97        121.2987
351.42        121.3227
351.87        121.5519
352.32        121.8997
352.77        122.2086
353.22        122.2204
353.67        121.8865
354.13        121.3544
354.58        120.6745
355.03        119.9966
355.48        119.4041
355.93        118.8768
356.38         118.514
356.83        118.4712
357.28        118.7336
357.73        119.2131
358.18         119.716
358.63        119.9229
359.08        119.7329
359.53        119.2273
359.98        118.4614
360.43        117.5501
360.88        116.5607
361.33         115.462
361.78        114.3806
362.23        113.5013
362.68        112.8535
363.13        112.4255
363.58        112.0124
364.03        111.2697
364.48        110.1461
364.93        108.7498
365.38        107.3772
365.83        106.4826
366.28        106.1504
366.73        106.2338
367.18        106.4116
367.63        106.1688
368.08         105.378
368.53        104.2003
368.98        102.9358
369.43        102.0322
369.88        101.5958
370.33        101.4929
370.78        101.4738
371.23        101.1341
371.68        100.3714
372.13        99.31873
372.58        98.24311
373.03        97.53377
373.48        97.26081
373.93        97.28684
374.38        97.32795
374.83        96.93481
375.28        96.00992
375.72        94.69177
376.17        93.34306
376.62        92.33922
377.07        91.76369
377.52        91.49357
377.97        91.32999
378.42          90.966
378.87        90.33433
379.32        89.54929
379.77        88.78771
380.22        88.28114
380.67        88.05759
381.11        88.04339
381.56        88.02798
382.01        87.74702
382.46        87.14973
382.91        86.34973
383.36        85.53655
383.81        84.97379
384.26        84.71037
384.71        84.65242
385.15        84.65916
385.60        84.54085
386.05        84.22513
386.50        83.76875
386.95        83.24794
387.40        82.77201
387.85        82.38194
388.29        82.02314
388.74        81.71114
389.19        81.28809
389.64        80.73528
390.09         80.0884
390.54        79.50832
390.98         79.1699
391.43         79.1342
391.88        79.45804
392.33        79.88706
392.78        79.65858
393.23        78.93159
393.67        78.63188
394.12        78.78608
394.57         78.5659
395.02        78.06359
395.47        77.59998
395.91        77.28481
396.36        77.02862
396.81        76.88262
397.26        76.88657
397.71        76.88236
398.15        76.70913
398.60         76.4593
399.05        75.80367
399.50        75.01702
399.95        75.29903
400.39        76.37756
400.84        76.10364
401.29        74.68547
401.74        74.44707
402.18        75.32314
402.63        75.40797
403.08        74.75932
403.53        74.12038
403.97        74.56966
404.42        74.60354
404.87        74.48417
405.32        74.32512
405.76        74.10932
406.21        73.93182
406.66        73.74866
407.11        73.34853
407.55        72.86483
408.00         72.6446
408.45        72.70747
408.90        72.91695
409.34        73.08466
409.79        72.78349
410.24        72.17404
410.68        71.94164
411.13        72.13533
411.58        72.36107
412.03        72.46494
412.47        72.39406
412.92        72.08698
413.37        71.58196
413.81        71.06581
414.26         70.8907
414.71        71.06988
415.15        71.55241
415.60          72.057
416.05         72.1766
416.49        71.80707
416.94        71.11247
417.39         70.3788
417.83        70.00594
418.28        70.09716
418.73        70.52209
419.17        71.10803
419.62        71.50859
420.07          71.603
420.51          71.452
420.96        71.20776
421.41        70.96241
421.85        70.72651
422.30        70.70523
422.74        70.71978
423.19           70.29
423.64        69.54214
424.08        69.35323
424.53        69.73824
424.98        70.01121
425.42        70.13382
425.87        70.62889
426.31        71.35391
426.76        71.47063
427.21        71.08367
427.65        71.13177
428.10        71.52135
428.54        71.50239
428.99         71.1451
429.44        70.66865
429.88        70.22924
430.33        70.48561
430.77        71.11385
431.22        71.02836
431.66        70.31756
432.11        70.14147
432.56        70.49816
433.00        70.81416
433.45        70.90233
433.89        71.28074
434.34        68.83112
434.78        71.32043
435.23        70.90734
435.67        69.89733
436.12        69.22025
436.57        69.31273
437.01        70.69604
437.46        71.44123
437.90         71.1283
438.35        70.47172
438.79        70.85265
439.24        70.70296
439.68        70.45604
440.13        70.45515
440.57         70.7086
441.02        70.60361
441.46        70.16357
441.91        70.65125
442.35        71.59528
442.80        70.96472
443.24        69.22063
443.69        69.33534
444.13         71.0492
444.58        71.59043
445.02        70.83403
445.47        70.32584
445.91        70.24544
446.36        70.25311
446.80        70.36782
447.24        70.67722
447.69        71.04158
448.13         71.2374
448.58        71.22445
449.02         71.0364
449.47        70.78851
449.91        70.62766
450.36        70.61389
450.80        70.66441
451.25        70.75027
451.69        70.79457
452.13        70.78056
452.58        70.74466
453.02        70.66985
453.47         70.5556
453.91        70.39728
454.36         70.1936
454.80        69.96823
455.24         69.8343
455.69        69.82945
456.13        69.82089
456.58        69.73808
457.02        69.96656
457.46        69.51581
457.91        69.40516
458.35        69.30188
458.79        69.31975
459.24        69.37541
459.68        69.00145
460.13        68.33678
460.57        68.11514
461.01        68.47395
461.46        68.18899
461.90        68.01554
462.34        68.85399
462.79        67.60946
463.23        67.34253
463.68        67.35447
464.12        67.36024
464.56        67.33567
465.01        67.58326
465.45        68.00537
465.89        67.86887
466.34        67.20454
466.78        67.71882
467.22        68.21967
467.67        67.11269
468.11         67.0976
468.55        66.87509
468.99        67.15764
469.44        67.18295
469.88        66.92641
470.32        66.78359
470.77        66.75372
471.21        66.74424
471.65        66.72601
472.10        66.70565
472.54        66.68662
472.98        66.63533
473.42        66.53295
473.87        66.61703
474.31        66.72355
474.75        66.18423
475.20        65.26236
475.64        65.07175
476.08        65.56187
476.52        65.73752
476.97        65.53902
477.41        65.58086
477.85        65.84249
478.29        66.12438
478.74        65.66125
479.18        66.27749
479.62         66.0746
480.06        66.10352
480.50        65.78019
480.95        65.74664
481.39        66.11467
481.83        65.06032
482.27        65.17189
482.72         66.0434
483.16        65.46645
483.60        65.69765
484.04        65.96243
484.48        65.68493
484.93        64.88808
485.37        66.24876
485.81        66.58369
486.25         66.2519
486.69         68.9403
487.14        68.72781
487.58        65.54799
488.02        65.46706
488.46        66.33806
488.90        64.58302
489.34        65.71136
489.79        65.75684
490.23        65.68681
490.67        65.67886
491.11        65.57622
491.55        65.54334
491.99         65.5312
492.43        65.48223
492.88        65.40021
493.32        65.43608
493.76         65.5628
494.20        65.58184
494.64        65.45279
495.08         65.4398
495.52        65.53778
495.96        65.16087
496.41        64.53892
496.85        64.99456
497.29        66.20503
497.73        66.28181
498.17        65.30367
498.61        64.92795
499.05        65.24059
499.49        65.30962
499.93        65.08347
500.37        64.87197
500.82        64.70296
501.26        64.60149
501.70        64.59138
502.14        64.66338
502.58        64.78567
503.02        64.88404
503.46        64.94007
503.90        64.99801
504.34        65.03378
504.78        64.99077
505.22        64.86338
505.66        64.67422
506.10        64.49249
506.54        64.42974
506.98        64.49226
507.42         64.8001
507.86        64.71251
508.30        65.07624
508.74        64.75677
509.18        64.55497
509.62        64.29004
510.06        64.17547
510.50        64.24855
510.94        64.45109
511.38        64.68548
511.82        64.76678
512.26        64.65341
512.70        64.40941
513.14        64.11717
513.58         63.9151
514.02        63.83906
514.46        63.81462
514.90        63.80421
515.34        63.86352
515.78        63.79262
516.22        63.78152
516.66        63.74918
517.10        63.65173
517.54        63.49251
517.98        63.27676
518.42        63.11684
518.86        63.18442
519.30        63.49506
519.74        64.00792
520.18        64.53765
520.62        64.72586
521.06        64.53091
521.50        64.17304
521.93        63.79237
522.37        63.52554
522.81        63.43385
523.25          63.506
523.69        63.67757
524.13        63.81194
524.57        63.87104
525.01        63.91397
525.45         63.9279
525.89        63.88416
526.32        63.78525
526.76        63.63399
527.20        63.50428
527.64        63.52762
528.08        63.72165
528.52        64.04789
528.96        64.38424
529.40        64.53501
529.83        64.44482
530.27        64.17942
530.71        63.86129
531.15        63.69216
531.59         63.7175
532.03        63.88449
532.46        64.06316
532.90        64.04606
533.34         63.8064
533.78        63.44254
534.22        63.09996
534.66        62.98579
535.09        63.12464
535.53        63.43371
535.97        63.81588
536.41        64.07147
536.85        64.12805
537.28        64.21231
537.72        64.27766
538.16        63.85399
538.60        63.16833
539.04        63.11182
539.47        63.59113
539.91        63.74387
540.35        63.53021
540.79         63.4783
541.22        63.57719
541.66        63.60958
542.10        63.57531
542.54        63.43717
542.97        63.27293
543.41        63.45152
543.85        63.87232
544.29         64.0156
544.72        63.85067
545.16        63.77987
545.60        63.79483
546.04        63.67102
546.47        63.44492
546.91         63.3121
547.35         63.3008
547.79        63.34668
548.22         63.4287
548.66        63.59819
549.10        63.80601
549.53        63.99049
549.97        64.11787
550.41        64.19276
550.84        64.19272
551.28        64.12698
551.72        64.01126
552.15        63.79505
552.59        63.51096
553.03        63.44527
553.46        63.24654
553.90        63.07315
554.34         63.1965
554.77        63.34908
555.21         63.6739
555.65        63.39075
556.08        63.82611
556.52        63.87465
556.96        63.90581
557.39          63.884
557.83        63.85072
558.27        63.75796
558.70        63.62458
559.14         63.6383
559.57        63.74011
560.01        63.66322
560.45        63.45883
560.88        63.45723
561.32        63.65469
561.75        63.77604
562.19        63.84549
562.63        63.78561
563.06        63.66068
563.50        64.02605
563.93        64.66818
564.37        64.47131
564.80        63.60952
565.24         63.4577
565.68        63.93964
566.11         64.0512
566.55        63.79827
566.98        63.64334
567.42        63.63604
567.85        63.90749
568.29        63.97787
568.72        64.00745
569.16        63.97243
569.60        64.01395
570.03        64.09117
570.47        64.31297
570.90        64.70434
571.34        64.09508
571.77        65.21598
572.21        64.69799
572.64        65.02817
573.08        64.60502
573.51        64.62084
573.95        64.59261
574.38         64.8642
574.82        64.42728
