SpectraSmart Spectrum 2.9.0.0
--------- Device Information -----------
Spectrum Name :  反射率_0
Saving Time :  2024/05/03 20:29:04
Spectro-Module Model Name : SE2030-DUVN
Spectro-Module Serial Number : OS361AC55029948
Wavelength Start : 200
Wavelength End : 1025
Wavelength Unit : Wavelength(nm)
Spectrum Unit : Reflectance(%)
-----------Spectrum Setting ------------
Integration Time : 20ms
Average : 10
Boxcar : 0
Background removal :  enabled
linearity correction :  enabled
SC :  disabled
Intensity correction :  disabled
DWT denoise :  enabled
savitzky-golay :  disabled
FFT :  disabled
Running average :  disabled
Kalman :  disabled
High pass :  disabled
---------------BEGIN--------------------
Wavelength(nm)             Reflectance(%)
200.29               0
200.75       -49.52034
201.21       -101.6614
201.67        3283.205
202.13        121.8899
202.58        76.29239
203.04        63.31546
203.50        58.80569
203.96        57.37698
204.42        58.01705
204.88        66.61104
205.34       -365.2605
205.80        -16.1456
206.26       -68.49495
206.72       -38340.54
207.18        214.8548
207.64        167.8453
208.10        173.8852
208.55        244.3773
209.01        881.6276
209.47        808.3978
209.93        118.1654
210.39        62.23653
210.85         51.4917
211.31        53.37667
211.77        64.14128
212.23        94.52373
212.69        176.3821
213.14        243.8318
213.60        145.8856
214.06        75.27385
214.52        47.12705
214.98        40.62072
215.44         48.8894
215.90        97.12468
216.36       -612.0748
216.81       -114.3168
217.27       -107.9862
217.73        -175.214
218.19       -607.7076
218.65        -11928.5
219.11       -864.7208
219.57       -231.3899
220.02       -137.3801
220.48       -252.6958
220.94        323.7642
221.40        111.6671
221.86        79.93301
222.32        70.18767
222.77        66.91177
223.23        66.94514
223.69        69.55396
224.15        71.80618
224.61        71.47169
225.06        70.06406
225.52        70.13725
225.98        72.82654
226.44        78.39742
226.90        86.61514
227.36        96.59917
227.81        103.3366
228.27         102.871
228.73         97.8767
229.19         90.8297
229.65        83.54043
230.10         76.6323
230.56        70.66278
231.02        66.06998
231.48        63.56797
231.93         62.8265
232.39        63.52325
232.85        64.75917
233.31        65.43909
233.77        65.34048
234.22         64.6584
234.68        64.16595
235.14        65.17945
235.60        68.04031
236.05        72.60149
236.51        77.40842
236.97        79.67439
237.43        78.52097
237.88        74.95352
238.34        71.19966
238.80        70.00905
239.26        72.32773
239.71        80.23677
240.17        93.72009
240.63        109.1135
241.08        115.7496
241.54        109.2062
242.00        98.20635
242.46        94.40904
242.91        100.7463
243.37        118.0215
243.83        150.9051
244.28         186.806
244.74        189.5276
245.20        160.5819
245.66         123.016
246.11        96.50726
246.57        82.48407
247.03        74.08727
247.48        69.34702
247.94        66.33607
248.40        63.88025
248.85        62.52324
249.31        61.40749
249.77        58.42001
250.22        54.50246
250.68        51.41656
251.14        50.44898
251.59        53.29858
252.05        61.01241
252.51        75.12722
252.96        98.15117
253.42        124.7992
253.88        142.5643
254.33        147.4207
254.79        141.0084
255.25        127.8104
255.70        114.0262
256.16        103.1967
256.62        96.08561
257.07        93.07925
257.53        93.29378
257.99        94.68124
258.44        95.69914
258.90        95.47436
259.35         93.4915
259.81        91.20722
260.27        88.61465
260.72        85.73734
261.18        83.32827
261.63        81.01758
262.09        79.37805
262.55        78.42365
263.00        77.87739
263.46         77.6515
263.91        77.40151
264.37         77.0912
264.83        76.55933
265.28        75.84468
265.74        74.86584
266.19        73.11861
266.65        70.83917
267.11        68.13402
267.56         65.5487
268.02        63.98904
268.47        63.47237
268.93        63.74425
269.38        64.19207
269.84        63.78011
270.30        62.31984
270.75        60.20377
271.21        58.04959
271.66        56.58146
272.12        55.95325
272.57        55.79415
273.03        55.84492
273.48        55.72931
273.94        55.31628
274.39        54.74441
274.85        53.94199
275.31        52.65063
275.76        50.92358
276.22        48.97412
276.67        47.17235
277.13        46.18992
277.58          45.968
278.04        46.31554
278.49        46.71957
278.95        46.45329
279.40        45.34923
279.86        43.82571
280.31        42.20949
280.77        41.07195
281.22        40.39744
281.68        40.05251
282.13        39.82709
282.59        39.53773
283.04        39.09385
283.50        38.61335
283.95        38.12846
284.41        37.72945
284.86         37.4115
285.32        37.18452
285.77        36.98197
286.22        36.79778
286.68        36.63556
287.13        36.44292
287.59        36.30785
288.04        36.27641
288.50        36.37074
288.95        36.54335
289.41        36.66953
289.86        36.49488
290.32        36.04201
290.77        35.39848
291.22         34.8321
291.68        34.70654
292.13        35.07679
292.59        35.86898
293.04        36.87373
293.50        37.75163
293.95        38.39327
294.40          38.904
294.86        39.47542
295.31        40.38874
295.77        41.71778
296.22        43.35215
296.68        45.11305
297.13        46.69526
297.58        47.97904
298.04        49.08053
298.49        50.09463
298.95         51.2453
299.40        52.57906
299.85        54.04694
300.31         55.6596
300.76        57.38642
301.21         59.2187
301.67        61.18225
302.12        63.15731
302.58        64.99424
303.03        66.61326
303.48        68.04635
303.94        69.47189
304.39        71.07195
304.84        72.92916
305.30        74.97668
305.75        77.00802
306.20         78.7513
306.66        80.16839
307.11        81.31143
307.57        82.37342
308.02        83.49535
308.47        84.77547
308.93        86.15688
309.38        87.57328
309.83        89.02798
310.29        90.49358
310.74         91.9507
311.19        93.31325
311.65        94.42019
312.10        95.21431
312.55        95.73311
313.00        96.09305
313.46        96.50294
313.91        96.99364
314.36        97.55645
314.82        98.13322
315.27        98.59051
315.72        98.92258
316.18         99.1896
316.63        99.47912
317.08        99.93967
317.53         100.602
317.99        101.4001
318.44        102.2506
318.89        102.9539
319.35        103.4455
319.80        103.7707
320.25        104.0115
320.70        104.3298
321.16        104.7458
321.61        105.2211
322.06        105.6594
322.51        105.9133
322.97        105.9434
323.42        105.8481
323.87        105.6882
324.32        105.5709
324.78        105.5327
325.23        105.5829
325.68        105.7417
326.13        106.0559
326.59        106.4908
327.04        107.0896
327.49        107.7352
327.94        108.2677
328.39        108.6334
328.85        108.8119
329.30        108.9497
329.75        109.1582
330.20          109.48
330.66        109.8532
331.11        110.2556
331.56        110.5234
332.01        110.6382
332.46        110.6621
332.92        110.6757
333.37        110.9377
333.82        111.4632
334.27        112.1911
334.72        113.0127
335.17        113.7441
335.63        114.2776
336.08        114.7009
336.53         115.016
336.98        115.2958
337.43        115.5665
337.88        115.8051
338.34        115.9859
338.79        116.1004
339.24        116.1613
339.69        116.2321
340.14        116.3722
340.59        116.6571
341.05        117.1069
341.50        117.6965
341.95        118.4263
342.40        119.3124
342.85        120.3098
343.30        121.3699
343.75        122.3404
344.20        122.9887
344.66        123.2902
345.11        123.3077
345.56        123.1886
346.01        123.1664
346.46        123.3216
346.91        123.5872
347.36        123.9735
347.81        124.4834
348.26        125.0876
348.72        125.8073
349.17        126.4758
349.62        126.8472
350.07        126.8828
350.52        126.6391
350.97        126.3361
351.42        126.3483
351.87        126.7283
352.32        127.3186
352.77          127.88
353.22        128.0321
353.67         127.686
354.13        127.0334
354.58        126.1479
355.03        125.2155
355.48        124.3477
355.93        123.5254
356.38        122.8812
356.83        122.6216
357.28        122.7473
357.73        123.1691
358.18        123.6745
358.63        123.9029
359.08        123.7387
359.53        123.2691
359.98        122.5537
360.43        121.7189
360.88        120.8276
361.33        119.8306
361.78        118.8396
362.23        118.0229
362.68        117.4042
363.13        116.9789
363.58        116.5417
364.03        115.7495
364.48        114.5555
364.93        113.0686
365.38        111.6056
365.83        110.6499
366.28        110.2927
366.73        110.3871
367.18        110.5785
367.63        110.2965
368.08        109.4018
368.53        108.0638
368.98        106.6392
369.43        105.6631
369.88        105.2548
370.33        105.2583
370.78        105.3343
371.23        104.9292
371.68        103.9125
372.13        102.4697
372.58         100.997
373.03        100.0773
373.48        99.82619
373.93        100.0577
374.38        100.3686
374.83        100.1062
375.28        99.11741
375.72        97.59745
376.17        96.03321
376.62        94.97961
377.07        94.55006
377.52        94.55647
377.97        94.67146
378.42        94.38386
378.87        93.58537
379.32         92.4712
379.77        91.35388
380.22        90.65147
380.67        90.43329
381.11        90.57162
381.56        90.76096
382.01        90.57794
382.46        89.92298
382.91        88.95624
383.36        87.95583
383.81        87.31278
384.26         87.1002
384.71        87.18348
385.15        87.32776
385.60        87.19727
386.05        86.69846
386.50        85.95004
386.95        85.14873
387.40        84.58062
387.85        84.31445
388.29        84.22066
388.74        84.20821
389.19        83.96808
389.64         83.4417
390.09         82.7062
390.54        81.97797
390.98        81.51695
391.43        81.41717
391.88        81.72184
392.33        82.13438
392.78        81.82779
393.23        80.96548
393.67        80.50959
394.12        80.54624
394.57        80.36163
395.02        79.96677
395.47        79.77464
395.91        79.75578
396.36        79.60129
396.81        79.32242
397.26        79.04311
397.71        78.74416
398.15        78.45119
398.60        78.28324
399.05        77.86118
399.50        77.34432
399.95        77.68581
400.39        78.60477
400.84        78.24811
401.29        76.83998
401.74        76.36911
402.18        76.87913
402.63        77.02751
403.08        76.82058
403.53        76.39908
403.97        76.83093
404.42        76.91151
404.87        76.87819
405.32        76.68204
405.76        76.31596
406.21        75.83306
406.66        75.31392
407.11        74.95685
407.55        74.83131
408.00         74.7455
408.45        74.68384
408.90        74.89362
409.34        75.18223
409.79        74.87546
410.24        74.14632
410.68        73.81728
411.13        73.94839
411.58        74.10613
412.03        74.14434
412.47        74.02576
412.92        73.69175
413.37        73.18976
413.81        72.68202
414.26        72.47678
414.71        72.58249
415.15        72.96399
415.60        73.37372
416.05        73.47004
416.49        73.16506
416.94        72.59331
417.39        72.00456
417.83        71.75176
418.28        71.91843
418.73        72.37794
419.17        72.95576
419.62        73.30344
420.07        73.31261
420.51        73.05872
420.96        72.69895
421.41        72.34432
421.85        72.01747
422.30        71.88566
422.74        71.81919
423.19         71.4921
423.64        70.99715
424.08         71.0063
424.53        71.47782
424.98        71.83079
425.42        72.01764
425.87         72.3777
426.31        72.85207
426.76        73.01602
427.21        72.91006
427.65        72.90789
428.10        72.96559
428.54        72.87975
428.99         72.7269
429.44        72.40345
429.88        72.01583
430.33        72.28645
430.77        72.86379
431.22        72.65005
431.66        71.76022
432.11        71.35683
432.56        71.51349
433.00        71.85387
433.45        72.21477
433.89        72.81712
434.34        70.33675
434.78         72.9561
435.23        72.79914
435.67        70.91795
436.12        71.19833
436.57         71.2216
437.01        72.43882
437.46        72.95016
437.90        72.76876
438.35         72.1426
438.79        72.39039
439.24        72.18595
439.68        71.91074
440.13        71.97717
440.57        72.35461
441.02        72.11298
441.46        71.34522
441.91        71.85714
442.35        73.20374
442.80        72.30582
443.24        71.10312
443.69        71.12399
444.13         72.6226
444.58        73.11745
445.02        72.51151
445.47        72.12379
445.91         72.0823
446.36         72.1141
446.80         72.2279
447.24        72.49673
447.69        72.80241
448.13        72.95914
448.58        72.93393
449.02        72.74718
449.47        72.50324
449.91        72.32714
450.36        72.27687
450.80        72.28652
451.25        72.32085
451.69        72.29363
452.13        72.18912
452.58        72.03527
453.02        71.86459
453.47        71.75624
453.91        71.72058
454.36         71.7412
454.80        71.73283
455.24        71.67863
455.69         71.6003
456.13        71.28217
456.58        70.82628
457.02        71.17529
457.46        71.21609
457.91         71.2506
458.35        70.93557
458.79        70.91814
459.24        71.09306
459.68          70.717
460.13        69.95161
460.57        69.57279
461.01        69.69566
461.46        69.63371
461.90        69.18888
462.34         70.0508
462.79        69.00883
463.23        69.01685
463.68        69.11677
464.12        69.10731
464.56        68.95769
465.01        68.92099
465.45         68.9628
465.89        68.94782
466.34        68.88504
466.78        68.88528
467.22        69.00678
467.67        68.65599
468.11        68.83537
468.55        68.65837
468.99         68.4582
469.44        68.32203
469.88        68.28307
470.32        68.28387
470.77        68.28412
471.21         68.2839
471.65        68.24209
472.10        68.14989
472.54        68.04204
472.98        67.92496
473.42        67.79159
473.87        67.88573
474.31        68.02658
474.75         67.4871
475.20        66.53608
475.64        66.36532
476.08        66.92567
476.52          67.113
476.97        66.86276
477.41         66.9152
477.85        67.28313
478.29        67.29017
478.74        67.19093
479.18        67.57225
479.62        67.49489
480.06          67.506
480.50        67.28875
480.95        67.15668
481.39        67.13347
481.83        66.59129
482.27        66.69073
482.72        66.66355
483.16        66.64885
483.60        66.77975
484.04        67.07825
484.48        67.04948
484.93        66.66313
485.37        67.84656
485.81        67.99349
486.25        67.61711
486.69        70.77733
487.14        70.27782
487.58        66.99835
488.02        66.52235
488.46        67.63711
488.90        66.31375
489.34        66.73677
489.79         66.9805
490.23        67.16255
490.67        67.27248
491.11        67.03226
491.55        66.95618
491.99        67.00962
492.43        66.94768
492.88        66.78477
493.32        66.74943
493.76         66.8429
494.20        66.88627
494.64        66.84215
495.08         66.9535
495.52        67.18408
495.96        66.90495
496.41        66.31958
496.85        66.75678
497.29        67.90313
497.73        67.85836
498.17        66.74024
498.61         66.3211
499.05        66.68968
499.49        66.77518
499.93        66.52027
500.37        66.36575
500.82        66.33943
501.26         66.1728
501.70        66.30051
502.14        66.27335
502.58        66.22472
503.02        66.21922
503.46         66.2584
503.90        66.29856
504.34        66.30825
504.78        66.26688
505.22        66.17053
505.66        66.02168
506.10        65.84929
506.54        65.77095
506.98        65.81538
507.42        65.82465
507.86        65.72514
508.30         66.1029
508.74        65.77115
509.18        65.70016
509.62        65.59895
510.06        65.59429
510.50         65.6948
510.94        65.87293
511.38        66.06484
511.82         66.1412
512.26        66.08155
512.70        65.90622
513.14        65.64992
513.58        65.50206
514.02        65.51473
514.46        65.28519
514.90        65.12029
515.34        65.47285
515.78        65.12766
516.22        65.15701
516.66        65.14976
517.10        65.09315
517.54        64.97755
517.98        64.82921
518.42        64.73182
518.86        64.78687
519.30        65.00859
519.74        65.35217
520.18        65.71062
520.62        65.91052
521.06        65.90492
521.50        65.74391
521.93        65.50251
522.37        65.32154
522.81        65.23757
523.25        65.21097
523.69        65.21351
524.13        65.19978
524.57        65.15705
525.01        65.11509
525.45        65.07598
525.89        65.03578
526.32        64.99722
526.76        64.96361
527.20        64.95708
527.64        65.04019
528.08        65.21748
528.52        65.41453
528.96        65.58134
529.40        65.76354
529.83        65.86997
530.27        65.66119
530.71        65.25128
531.15        65.06458
531.59        65.14809
532.03        65.31028
532.46        65.45111
532.90        65.48303
533.34        65.38211
533.78        65.19591
534.22        65.02198
534.66        65.00105
535.09        65.14085
535.53        65.38467
535.97        65.65427
536.41        65.77847
536.85        65.70551
537.28        65.66593
537.72        65.63264
538.16        65.15702
538.60        64.47466
539.04        64.48693
539.47        65.07272
539.91        65.30605
540.35        65.12902
540.79        65.08677
541.22        65.17902
541.66        65.20438
542.10         65.1705
542.54        65.03384
542.97        64.86008
543.41        65.01825
543.85        65.40616
544.29        65.46696
544.72        65.20428
545.16        65.15092
545.60        65.27213
546.04        65.16535
546.47        64.86246
546.91        64.70496
547.35        64.72269
547.79        64.73973
548.22        64.75964
548.66        64.95766
549.10        65.26789
549.53         65.5108
549.97         65.6285
550.41        65.67839
550.84        65.64321
551.28         65.4725
551.72        65.21861
552.15        65.00313
552.59        64.89085
553.03        64.82896
553.46        64.79787
553.90        64.84566
554.34        64.92993
554.77         64.9782
555.21        65.00487
555.65        65.08514
556.08        65.20615
556.52        65.33001
556.96        65.41386
557.39        65.43967
557.83        65.42869
558.27        65.33279
558.70        65.19396
559.14        65.20766
559.57        65.31322
560.01        65.25574
560.45        65.06856
560.88        64.98917
561.32        65.05056
561.75        65.16394
562.19        65.32993
562.63        65.25574
563.06        65.01726
563.50        65.35381
563.93        66.05598
564.37        65.89156
564.80        65.03507
565.24        64.93347
565.68        65.49755
566.11        65.65961
566.55        65.41824
566.98        65.26677
567.42        65.26106
567.85        65.51804
568.29        65.55287
568.72        65.59968
569.16        65.62867
569.60         65.6651
570.03        65.65564
570.47        66.04041
570.90        66.31954
571.34        65.76312
571.77        66.83334
572.21        66.29852
572.64        66.72054
573.08        66.11357
573.51         66.6385
573.95        66.51982
574.38        66.65002
574.82        65.49203
