SpectraSmart Spectrum 2.9.0.0
--------- Device Information -----------
Spectrum Name :  反射率_0
Saving Time :  2024/05/03 20:05:18
Spectro-Module Model Name : SE2030-DUVN
Spectro-Module Serial Number : OS361AC55029948
Wavelength Start : 200
Wavelength End : 1025
Wavelength Unit : Wavelength(nm)
Spectrum Unit : Reflectance(%)
-----------Spectrum Setting ------------
Integration Time : 20ms
Average : 10
Boxcar : 0
Background removal :  enabled
linearity correction :  enabled
SC :  disabled
Intensity correction :  disabled
DWT denoise :  enabled
savitzky-golay :  disabled
FFT :  disabled
Running average :  disabled
Kalman :  disabled
High pass :  disabled
---------------BEGIN--------------------
Wavelength(nm)             Reflectance(%)
200.29               0
200.75       -30.59008
201.21       -44.95797
201.67        1045.915
202.13        36.63311
202.58        28.76222
203.04        31.09576
203.50        36.86105
203.96        46.78688
204.42        66.91541
204.88        138.8284
205.34       -2449.756
205.80       -232.0106
206.26       -270.3254
206.72       -65115.39
207.18        232.4324
207.64        151.7376
208.10        155.9052
208.55        249.6546
209.01        1200.057
209.47        1449.157
209.93        211.9958
210.39        94.82853
210.85         66.3046
211.31        62.26034
211.77        71.43864
212.23        101.6465
212.69        182.8655
213.14        240.6895
213.60         134.287
214.06        63.53695
214.52        35.34898
214.98        25.65347
215.44        24.61473
215.90        36.60432
216.36       -184.4747
216.81       -38.45135
217.27       -49.75303
217.73       -109.2676
218.19       -458.2731
218.65        -9549.49
219.11       -663.5844
219.57       -154.6033
220.02       -71.02995
220.48       -112.6901
220.94        157.3218
221.40        61.39271
221.86        48.33917
222.32        45.69849
222.77        46.74661
223.23        51.06079
223.69        58.11171
224.15        60.68098
224.61        54.78998
225.06        46.55444
225.52        40.81942
225.98        38.43835
226.44        38.44537
226.90        39.82498
227.36        42.48612
227.81        45.41303
228.27        47.04451
228.73        47.66939
229.19        46.58614
229.65        43.23326
230.10        38.45716
230.56        33.44172
231.02        29.41161
231.48        27.77663
231.93        28.27269
232.39        30.13463
232.85        32.37164
233.31        33.64837
233.77        33.73682
234.22        33.09774
234.68        32.43614
235.14        32.89714
235.60        34.87178
236.05        38.13073
236.51        42.07678
236.97        45.38103
237.43        47.32467
237.88        48.30691
238.34        49.06034
238.80        50.76175
239.26        54.24292
239.71        62.08699
240.17        73.76837
240.63        89.42941
241.08        100.8959
241.54        102.2534
242.00        97.72526
242.46        96.55031
242.91         101.982
243.37        114.2606
243.83        136.4964
244.28        159.7706
244.74        159.5023
245.20        138.6728
245.66        113.8005
246.11        97.66654
246.57        90.68256
247.03        87.10332
247.48        85.00574
247.94        82.57687
248.40        79.11975
248.85        75.81016
249.31        71.52115
249.77        64.62007
250.22        57.43414
250.68        51.90981
251.14        50.26336
251.59        55.23122
252.05        68.08663
252.51        91.16056
252.96        125.6946
253.42        157.0787
253.88        166.0723
254.33        154.4553
254.79        133.1558
255.25        112.6902
255.70        97.39799
256.16        87.15445
256.62        81.08637
257.07        78.63406
257.53        78.84573
257.99        80.16537
258.44        81.10832
258.90        80.73788
259.35        78.66428
259.81        76.19463
260.27           73.55
260.72        71.01531
261.18        69.12662
261.63        67.40545
262.09         66.1299
262.55        65.10544
263.00        64.12408
263.46        63.23927
263.91         62.2809
264.37         61.3883
264.83        60.48218
265.28        59.52795
265.74        58.45882
266.19        56.87269
266.65        54.92941
267.11        52.72347
267.56        50.59196
268.02        49.10387
268.47        48.26282
268.93         47.9015
269.38        47.68629
269.84        47.07075
270.30        45.95808
270.75        44.54844
271.21        43.15133
271.66        42.08167
272.12        41.40397
272.57        40.92579
273.03        40.52007
273.48        40.03143
273.94        39.42688
274.39          38.784
274.85        38.08481
275.31        37.18605
275.76        36.10368
276.22        34.95264
276.67        33.92566
277.13        33.40935
277.58        33.34107
278.04        33.60733
278.49        33.85164
278.95         33.5842
279.40         32.7067
279.86        31.52697
280.31        30.29865
280.77        29.45746
281.22        28.99467
281.68        28.80884
282.13        28.74532
282.59        28.66109
283.04        28.48193
283.50        28.28746
283.95        28.08783
284.41        27.92165
284.86         27.7899
285.32        27.71728
285.77        27.67076
286.22        27.67453
286.68        27.73881
287.13        27.80952
287.59        27.95776
288.04        28.23265
288.50        28.63961
288.95        29.12154
289.41        29.54641
289.86        29.65324
290.32        29.44969
290.77        29.03602
291.22        28.64107
291.68        28.57881
292.13        28.92043
292.59        29.61761
293.04        30.56521
293.50         31.5819
293.95        32.59015
294.40         33.6492
294.86        34.82496
295.31        36.22208
295.77        37.87672
296.22        39.72002
296.68        41.68075
297.13        43.62712
297.58        45.46117
298.04          47.221
298.49        48.85603
298.95        50.38665
299.40        51.83098
299.85         53.2154
300.31        54.69714
300.76        56.46789
301.21        58.57182
301.67        60.97049
302.12         63.4257
302.58         65.5975
303.03         67.3684
303.48        68.84677
303.94        70.31394
304.39        72.09917
304.84        74.31331
305.30         76.8224
305.75        79.35091
306.20        81.52507
306.66        83.26511
307.11        84.64886
307.57        85.88036
308.02        87.10798
308.47        88.45341
308.93        89.87263
309.38        91.31787
309.83        92.83131
310.29        94.39246
310.74        95.95623
311.19        97.46034
311.65        98.77418
312.10        99.82512
312.55        100.6423
313.00        101.2243
313.46        101.6002
313.91        101.7893
314.36        101.8529
314.82        101.9261
315.27         102.181
315.72        102.6768
316.18        103.3753
316.63        104.1835
317.08        104.9608
317.53         105.651
317.99        106.2644
318.44        106.8247
318.89        107.3102
319.35        107.7182
319.80        108.0441
320.25        108.3038
320.70        108.5604
321.16         108.815
321.61        109.0755
322.06        109.3304
322.51        109.5598
322.97        109.7468
323.42        109.9367
323.87        110.0867
324.32        110.1416
324.78        110.0942
325.23         110.007
325.68        109.9669
326.13        110.1361
326.59        110.5203
327.04        111.1246
327.49        111.8238
327.94        112.4473
328.39        112.9236
328.85        113.2388
329.30        113.4906
329.75        113.6957
330.20        113.8794
330.66        114.0041
331.11        114.1223
331.56         114.196
332.01         114.247
332.46        114.3091
332.92        114.4217
333.37        114.7697
333.82        115.3398
334.27        116.0952
334.72         116.936
335.17        117.6932
335.63        118.2608
336.08        118.7074
336.53        119.0405
336.98        119.3498
337.43        119.6654
337.88        119.9731
338.34        120.2094
338.79        120.3044
339.24        120.2617
339.69        120.1528
340.14        120.1243
340.59        120.3941
341.05             121
341.50        121.8707
341.95        122.8611
342.40        123.7521
342.85        124.4554
343.30        125.0054
343.75        125.4119
344.20        125.7073
344.66         125.937
345.11        126.0743
345.56        126.1621
346.01        126.2674
346.46        126.4181
346.91        126.6105
347.36        126.8679
347.81          127.21
348.26        127.6277
348.72        128.1231
349.17        128.5919
349.62        128.8971
350.07        129.0115
350.52        128.9622
350.97        128.8642
351.42        128.9157
351.87        129.1389
352.32        129.4411
352.77        129.6878
353.22        129.6692
353.67        129.3399
354.13        128.8234
354.58        128.1393
355.03        127.3941
355.48        126.6566
355.93        125.9239
356.38         125.295
356.83        124.9211
357.28        124.8058
357.73        124.8839
358.18         125.003
358.63        124.9095
359.08        124.5228
359.53        123.9007
359.98        123.0984
360.43        122.2237
360.88        121.3204
361.33        120.3517
361.78        119.3636
362.23        118.4199
362.68        117.5361
363.13         116.737
363.58        115.9362
364.03        114.9852
364.48        113.8809
364.93        112.6776
365.38        111.5603
365.83        110.8057
366.28        110.4476
366.73        110.3823
367.18        110.3706
367.63        110.0339
368.08        109.2752
368.53        108.2046
368.98        107.0274
369.43        106.0509
369.88        105.3535
370.33        104.8529
370.78        104.4009
371.23        103.7659
371.68        102.8987
372.13        101.8836
372.58        100.9024
373.03        100.2072
373.48         99.8306
373.93        99.68056
374.38        99.52163
374.83        98.98792
375.28        98.00498
375.72        96.66653
376.17        95.31271
376.62        94.29018
377.07        93.66471
377.52        93.32497
377.97        93.04909
378.42        92.49194
378.87        91.59966
379.32        90.51918
379.77        89.48113
380.22        88.78828
380.67        88.48285
381.11        88.46802
381.56        88.51964
382.01         88.3458
382.46        87.86946
382.91        87.19844
383.36        86.48853
383.81        85.95635
384.26        85.64838
384.71        85.48946
385.15          85.369
385.60        85.15288
386.05        84.78886
386.50        84.31435
386.95        83.81709
387.40        83.42102
387.85        83.15201
388.29        82.94437
388.74        82.75567
389.19        82.33638
389.64        81.66542
390.09        80.82395
390.54        80.03285
390.98        79.56441
391.43        79.49733
391.88         79.8439
392.33        80.34929
392.78        80.19307
393.23        79.50388
393.67        79.38747
394.12        79.76683
394.57         79.2979
395.02        78.16586
395.47          77.744
395.91        78.02885
396.36        77.96173
396.81        77.54121
397.26        77.36633
397.71         77.3547
398.15        77.18311
398.60        76.93694
399.05        76.39559
399.50        75.75581
399.95         75.8669
400.39        76.51571
400.84        76.21043
401.29        75.10468
401.74        74.61904
402.18         74.8457
402.63        75.05679
403.08         75.2278
403.53         75.0071
403.97         75.4062
404.42        75.46797
404.87        75.48589
405.32        75.36395
405.76        75.09045
406.21        74.85795
406.66        74.61117
407.11        74.02152
407.55        73.28438
408.00        72.98821
408.45        73.14323
408.90        73.39848
409.34        73.53658
409.79        73.17724
410.24        72.49326
410.68        72.25702
411.13        72.53446
411.58        72.61141
412.03         72.8143
412.47          72.704
412.92        72.36546
413.37        71.81985
413.81        71.26912
414.26        71.07775
414.71         71.2585
415.15        71.76833
415.60        72.31188
416.05        72.45393
416.49        72.08782
416.94        71.38585
417.39        70.66294
417.83        70.36953
418.28        70.60548
418.73        71.20087
419.17        71.94699
419.62        72.43372
420.07        72.52702
420.51        72.33366
420.96         71.9771
421.41        71.53261
421.85        71.03909
422.30        70.63811
422.74         70.3174
423.19        70.01025
423.64        69.78571
424.08        70.06908
424.53        70.71662
424.98        71.13166
425.42         71.2215
425.87        71.31975
426.31        71.47916
426.76        71.38595
427.21        71.18358
427.65        71.45912
428.10        72.02633
428.54        72.16746
428.99        71.88765
429.44        71.42735
429.88        70.95124
430.33        70.93652
430.77        71.18881
431.22        71.15627
431.66         70.8067
432.11        70.50983
432.56        70.34406
433.00        70.57176
433.45        71.03611
433.89        71.70448
434.34        69.39091
434.78        71.55973
435.23        71.64131
435.67        70.32448
436.12        70.08365
436.57        70.02314
437.01        71.14587
437.46        71.60977
437.90        71.38757
438.35        71.14793
438.79        71.42537
439.24        71.31207
439.68        70.97549
440.13        70.76925
440.57        70.77795
441.02        70.63458
441.46        70.36719
441.91        70.95349
442.35        71.91209
442.80        71.45905
443.24        69.97661
443.69        70.06208
444.13        71.51099
444.58        71.95897
445.02        71.30576
445.47        70.87147
445.91        70.82665
446.36        70.88947
446.80        71.06431
447.24        71.48188
447.69        71.94134
448.13        71.99516
448.58        71.65823
449.02        71.27821
449.47        71.00903
449.91        70.81896
450.36         70.7782
450.80        70.93187
451.25        71.20467
451.69        71.37208
452.13        71.39196
452.58        71.33999
453.02        71.22704
453.47        71.09911
453.91        70.96366
454.36        70.79669
454.80        70.60527
455.24        70.48164
455.69        70.45932
456.13        70.41887
456.58         70.2961
457.02        70.48757
457.46        69.99736
457.91        69.84714
458.35        69.71887
458.79        69.73659
459.24        69.80406
459.68        69.51305
460.13        68.99277
460.57        68.72256
461.01        68.78519
461.46        68.72149
461.90        68.42987
462.34        68.82495
462.79        68.36484
463.23        68.24036
463.68        68.06039
464.12        68.05376
464.56        68.13561
465.01        68.15297
465.45        68.10172
465.89         67.8893
466.34        67.56277
466.78         67.8086
467.22        68.66818
467.67        67.48767
468.11        67.70227
468.55         67.5328
468.99        67.92458
469.44        67.99706
469.88        67.75145
470.32        67.59641
470.77          67.529
471.21        67.46108
471.65        67.37079
472.10        67.27416
472.54        67.19824
472.98        67.13451
473.42         67.0644
473.87        67.23139
474.31         67.4351
474.75        66.90864
475.20        65.92166
475.64        65.70028
476.08        66.20208
476.52         66.3196
476.97        66.00189
477.41        65.98565
477.85        66.27779
478.29        66.29278
478.74        66.15117
479.18        66.45734
479.62        66.53888
480.06        66.57939
480.50        66.29906
480.95        66.33502
481.39        66.76733
481.83        65.47968
482.27        66.06849
482.72        65.96803
483.16        65.72916
483.60        65.75899
484.04        66.03141
484.48        65.88372
484.93        65.22163
485.37        66.64081
485.81        67.03999
486.25        66.44289
486.69        67.88845
487.14        68.38384
487.58        65.95213
488.02        65.41687
488.46        66.62893
488.90        64.89872
489.34        65.96223
489.79        65.81656
490.23        65.85075
490.67        65.92048
491.11        65.95541
491.55        65.93334
491.99        65.81857
492.43        65.73228
492.88        65.68625
493.32        65.71344
493.76        65.77718
494.20        65.78577
494.64        65.71932
495.08        65.66592
495.52        65.66582
495.96        65.57988
496.41        65.46281
496.85        65.77029
497.29        66.32787
497.73        66.20866
498.17        65.53117
498.61        65.44312
499.05        65.88863
499.49        65.83044
499.93        65.28126
500.37        64.91967
500.82        64.80535
501.26        64.71345
501.70        64.65094
502.14        64.70718
502.58        64.84798
503.02        64.98131
503.46        65.07912
503.90        65.15399
504.34        65.18254
504.78        65.14103
505.22        65.03178
505.66        64.84518
506.10        64.62638
506.54        64.52816
506.98        64.58533
507.42        64.63313
507.86         64.5705
508.30        64.94774
508.74         64.5528
509.18        64.38387
509.62         64.1799
510.06        64.12292
510.50         64.2344
510.94        64.47095
511.38        64.73719
511.82        64.84819
512.26        64.76681
512.70        64.54541
513.14        64.26612
513.58        64.09174
514.02        64.06618
514.46        63.99873
514.90        64.10464
515.34        64.14154
515.78        64.16404
516.22        64.19795
516.66         64.2169
517.10        64.16815
517.54        64.05096
517.98        63.87445
518.42        63.72707
518.86        63.75563
519.30         63.9781
519.74        64.34382
520.18        64.71976
520.62        64.88702
521.06        64.79352
521.50        64.50894
521.93        64.14822
522.37        63.91287
522.81        63.85241
523.25        63.90503
523.69        64.01014
524.13        64.07144
524.57         64.0595
525.01        64.01784
525.45        63.95941
525.89        63.89906
526.32        63.84751
526.76        63.79959
527.20        63.77932
527.64        63.85924
528.08        64.04704
528.52        64.25443
528.96        64.42561
529.40        64.63814
529.83        64.77703
530.27        64.50446
530.71        63.97672
531.15        63.76858
531.59        63.93503
532.03        64.20856
532.46         64.4336
532.90        64.45815
533.34        64.24651
533.78        63.88171
534.22        63.51663
534.66        63.37099
535.09        63.47552
535.53        63.74947
535.97        64.10281
536.41        64.34408
536.85         64.4036
537.28        64.50876
537.72        64.60603
538.16        64.20967
538.60         63.5414
539.04        63.49696
539.47        63.98331
539.91        64.13613
540.35        63.91535
540.79         63.8468
541.22        63.90764
541.66         63.8957
542.10        63.82109
542.54        63.59089
542.97        63.27597
543.41        63.56432
543.85        63.82401
544.29        63.95951
544.72        63.79392
545.16        63.74547
545.60        63.79483
546.04          63.757
546.47        63.63541
546.91        63.45236
547.35        63.26981
547.79        63.29177
548.22        63.48038
548.66        63.58952
549.10        63.61526
549.53        63.83371
549.97        64.16731
550.41        64.28324
550.84        64.11884
551.28        63.90579
551.72        63.72919
552.15        63.41999
552.59        62.99875
553.03        63.44908
553.46        63.00417
553.90        63.10485
554.34        63.19233
554.77        63.22991
555.21         63.2345
555.65        63.30569
556.08        63.43679
556.52        63.61909
556.96        63.78544
557.39        63.71583
557.83        63.51667
558.27        63.55696
558.70        63.80387
559.14        63.96349
559.57         63.9519
560.01        63.78948
560.45        63.53116
560.88        63.41081
561.32        63.46214
561.75        63.45926
562.19        63.44143
562.63        63.44378
563.06        63.46026
563.50        63.70406
563.93        64.03534
564.37        63.82747
564.80        63.22644
565.24        63.18525
565.68        63.61153
566.11        63.73742
566.55        63.56405
566.98        63.40746
567.42        63.33308
567.85        63.59803
568.29        63.70784
568.72        63.68644
569.16        63.50686
569.60         63.4768
570.03        63.58041
570.47        63.71658
570.90        63.86382
571.34        63.59111
571.77        64.36762
572.21        63.76536
572.64        63.98286
573.08        63.53779
573.51        64.02306
573.95        63.79694
574.38        63.46098
574.82        63.11916
