SpectraSmart Spectrum 2.9.0.0
--------- Device Information -----------
Spectrum Name :  反射率_0
Saving Time :  2024/05/03 20:25:39
Spectro-Module Model Name : SE2030-DUVN
Spectro-Module Serial Number : OS361AC55029948
Wavelength Start : 200
Wavelength End : 1025
Wavelength Unit : Wavelength(nm)
Spectrum Unit : Reflectance(%)
-----------Spectrum Setting ------------
Integration Time : 20ms
Average : 10
Boxcar : 0
Background removal :  enabled
linearity correction :  enabled
SC :  disabled
Intensity correction :  disabled
DWT denoise :  enabled
savitzky-golay :  disabled
FFT :  disabled
Running average :  disabled
Kalman :  disabled
High pass :  disabled
---------------BEGIN--------------------
Wavelength(nm)             Reflectance(%)
200.29               0
200.75       -48.28491
201.21       -65.33965
201.67         1169.88
202.13        38.10594
202.58        37.16941
203.04        47.16022
203.50          58.103
203.96        66.55972
204.42        74.34144
204.88        97.48621
205.34       -666.6469
205.80       0.2134451
206.26        16.14857
206.72       -880.2985
207.18        32.93499
207.64        37.45234
208.10        49.59225
208.55        98.89301
209.01        570.9348
209.47        775.0919
209.93        117.0342
210.39        49.00889
210.85        31.43431
211.31        29.53659
211.77        36.68314
212.23        58.88547
212.69        116.3788
213.14        148.9095
213.60        65.70065
214.06        14.97167
214.52       -5.138985
214.98       -14.23785
215.44       -21.56921
215.90       -39.14692
216.36        152.3103
216.81        3.851205
217.27       -19.95727
217.73       -68.61537
218.19       -324.7751
218.65       -6961.879
219.11       -478.4383
219.57        -102.757
220.02       -39.51105
220.48       -65.88112
220.94         116.789
221.40         52.3946
221.86        43.52591
222.32         41.0214
222.77        40.32138
223.23        41.14254
223.69        42.45826
224.15        40.50897
224.61        35.41616
225.06        30.61884
225.52        28.74165
225.98        30.60234
226.44        36.01479
226.90        45.09996
227.36        56.99231
227.81        65.75388
228.27        66.74107
228.73        62.55676
229.19         56.2484
229.65        50.31244
230.10        45.34397
230.56        41.29979
231.02        38.31901
231.48        36.76624
231.93         36.4086
232.39         37.0218
232.85        38.14826
233.31        39.20264
233.77        40.01415
234.22          40.631
234.68        41.23509
235.14        42.14504
235.60        43.40059
236.05        44.92844
236.51        46.18729
236.97        46.30502
237.43        45.13385
237.88         43.3492
238.34         41.7079
238.80        40.86105
239.26        41.03138
239.71        44.43035
240.17        49.19347
240.63        59.08889
241.08        70.69826
241.54        79.10639
242.00        83.18545
242.46        87.31531
242.91        94.53438
243.37        105.1597
243.83        119.5041
244.28        125.6174
244.74        104.4702
245.20        66.42846
245.66        33.73969
246.11        17.45631
246.57        14.45875
247.03        20.00322
247.48        27.77377
247.94        31.45729
248.40        30.76356
248.85        27.07974
249.31        23.50561
249.77        25.61548
250.22        32.96014
250.68         41.3986
251.14        48.52096
251.59        53.73606
252.05        58.04577
252.51        62.68159
252.96        67.95276
253.42        71.82913
253.88        71.97044
254.33        68.63113
254.79        64.73553
255.25         61.9089
255.70        60.10299
256.16        59.47191
256.62        59.22564
257.07         58.9107
257.53        58.81223
257.99        58.55357
258.44         58.0093
258.90        57.61681
259.35        56.97223
259.81        56.43472
260.27        55.62536
260.72        54.21106
261.18         52.6781
261.63        51.02399
262.09        49.67753
262.55        48.70727
263.00        47.96765
263.46        47.37535
263.91        46.78942
264.37        46.29806
264.83        45.82348
265.28        45.37654
265.74        44.80285
266.19        43.65677
266.65        42.06757
267.11        40.13561
267.56        38.32581
268.02        37.37372
268.47        37.30935
268.93        37.92057
269.38        38.63978
269.84        38.50413
270.30        37.33732
270.75        35.48943
271.21         33.6121
271.66        32.53101
272.12        32.40326
272.57        32.88757
273.03         33.5553
273.48        33.75022
273.94        33.29189
274.39        32.41861
274.85        31.35237
275.31        30.30734
275.76        29.37042
276.22        28.51381
276.67        27.76359
277.13        27.26575
277.58        26.95004
278.04        26.81203
278.49        26.66473
278.95        26.27197
279.40        25.58758
279.86        24.77646
280.31        23.97012
280.77        23.43751
281.22        23.14043
281.68        23.01508
282.13        22.92186
282.59         22.7195
283.04        22.36278
283.50        21.93747
283.95        21.49262
284.41        21.11263
284.86        20.81781
285.32        20.61057
285.77        20.47932
286.22         20.4608
286.68        20.55158
287.13          20.703
287.59        20.90045
288.04          21.084
288.50        21.24435
288.95        21.36116
289.41        21.41839
289.86        21.35382
290.32        21.19543
290.77        20.96931
291.22        20.75232
291.68        20.64183
292.13        20.66357
292.59        20.82456
293.04        21.11365
293.50        21.51803
293.95        22.00945
294.40        22.58247
294.86        23.23242
295.31        23.95769
295.77        24.75837
296.22        25.62374
296.68        26.50745
297.13        27.32928
297.58        28.05617
298.04        28.72193
298.49         29.3686
298.95        30.10736
299.40        30.95877
299.85        31.90946
300.31        32.96106
300.76        34.07856
301.21        35.25611
301.67        36.50653
302.12        37.77659
302.58        39.00346
303.03         40.1426
303.48        41.20175
303.94        42.26502
304.39        43.40765
304.84        44.68237
305.30        46.07316
305.75        47.48139
306.20        48.78134
306.66        49.95647
307.11        51.01624
307.57        52.07545
308.02        53.21432
308.47        54.48746
308.93        55.86585
309.38        57.26993
309.83        58.64707
310.29        59.97242
310.74        61.23697
311.19        62.45304
311.65         63.6272
312.10        64.72688
312.55        65.72896
313.00        66.59301
313.46        67.28095
313.91        67.78687
314.36        68.17616
314.82        68.52605
315.27        68.92884
315.72        69.42933
316.18        70.00291
316.63        70.65022
317.08        71.37947
317.53        72.17041
317.99        73.00426
318.44        73.80065
318.89        74.38179
319.35        74.70391
319.80        74.80752
320.25        74.81141
320.70        74.93142
321.16        75.21521
321.61        75.62714
322.06        76.06029
322.51        76.33498
322.97        76.39998
323.42        76.33921
323.87        76.24062
324.32        76.25255
324.78        76.40987
325.23        76.69167
325.68        77.02719
326.13         77.3158
326.59        77.50251
327.04        77.65656
327.49        77.80716
327.94        78.03126
328.39        78.34439
328.85        78.68818
329.30        79.05136
329.75        79.31168
330.20        79.44527
330.66        79.47164
331.11        79.49052
331.56        79.57209
332.01        79.75491
332.46        80.01919
332.92        80.33531
333.37        80.74465
333.82        81.20852
334.27        81.73161
334.72        82.27248
335.17        82.76212
335.63        83.14669
336.08        83.45508
336.53        83.70362
336.98        83.97429
337.43        84.28587
337.88        84.63117
338.34        84.91994
338.79        85.02263
339.24        84.93188
339.69        84.72365
340.14        84.57015
340.59        84.74065
341.05        85.28664
341.50         86.1172
341.95        87.07175
342.40        87.89953
342.85        88.51206
343.30        88.97443
343.75        89.30745
344.20        89.55643
344.66        89.77172
345.11        89.91753
345.56        90.07428
346.01        90.37041
346.46        90.82698
346.91        91.41303
347.36        92.03948
347.81        92.55166
348.26         92.9083
348.72          93.159
349.17        93.33801
349.62        93.52703
350.07        93.75076
350.52        93.97333
350.97        94.18874
351.42        94.39836
351.87        94.58499
352.32        94.73714
352.77        94.82452
353.22        94.79616
353.67        94.64994
354.13        94.44091
354.58         94.1508
355.03        93.81165
355.48         93.4596
355.93        93.11417
356.38        92.85281
356.83        92.79158
357.28        92.93497
357.73        93.22177
358.18        93.55058
358.63        93.75577
359.08        93.77271
359.53         93.6339
359.98        93.33537
360.43        92.88896
360.88        92.31818
361.33        91.61834
361.78        90.88284
362.23        90.25251
362.68        89.76016
363.13        89.39727
363.58        89.04887
364.03        88.52019
364.48        87.78607
364.93        86.91496
365.38         86.0816
365.83         85.5492
366.28        85.36028
366.73        85.41882
367.18        85.52516
367.63        85.36444
368.08        84.85226
368.53        84.08026
368.98         83.2196
369.43        82.52445
369.88        82.06219
370.33        81.77076
370.78        81.51762
371.23        81.09102
371.68        80.45166
372.13        79.67921
372.58        78.95914
373.03         78.5573
373.48        78.50981
373.93        78.71775
374.38        78.94706
374.83        78.82108
375.28         78.2504
375.72        77.33623
376.17         76.3683
376.62        75.65523
377.07        75.26928
377.52        75.11076
377.97        75.03118
378.42        74.79907
378.87        74.36243
379.32        73.81274
379.77        73.27639
380.22        72.91489
380.67        72.75151
381.11        72.73831
381.56        72.72761
382.01        72.54512
382.46         72.1523
382.91        71.61489
383.36        71.06491
383.81        70.68707
384.26        70.51182
384.71        70.47904
385.15        70.45899
385.60        70.27455
386.05        69.87977
386.50        69.34167
386.95        68.78659
387.40         68.3992
387.85        68.22088
388.29        68.16176
388.74        68.17207
389.19        68.03202
389.64         67.7009
390.09        67.23388
390.54        66.77087
390.98        66.46836
391.43         66.3929
391.88         66.5948
392.33        66.89228
392.78        66.69838
393.23        66.15325
393.67        66.01199
394.12        66.27119
394.57        66.23055
395.02        65.87634
395.47         65.5799
395.91        65.40758
396.36        65.25528
396.81        65.16723
397.26        65.19932
397.71         65.2214
398.15        65.08751
398.60        64.86983
399.05        64.30994
399.50        63.66601
399.95        63.88735
400.39        64.76549
400.84         64.7608
401.29        63.92912
401.74        63.59482
402.18        63.81565
402.63        63.86003
403.08        63.77589
403.53        63.45283
403.97        63.79058
404.42         63.9342
404.87        64.08111
405.32        64.09022
405.76        63.93374
406.21        63.73019
406.66        63.48853
407.11        63.16905
407.55        62.87147
408.00        62.71474
408.45        62.71637
408.90        62.88931
409.34        63.08801
409.79          62.916
410.24        62.48082
410.68        62.30983
411.13        62.43989
411.58          62.575
412.03        62.59876
412.47        62.47839
412.92        62.17474
413.37        61.71746
413.81        61.28001
414.26         61.1805
414.71        61.43079
415.15        61.99149
415.60        62.57858
416.05        62.76001
416.49        62.42627
416.94        61.73654
417.39        61.01266
417.83        60.71685
418.28        60.95549
418.73        61.57627
419.17        62.34182
419.62        62.79832
420.07        62.80333
420.51        62.47304
420.96        62.01954
421.41        61.63309
421.85        61.35884
422.30        61.35379
422.74        61.44333
423.19        61.15697
423.64        60.59918
424.08        60.60216
424.53        61.14682
424.98        61.49278
425.42        61.58091
425.87        61.98328
426.31        62.58713
426.76        62.53186
427.21        61.98391
427.65        62.07308
428.10        62.69439
428.54         62.8432
428.99        62.54062
429.44        62.23983
429.88          62.045
430.33        62.16262
430.77        62.41547
431.22        62.44738
431.66        62.21578
432.11        61.94376
432.56        61.70089
433.00        61.76791
433.45        62.01022
433.89        62.48445
434.34        60.46512
434.78        62.25049
435.23         62.2127
435.67        61.55589
436.12         61.1269
436.57        61.37058
437.01        62.69185
437.46         63.2751
437.90        63.06952
438.35        62.64051
438.79        62.75859
439.24        62.50325
439.68        62.11829
440.13         61.9323
440.57        61.97709
441.02        61.79674
441.46        61.44744
441.91        61.93169
442.35        62.83808
442.80        62.59523
443.24        61.48064
443.69        61.58394
444.13        62.75203
444.58        63.14215
445.02        62.67875
445.47        62.38126
445.91        62.36411
446.36         62.4105
446.80        62.52621
447.24        62.77647
447.69        63.04684
448.13        63.15158
448.58        63.06541
449.02        62.82185
449.47        62.54478
449.91        62.39315
450.36        62.42482
450.80        62.56317
451.25        62.75002
451.69        62.86243
452.13        62.87343
452.58        62.82761
453.02        62.74412
453.47        62.67886
453.91         62.6318
454.36        62.57939
454.80        62.51273
455.24        62.42741
455.69        62.32683
456.13        62.26284
456.58        62.22057
457.02        62.05373
457.46         61.5688
457.91        61.63049
458.35        61.53868
458.79        61.65273
459.24        61.71669
459.68         61.4404
460.13        60.94217
460.57        60.73901
461.01         60.9285
461.46        60.72645
461.90        60.64228
462.34        60.99538
462.79        60.23893
463.23        60.18006
463.68        60.29765
464.12        60.32566
464.56        60.22949
465.01        60.25319
465.45        60.36287
465.89        60.42257
466.34        60.42194
466.78        60.53922
467.22        60.78046
467.67        60.35243
468.11         60.1497
468.55        60.09816
468.99        60.36929
469.44        60.36293
469.88         60.0678
470.32        59.80644
470.77        59.64545
471.21        59.57661
471.65        59.60368
472.10        59.72364
472.54        59.86552
472.98        59.92391
473.42        59.86828
473.87        59.80035
474.31        59.68327
474.75        59.39841
475.20        59.04559
475.64        58.87558
476.08        58.89192
476.52        58.88486
476.97        58.84645
477.41        58.86463
477.85        58.89136
478.29        59.16932
478.74        58.97733
479.18        59.05024
479.62         59.2067
480.06        59.18393
480.50        58.92789
480.95         58.9361
481.39        59.29014
481.83        58.38311
482.27        58.66094
482.72        59.03353
483.16        58.73093
483.60        58.86755
484.04        59.05175
484.48        59.02075
484.93         58.7346
485.37        59.36293
485.81        59.58065
486.25        59.34178
486.69        60.82785
487.14        61.11424
487.58        58.33508
488.02        58.48429
488.46        59.62031
488.90        58.11112
489.34        58.91244
489.79        58.66951
490.23        58.91192
490.67        59.11818
491.11         59.2449
491.55        59.22177
491.99        59.03104
492.43        58.91302
492.88        58.88459
493.32        58.87867
493.76        58.86209
494.20        58.80771
494.64         58.7006
495.08        58.61302
495.52        58.59322
495.96         58.5005
496.41          58.399
496.85         58.7817
497.29        59.44048
497.73        59.36736
498.17        58.66751
498.61        58.50471
499.05        58.88074
499.49        58.85489
499.93        58.43954
500.37        58.29696
500.82         58.4324
501.26        58.42237
501.70         58.2244
502.14        58.42126
502.58        58.23483
503.02        58.26923
503.46        58.28967
503.90        58.30795
504.34         58.3041
504.78        58.27491
505.22        58.22785
505.66        58.14841
506.10        58.04264
506.54        57.99708
506.98        58.03463
507.42        58.00065
507.86        57.84626
508.30        58.23051
508.74        57.93045
509.18         57.9308
509.62        57.90228
510.06        57.93245
510.50        58.01846
510.94        58.15187
511.38        58.27553
511.82         58.2645
512.26        58.10321
512.70        57.83537
513.14        57.54668
513.58        57.37132
514.02         57.3388
514.46        57.40192
514.90        57.50603
515.34         57.5578
515.78        57.53124
516.22        57.47267
516.66        57.38524
517.10         57.2705
517.54        57.14542
517.98        57.00177
518.42        56.91384
518.86         57.0046
519.30        57.28114
519.74        57.69793
520.18         58.1199
520.62        58.32404
521.06        58.25698
521.50        57.98668
521.93        57.62931
522.37        57.38882
522.81        57.31931
523.25        57.36275
523.69        57.46469
524.13        57.53623
524.57        57.54935
525.01        57.54451
525.45        57.53024
525.89        57.51237
526.32        57.49331
526.76        57.46696
527.20         57.4525
527.64        57.49289
528.08        57.59087
528.52        57.73377
528.96        57.87092
529.40        57.92292
529.83        57.86266
530.27        57.72077
530.71          57.553
531.15        57.45543
531.59        57.45171
532.03        57.52577
532.46        57.60762
532.90        57.58629
533.34        57.45162
533.78        57.25347
534.22        57.08844
534.66        57.09739
535.09        57.28545
535.53        57.59389
535.97        57.92767
536.41        58.09285
536.85        58.03292
537.28        57.96352
537.72        57.88109
538.16        57.42615
538.60        56.81683
539.04        56.83343
539.47        57.36454
539.91        57.58635
540.35        57.44286
540.79        57.42086
541.22        57.50632
541.66         57.4974
542.10        57.39905
542.54        57.18223
542.97        56.93668
543.41        57.02497
543.85        57.36687
544.29        57.49316
544.72        57.36867
545.16        57.33901
545.60        57.38766
546.04        57.31147
546.47        57.14336
546.91        57.05146
547.35        57.05376
547.79        57.11605
548.22        57.20456
548.66        57.27622
549.10        57.32489
549.53        57.46463
549.97        57.64165
550.41        57.70116
550.84        57.62703
551.28        57.45561
551.72         57.2458
552.15        57.16064
552.59        57.18271
553.03        57.04637
553.46        56.82323
553.90        56.64933
554.34        56.91488
554.77        57.09224
555.21        57.28104
555.65        57.24869
556.08        57.45176
556.52        57.46402
556.96        57.43432
557.39        57.32354
557.83        57.22252
558.27        57.31008
558.70        57.51171
559.14        57.60049
559.57        57.51898
560.01        57.28124
560.45        57.00082
560.88        56.99245
561.32        57.23755
561.75        57.36206
562.19        57.36978
562.63        57.30862
563.06         57.2119
563.50        57.42598
563.93        57.81716
564.37        57.59202
564.80        56.92489
565.24        56.95826
565.68        57.54799
566.11        57.70699
566.55        57.41951
566.98        57.08759
567.42        56.84584
567.85        57.06519
568.29        57.29436
568.72        57.37209
569.16        57.22987
569.60        57.28576
570.03        57.38981
570.47        57.48084
570.90        57.55143
571.34        57.41932
571.77        57.81665
572.21        57.90041
572.64        57.93358
573.08          57.609
573.51        58.16954
573.95        57.91162
574.38        57.56888
574.82        57.02648
