SpectraSmart Spectrum 2.9.0.0
--------- Device Information -----------
Spectrum Name :  反射率_0
Saving Time :  2024/05/03 20:19:46
Spectro-Module Model Name : SE2030-DUVN
Spectro-Module Serial Number : OS361AC55029948
Wavelength Start : 200
Wavelength End : 1025
Wavelength Unit : Wavelength(nm)
Spectrum Unit : Reflectance(%)
-----------Spectrum Setting ------------
Integration Time : 20ms
Average : 10
Boxcar : 0
Background removal :  enabled
linearity correction :  enabled
SC :  disabled
Intensity correction :  disabled
DWT denoise :  enabled
savitzky-golay :  disabled
FFT :  disabled
Running average :  disabled
Kalman :  disabled
High pass :  disabled
---------------BEGIN--------------------
Wavelength(nm)             Reflectance(%)
200.29               0
200.75       -24.62036
201.21       -50.57653
201.67        1688.613
202.13        71.80693
202.58        53.92428
203.04        52.06211
203.50        55.85768
203.96        66.11953
204.42        89.61968
204.88        177.2157
205.34        -2924.66
205.80       -245.9748
206.26        -242.217
206.72       -47514.81
207.18        139.6279
207.64        82.62862
208.10        87.47528
208.55        162.5177
209.01        949.8925
209.47        1292.209
209.93        189.5687
210.39        79.23466
210.85        50.74208
211.31        45.25919
211.77        51.59282
212.23        74.65977
212.69        138.9037
213.14        191.3274
213.60        112.8307
214.06        58.19788
214.52        36.70059
214.98        31.33037
215.44        36.41664
215.90        67.08709
216.36       -400.3223
216.81        -80.3287
217.27       -88.89703
217.73       -170.4844
218.19       -655.8109
218.65       -12894.49
219.11       -846.9346
219.57       -179.9151
220.02       -72.38871
220.48       -122.4171
220.94          208.28
221.40        90.94835
221.86        74.43002
222.32        69.43957
222.77         67.5631
223.23        67.80936
223.69        68.10381
224.15        63.05039
224.61        53.94877
225.06        45.83962
225.52        42.36517
225.98        44.18642
226.44         50.5696
226.90        61.55929
227.36        75.01747
227.81        81.71273
228.27        76.77076
228.73        65.65586
229.19        53.94445
229.65        45.65517
230.10        40.73788
230.56        37.90732
231.02        36.67687
231.48        36.87295
231.93        38.04657
232.39        40.10926
232.85        42.32945
233.31         43.6641
233.77        43.94183
234.22         43.3766
234.68        42.59738
235.14        42.71894
235.60        44.09877
236.05        46.58589
236.51        49.47544
236.97        51.36292
237.43        51.67091
237.88        50.93715
238.34        50.15858
238.80        50.58484
239.26        52.86884
239.71        59.56746
240.17        69.50748
240.63        81.98108
241.08         89.1902
241.54        86.97424
242.00        81.63274
242.46        83.46378
242.91        96.48518
243.37        123.9778
243.83        173.7639
244.28        230.3642
244.74        242.4063
245.20        207.8582
245.66        156.3479
246.11        116.1205
246.57        91.27895
247.03        74.01743
247.48        64.59696
247.94        63.31323
248.40        68.38943
248.85         79.6658
249.31        93.16356
249.77        97.61731
250.22        91.41698
250.68        81.08027
251.14        72.47956
251.59        70.54469
252.05        75.85847
252.51        88.36887
252.96        108.8165
253.42        128.4199
253.88        135.1859
254.33        129.7923
254.79        117.8974
255.25        104.8366
255.70        93.84731
256.16        85.96544
256.62        80.60541
257.07        77.36035
257.53        75.75929
257.99        74.59541
258.44        73.19003
258.90        71.51674
259.35         69.2361
259.81        67.21185
260.27        65.11653
260.72        62.67154
261.18         60.4416
261.63        58.26787
262.09        56.75667
262.55        56.13557
263.00        56.14101
263.46         56.5624
263.91        56.86988
264.37          56.654
264.83        55.78382
265.28        54.47388
265.74        52.95061
266.19        51.21975
266.65        49.48893
267.11        47.69398
267.56        46.04175
268.02        44.91755
268.47        44.29206
268.93         44.0938
269.38        43.99968
269.84         43.4584
270.30        42.39359
270.75        40.98841
271.21        39.64855
271.66          38.856
272.12        38.67672
272.57        38.85131
273.03         39.0792
273.48        38.91134
273.94        38.25012
274.39        37.29518
274.85        36.16513
275.31        34.91981
275.76        33.64579
276.22        32.39341
276.67        31.36482
277.13        30.94941
277.58         31.0687
278.04        31.61171
278.49        32.13478
278.95        31.98933
279.40        31.05348
279.86        29.68449
280.31        28.25295
280.77        27.34352
281.22        26.96303
281.68        26.94513
282.13        27.05677
282.59        27.03013
283.04        26.77133
283.50        26.41659
283.95        26.02177
284.41        25.68617
284.86        25.42775
285.32        25.23121
285.77        25.08618
286.22        25.04794
286.68        25.12143
287.13         25.2626
287.59        25.44607
288.04        25.58043
288.50        25.66384
288.95        25.68525
289.41        25.67851
289.86        25.65294
290.32        25.64252
290.77         25.6344
291.22        25.64456
291.68        25.68246
292.13        25.75969
292.59        25.92774
293.04        26.21569
293.50        26.67285
293.95        27.30076
294.40        28.08226
294.86        29.02768
295.31        30.15988
295.77         31.4756
296.22        32.94275
296.68        34.47623
297.13        35.91791
297.58        37.19139
298.04        38.34899
298.49        39.40372
298.95        40.45375
299.40        41.53441
299.85        42.64488
300.31         43.8911
300.76        45.39096
301.21        47.16041
301.67        49.16837
302.12        51.21147
302.58        52.99825
303.03        54.42888
303.48        55.59138
303.94        56.71989
304.39         58.0904
304.84        59.80852
305.30        61.78612
305.75        63.81285
306.20        65.60174
306.66        67.09539
307.11        68.34543
307.57        69.54022
308.02        70.83626
308.47        72.31705
308.93        73.91791
309.38        75.51838
309.83         77.0304
310.29        78.41932
310.74        79.69441
311.19        80.87918
311.65        81.99029
312.10        83.00374
312.55        83.90035
313.00        84.66196
313.46        85.28391
313.91        85.76412
314.36        86.17332
314.82         86.5718
315.27        87.01565
315.72        87.54513
316.18        88.14405
316.63        88.83786
317.08        89.68067
317.53        90.65542
317.99        91.71704
318.44        92.74709
318.89        93.49441
319.35        93.89378
319.80        94.00792
320.25        93.98183
320.70        94.08003
321.16        94.36385
321.61        94.78498
322.06        95.23682
322.51        95.54092
322.97         95.6416
323.42        95.63612
323.87        95.58437
324.32        95.58862
324.78        95.67649
325.23        95.84581
325.68        96.07675
326.13        96.35868
326.59        96.65134
327.04        97.00638
327.49        97.38651
327.94        97.76251
328.39        98.11714
328.85        98.41255
329.30        98.69756
329.75        98.92422
330.20        99.09696
330.66        99.20791
331.11        99.33935
331.56        99.51212
332.01        99.75125
332.46        100.0528
332.92        100.3998
333.37        100.8768
333.82        101.4429
334.27         102.084
334.72        102.7357
335.17        103.2927
335.63        103.6897
336.08         103.992
336.53         104.216
336.98        104.4534
337.43        104.7346
337.88        105.0416
338.34        105.3366
338.79        105.5798
339.24        105.7638
339.69        105.9364
340.14        106.1442
340.59        106.4513
341.05        106.8705
341.50        107.3777
341.95        107.9577
342.40        108.6045
342.85        109.2855
343.30        109.9763
343.75        110.5921
344.20         111.002
344.66        111.2072
345.11        111.2492
345.56        111.2191
346.01        111.2557
346.46         111.412
346.91        111.6453
347.36        111.9888
347.81         112.488
348.26        113.1174
348.72        113.8617
349.17         114.547
349.62        114.9205
350.07        114.9368
350.52        114.6684
350.97        114.3015
351.42        114.1489
351.87        114.2777
352.32        114.5743
352.77        114.9019
353.22        115.0381
353.67        114.9223
354.13         114.678
354.58         114.297
355.03        113.8313
355.48        113.3332
355.93        112.8005
356.38         112.348
356.83        112.1642
357.28        112.2562
357.73         112.537
358.18        112.8404
358.63        112.8896
359.08        112.6007
359.53        112.0565
359.98        111.3034
360.43        110.4315
360.88         109.498
361.33        108.4769
361.78        107.4861
362.23        106.6997
362.68        106.1417
363.13        105.7923
363.58        105.4558
364.03        104.8089
364.48        103.7976
364.93         102.519
365.38        101.2418
365.83        100.3778
366.28         100.008
366.73        100.0072
367.18        100.0827
367.63        99.76736
368.08        98.94765
368.53        97.76283
368.98         96.5146
369.43        95.65225
369.88        95.27354
370.33        95.25146
370.78         95.2845
371.23        94.87907
371.68        93.92756
372.13        92.60063
372.58        91.26902
373.03        90.48093
373.48        90.34145
373.93        90.66792
374.38        91.08749
374.83         90.9924
375.28         90.2278
375.72        88.97028
376.17          87.629
376.62        86.66277
377.07        86.17585
377.52         86.0124
377.97        85.93972
378.42         85.6022
378.87        84.92281
379.32        84.04289
379.77        83.17542
380.22        82.59423
380.67        82.34203
381.11        82.34112
381.56        82.36182
382.01        82.10171
382.46         81.5015
382.91        80.68083
383.36        79.87205
383.81        79.40381
384.26        79.32722
384.71        79.52097
385.15        79.76526
385.60        79.74308
386.05        79.36159
386.50        78.72864
386.95        78.00718
387.40        77.43929
387.85        77.09335
388.29        76.86343
388.74        76.71399
389.19        76.42564
389.64        75.95702
390.09         75.3688
390.54         74.8018
390.98        74.40025
391.43        74.22844
391.88        74.35164
392.33        74.58072
392.78        74.25636
393.23        73.53741
393.67        73.33588
394.12        73.62328
394.57        73.42525
395.02        72.80334
395.47        72.54324
395.91        72.65997
396.36        72.60754
396.81        72.39942
397.26        72.33181
397.71        72.29275
398.15        72.07913
398.60        71.79025
399.05        71.13991
399.50        70.40331
399.95        70.67004
400.39        71.69731
400.84        71.62767
401.29        70.55811
401.74        70.26939
402.18        70.74304
402.63        70.66045
403.08        70.12159
403.53        69.51927
403.97        69.87784
404.42        69.99207
404.87        70.05333
405.32        69.99948
405.76        69.79884
406.21        69.52137
406.66        69.20296
407.11        68.93436
407.55        68.78821
408.00        68.65337
408.45        68.54042
408.90        68.72191
409.34         69.0028
409.79        68.64246
410.24        67.83074
410.68        67.47867
411.13        67.64912
411.58        67.85767
412.03         67.9539
412.47        67.91541
412.92        67.67471
413.37        67.26241
413.81        66.83319
414.26        66.68356
414.71        66.82575
415.15        67.22836
415.60        67.65024
416.05        67.75188
416.49        67.44968
416.94        66.87715
417.39        66.29958
417.83        66.09251
418.28        66.34007
418.73        66.91044
419.17        67.59401
419.62        67.98347
420.07        67.95274
420.51        67.59917
420.96        67.11971
421.41        66.67227
421.85        66.29403
422.30         66.1845
422.74        66.18287
423.19        65.78574
423.64        65.13297
424.08        65.18732
424.53         65.8763
424.98        66.27732
425.42        66.31464
425.87        66.56934
426.31        67.01593
426.76        67.09544
427.21        66.90472
427.65        67.06206
428.10        67.47415
428.54         67.6013
428.99        67.48311
429.44        67.26964
429.88        67.01697
430.33        67.13837
430.77        67.39758
431.22         67.0635
431.66        66.27509
432.11        66.00925
432.56        66.27647
433.00        66.67779
433.45        66.97966
433.89        67.35237
434.34        64.94223
434.78        67.32196
435.23        67.57978
435.67         66.7552
436.12        65.60471
436.57         65.7338
437.01        67.53016
437.46         68.1422
437.90        67.47836
438.35        67.05411
438.79        66.99525
439.24        66.83127
439.68        66.60017
440.13        66.65498
440.57        66.96629
441.02         66.9974
441.46        66.74613
441.91        67.21482
442.35        68.01739
442.80        67.56711
443.24        66.22343
443.69        66.33158
444.13        67.68301
444.58        68.09748
445.02         67.4631
445.47        67.01749
445.91        66.95654
446.36        66.96474
446.80        67.02859
447.24        67.72639
447.69        68.13965
448.13        68.15798
448.58         67.7289
449.02        67.44206
449.47        67.42864
449.91        67.35064
450.36         67.2649
450.80        67.37679
451.25        67.62338
451.69        67.73112
452.13        67.66528
452.58        67.51963
453.02        67.31388
453.47         67.1031
453.91        66.90133
454.36        66.69481
454.80        66.49505
455.24        66.37599
455.69        66.36031
456.13        66.41391
456.58        66.27849
457.02         66.5387
457.46        66.17581
457.91        66.01514
458.35        65.75739
458.79        65.69761
459.24        65.75038
459.68         65.4162
460.13        64.84679
460.57        64.60558
461.01        64.78082
461.46        64.77641
461.90        64.77348
462.34        65.04871
462.79        64.30787
463.23        64.02294
463.68        63.88478
464.12        63.99483
464.56        64.24905
465.01        64.39481
465.45        64.35379
465.89        64.33339
466.34        64.31995
466.78        64.16311
467.22         63.9715
467.67        63.50978
468.11        63.67365
468.55        63.56332
468.99        63.42776
469.44        63.34155
469.88        63.31402
470.32        63.28805
470.77        63.24387
471.21        63.21449
471.65        63.17814
472.10        63.11856
472.54        63.05178
472.98        62.99589
473.42        62.94329
473.87        63.01596
474.31        63.08762
474.75        62.76802
475.20        62.20233
475.64        61.98702
476.08        62.11396
476.52        62.11934
476.97        61.99665
477.41        61.94463
477.85        61.95403
478.29        62.36816
478.74        62.33091
479.18        62.55922
479.62        62.59248
480.06        62.55611
480.50        62.33038
480.95        62.25284
481.39         62.4112
481.83        61.45586
482.27        61.70233
482.72        61.85592
483.16        61.67033
483.60        61.73814
484.04        61.84568
484.48        61.68362
484.93        61.32935
485.37        62.00019
485.81        62.83712
486.25        62.58598
486.69        64.69019
487.14        64.65495
487.58        61.74123
488.02        61.30503
488.46        62.47845
488.90        61.17342
489.34        61.98181
489.79          61.736
490.23        61.98678
490.67        62.06639
491.11         62.0359
491.55        61.95626
491.99         61.8146
492.43        61.70071
492.88         61.6278
493.32        61.64127
493.76        61.71746
494.20        61.75055
494.64        61.70786
495.08        61.75569
495.52        61.88175
495.96        61.66159
496.41        61.24065
496.85        61.55735
497.29         62.3771
497.73        62.31895
498.17        61.47726
498.61        61.16722
499.05         61.4519
499.49        61.53696
499.93        61.38563
500.37        61.30673
500.82        61.29544
501.26        61.30191
501.70        61.31079
502.14         61.2744
502.58        61.20567
503.02        61.17545
503.46        61.18885
503.90        61.21036
504.34        61.22084
504.78        61.20247
505.22         61.1443
505.66        61.05772
506.10        60.94681
506.54        60.86943
506.98        60.82345
507.42        60.87229
507.86        60.38825
508.30        60.88514
508.74        60.49269
509.18        60.54788
509.62         60.5549
510.06        60.60637
510.50        60.69306
510.94         60.8095
511.38        60.90865
511.82         60.8676
512.26         60.6773
512.70        60.38212
513.14        60.07498
513.58        59.90168
514.02        59.89341
514.46        59.99873
514.90        60.15582
515.34        60.25908
515.78        60.27413
516.22        60.24506
516.66        60.17057
517.10        60.04681
517.54        59.89194
517.98         59.7038
518.42        59.55907
518.86         59.5847
519.30         59.7938
519.74        60.14249
520.18        60.51503
520.62        60.71765
521.06        60.69917
521.50        60.51678
521.93        60.25271
522.37        60.05785
522.81        59.97401
523.25        59.95821
523.69         59.9838
524.13        60.00861
524.57        60.01604
525.01        60.02929
525.45        60.04148
525.89        60.03366
526.32        60.00121
526.76        59.95252
527.20        59.90656
527.64        59.90366
528.08        59.95138
528.52        60.03706
528.96        60.13161
529.40         60.1908
529.83        60.18901
530.27        60.14233
530.71        60.07107
531.15        60.01554
531.59        59.98654
532.03        59.98681
532.46        59.96731
532.90        59.85287
533.34        59.65023
533.78        59.40236
534.22        59.20849
534.66        59.21206
535.09        59.41491
535.53         59.7585
535.97        60.13762
536.41        60.33762
536.85        60.29512
537.28        60.23475
537.72        60.15458
538.16        59.68629
538.60        59.05857
539.04        59.08099
539.47        59.63925
539.91        59.87938
540.35        59.74362
540.79        59.73809
541.22        59.84655
541.66        59.85579
542.10        59.76855
542.54        59.55299
542.97        59.30304
543.41        59.39745
543.85        59.75291
544.29         59.8821
544.72        59.74405
545.16        59.69122
545.60        59.70773
546.04        59.58805
546.47        59.38104
546.91        59.28011
547.35        59.30816
547.79        59.43151
548.22        59.59821
548.66        59.71948
549.10        59.78642
549.53        59.96224
549.97         60.1944
550.41        60.25919
550.84         60.1178
551.28        59.94785
551.72        59.81143
552.15        59.53963
552.59        59.18506
553.03        59.42303
553.46        59.18896
553.90        59.06676
554.34        59.31962
554.77        59.38761
555.21        59.45164
555.65        59.53958
556.08        59.64125
556.52         59.7848
556.96        59.89719
557.39        59.76719
557.83        59.48806
558.27        59.38904
558.70        59.49141
559.14        59.61053
559.57        59.66874
560.01         59.7694
560.45        59.59413
560.88        59.67058
561.32        59.86362
561.75        59.82687
562.19         59.6403
562.63         59.4616
563.06        59.36367
563.50        59.69695
563.93        60.25113
564.37        60.06608
564.80        59.29623
565.24        59.17978
565.68        59.65356
566.11        59.79751
566.55        59.61117
566.98        59.55074
567.42        59.63866
567.85        59.88282
568.29        59.87388
568.72        59.96918
569.16        60.08687
569.60        60.22224
570.03        59.98755
570.47        60.16417
570.90         60.3418
571.34         59.6966
571.77        60.63971
572.21         60.4133
572.64        60.76772
573.08        60.35336
573.51         60.6574
573.95        60.61494
574.38         60.7685
574.82        60.26859
