SpectraSmart Spectrum 2.9.0.0
--------- Device Information -----------
Spectrum Name :  反射率_0
Saving Time :  2024/05/03 20:02:35
Spectro-Module Model Name : SE2030-DUVN
Spectro-Module Serial Number : OS361AC55029948
Wavelength Start : 200
Wavelength End : 1025
Wavelength Unit : Wavelength(nm)
Spectrum Unit : Reflectance(%)
-----------Spectrum Setting ------------
Integration Time : 20ms
Average : 10
Boxcar : 0
Background removal :  enabled
linearity correction :  enabled
SC :  disabled
Intensity correction :  disabled
DWT denoise :  enabled
savitzky-golay :  disabled
FFT :  disabled
Running average :  disabled
Kalman :  disabled
High pass :  disabled
---------------BEGIN--------------------
Wavelength(nm)             Reflectance(%)
200.29               0
200.75       -65.66947
201.21       -96.27638
201.67        2321.119
202.13         76.0125
202.58        50.88197
203.04        49.79676
203.50        55.61422
203.96        65.99437
204.42        86.46858
204.88        159.7329
205.34       -2466.673
205.80       -214.2811
206.26       -247.7443
206.72       -62237.43
207.18        234.5839
207.64        158.3692
208.10         164.209
208.55        261.2924
209.01        1238.419
209.47        1492.578
209.93        222.3278
210.39        101.9388
210.85        72.69128
211.31        68.81585
211.77        78.96883
212.23        112.0778
212.69        202.4135
213.14        273.1256
213.60        161.0866
214.06        83.27135
214.52        52.40899
214.98        44.02922
215.44        49.38271
215.90        87.19355
216.36       -487.5477
216.81       -89.04588
217.27        -90.8475
217.73       -165.3926
218.19       -621.3468
218.65       -12189.37
219.11       -810.2258
219.57       -176.8739
220.02       -74.43928
220.48       -122.0547
220.94        193.1755
221.40        81.97116
221.86        65.82877
222.32        59.54033
222.77        54.89228
223.23        49.68978
223.69        42.71744
224.15        37.33116
224.61        37.92455
225.06        41.56227
225.52        45.35339
225.98        48.05891
226.44        50.12123
226.90        51.91368
227.36        53.50158
227.81        54.51263
228.27        54.25902
228.73        53.01229
229.19        50.62666
229.65        46.91557
230.10        42.41297
230.56        38.10389
231.02        34.70626
231.48        33.06994
231.93        32.96074
232.39        33.85106
232.85        35.04259
233.31        35.64086
233.77        35.48232
234.22        34.86491
234.68        34.24229
235.14        34.33947
235.60        35.41901
236.05        37.36546
236.51        39.84462
236.97        42.12847
237.43        43.77329
237.88        45.04459
238.34        46.31473
238.80        48.28077
239.26        51.62691
239.71        58.97242
240.17        69.68569
240.63        84.93088
241.08        97.58128
241.54        101.4749
242.00        99.23631
242.46        99.15598
242.91        104.3807
243.37        114.2377
243.83         130.969
244.28        147.4361
244.74         144.667
245.20        128.1248
245.66        106.9091
246.11        85.69324
246.57        67.32379
247.03        50.95327
247.48        41.03877
247.94        41.97628
248.40        52.52907
248.85        70.62564
249.31        90.52357
249.77        96.74226
250.22        87.34316
250.68        72.33461
251.14        59.24163
251.59        53.40966
252.05        54.98426
252.51        62.85092
252.96        79.31018
253.42        101.9993
253.88        120.7776
254.33        130.6616
254.79        128.4487
255.25        115.1207
255.70        98.71371
256.16        84.76363
256.62        75.09108
257.07        70.60682
257.53        70.01641
257.99        70.97679
258.44         71.8428
258.90         71.5176
259.35        69.57799
259.81        67.35942
260.27        64.95441
260.72        62.47286
261.18        60.45858
261.63        58.57707
262.09        57.21744
262.55        56.38243
263.00        55.86787
263.46        55.62416
263.91        55.36792
264.37        55.02803
264.83        54.48586
265.28        53.76133
265.74        52.88108
266.19        51.60308
266.65        50.07795
267.11        48.33119
267.56        46.58827
268.02        45.25991
268.47        44.33841
268.93        43.72668
269.38        43.19682
269.84        42.37342
270.30        41.22939
270.75        39.93715
271.21        38.74832
271.66        37.90076
272.12        37.43509
272.57        37.17471
273.03        37.03083
273.48        36.90305
273.94        36.72997
274.39        36.52984
274.85         36.1685
275.31        35.35875
275.76        34.11716
276.22        32.63786
276.67        31.23764
277.13        30.44433
277.58        30.23783
278.04        30.47589
278.49        30.77042
278.95        30.57098
279.40         29.7581
279.86        28.63918
280.31        27.49971
280.77        26.80895
281.22        26.54975
281.68         26.5844
282.13         26.6869
282.59        26.60202
283.04        26.25626
283.50        25.79275
283.95        25.30451
284.41         24.9444
284.86        24.74157
285.32        24.66446
285.77        24.68167
286.22        24.81154
286.68        25.03697
287.13        25.31074
287.59         25.5976
288.04        25.79524
288.50        25.90298
288.95        25.91757
289.41        25.87395
289.86        25.78578
290.32        25.70027
290.77        25.61376
291.22        25.57755
291.68        25.64757
292.13        25.84241
292.59        26.20328
293.04        26.71525
293.50         27.3515
293.95        28.08944
294.40        28.92416
294.86        29.91339
295.31        31.15506
295.77        32.66238
296.22        34.38462
296.68        36.17343
297.13         37.7652
297.58        39.06185
298.04         40.1517
298.49        41.13672
298.95         42.2507
299.40        43.54827
299.85        44.97892
300.31        46.55534
300.76        48.24974
301.21        50.04778
301.67        51.97351
302.12        53.89363
302.58        55.62651
303.03        57.10113
303.48        58.36581
303.94        59.62198
304.39        61.09903
304.84          62.882
305.30        64.88639
305.75        66.89795
306.20        68.62661
306.66        70.01245
307.11        71.10348
307.57        72.07563
308.02        73.06336
308.47        74.16128
308.93         75.3295
309.38        76.49384
309.83         77.6319
310.29        78.73032
310.74        79.78884
311.19        80.80685
311.65        81.76003
312.10        82.60722
312.55        83.32819
313.00        83.91866
313.46        84.39787
313.91        84.75549
314.36        85.04153
314.82        85.26582
315.27        85.41044
315.72        85.51349
316.18         85.6019
316.63        85.76881
317.08        86.16981
317.53        86.82437
317.99        87.66762
318.44        88.57381
318.89        89.27444
319.35        89.68635
319.80        89.87227
320.25        89.93715
320.70        90.08138
321.16        90.34786
321.61        90.68987
322.06        91.03046
322.51        91.25256
322.97        91.31612
323.42        91.29729
323.87        91.23022
324.32         91.1741
324.78         91.1468
325.23        91.16502
325.68        91.22775
326.13        91.35015
326.59        91.50714
327.04        91.74435
327.49         92.0265
327.94        92.32629
328.39        92.62228
328.85        92.87177
329.30        93.11784
329.75        93.31084
330.20        93.44786
330.66        93.52212
331.11        93.58603
331.56         93.6173
332.01        93.64359
332.46        93.68738
332.92        93.79005
333.37        94.12769
333.82        94.68559
334.27         95.4111
334.72        96.21646
335.17        96.94952
335.63        97.51436
336.08        97.98771
336.53        98.31525
336.98        98.47417
337.43        98.48949
337.88        98.37757
338.34        98.25697
338.79        98.34496
339.24        98.68877
339.69        99.25866
340.14        99.93625
340.59        100.5106
341.05        100.9157
341.50        101.2066
341.95        101.4773
342.40        101.8984
342.85        102.5002
343.30         103.211
343.75        103.8977
344.20        104.3565
344.66        104.5633
345.11        104.5829
345.56        104.5562
346.01        104.6886
346.46        105.0392
346.91        105.5422
347.36        106.1331
347.81        106.7084
348.26        107.2241
348.72        107.7152
349.17        108.1533
349.62        108.5162
350.07        108.7997
350.52        108.9906
350.97        109.1191
351.42        109.2543
351.87        109.3947
352.32        109.4972
352.77        109.5203
353.22        109.3976
353.67         109.122
354.13        108.7727
354.58        108.3066
355.03        107.7178
355.48        107.0519
355.93        106.3516
356.38        105.7669
356.83        105.5266
357.28        105.6534
357.73        106.0455
358.18        106.5246
358.63        106.7985
359.08        106.7613
359.53        106.4762
359.98        105.9751
360.43        105.3318
360.88        104.5908
361.33        103.7265
361.78        102.8253
362.23        102.0184
362.68        101.3378
363.13          100.79
363.58        100.2632
364.03        99.56369
364.48         98.6688
364.93        97.64336
365.38         96.6734
365.83        96.03754
366.28        95.77908
366.73        95.80181
367.18        95.87424
367.63        95.63181
368.08        94.98177
368.53        94.02438
368.98        92.98732
369.43        92.21243
369.88        91.77826
370.33        91.59547
370.78        91.44495
371.23        90.97002
371.68        90.09915
372.13        88.95847
372.58        87.83662
373.03        87.15662
373.48        86.98918
373.93        87.18719
374.38        87.43491
374.83        87.21976
375.28        86.42099
375.72        85.19484
376.17        83.90092
376.62        82.93076
377.07        82.37737
377.52        82.10633
377.97        81.94851
378.42        81.65457
378.87        81.17402
379.32        80.56065
379.77        79.91639
380.22        79.50646
380.67        79.37798
381.11        78.88974
381.56        78.94051
382.01        78.57092
382.46         78.0683
382.91        77.47017
383.36         76.8922
383.81        76.47118
384.26        76.21801
384.71        76.08999
385.15         75.9894
385.60        75.79195
386.05        75.45697
386.50        75.03077
386.95        74.57468
387.40        74.17875
387.85        73.87155
388.29        73.59229
388.74        73.37447
389.19        73.10542
389.64        72.75963
390.09        72.35527
390.54        71.95646
390.98        71.59371
391.43        71.31653
391.88        71.23934
392.33        71.25442
392.78        70.85073
393.23        70.19919
393.67        70.08081
394.12        70.43631
394.57         70.3764
395.02        69.89563
395.47        69.56471
395.91        69.42944
396.36        69.20623
396.81        68.93964
397.26        68.78163
397.71        68.65284
398.15        68.44555
398.60        68.24224
399.05        67.76204
399.50        67.20592
399.95        67.44901
400.39        68.26221
400.84        68.10848
401.29        67.09401
401.74        66.62892
402.18        66.79156
402.63         66.8276
403.08        66.75932
403.53        66.40643
403.97        66.69965
404.42        66.77116
404.87        66.84122
405.32         66.7972
405.76        66.62163
406.21        66.37426
406.66        66.07388
407.11        65.81871
407.55        65.65839
408.00        65.42849
408.45        65.17576
408.90        65.26784
409.34        65.55377
409.79        65.33028
410.24         64.7212
410.68        64.46761
411.13        64.60931
411.58        64.74799
412.03        64.75306
412.47        64.60732
412.92        64.26807
413.37        63.76958
413.81        63.28675
414.26        63.13902
414.71         63.3396
415.15        63.84896
415.60        64.40377
416.05        64.60921
416.49        64.36241
416.94        63.81207
417.39        63.23331
417.83        63.02505
418.28        63.27791
418.73        63.84128
419.17        64.53384
419.62        64.99871
420.07        65.11817
420.51        64.98408
420.96         64.7041
421.41        64.34441
421.85        63.93918
422.30         63.6081
422.74        63.33991
423.19        63.09928
423.64        62.93989
424.08         63.1895
424.53        63.73755
424.98         64.1422
425.42        64.32823
425.87        64.52131
426.31        64.74898
426.76        64.76871
427.21        64.68145
427.65        64.91055
428.10        65.30407
428.54        65.36563
428.99        65.13962
429.44        64.71172
429.88        64.24189
430.33        64.45403
430.77        65.07316
431.22        64.97804
431.66        64.29919
432.11        64.37958
432.56        65.09538
433.00        65.47064
433.45        65.35871
433.89        65.44628
434.34        63.02162
434.78        65.93797
435.23         66.1029
435.67        65.32465
436.12        64.32777
436.57         64.2112
437.01        65.56785
437.46        66.10812
437.90        65.84637
438.35        65.33915
438.79        65.84906
439.24        65.79521
439.68        65.54305
440.13        65.46976
440.57        65.64102
441.02        65.51955
441.46        65.11272
441.91        65.63929
442.35        66.76405
442.80        65.80416
443.24        65.11819
443.69        65.19522
444.13        66.44514
444.58        66.84004
445.02        66.30329
445.47        65.91929
445.91        65.83067
446.36         65.8316
446.80        65.92654
447.24        66.28111
447.69        66.81019
448.13        66.77726
448.58        67.08941
449.02          67.008
449.47        66.88866
449.91        66.79144
450.36        66.76778
450.80        66.74973
451.25        66.72644
451.69        66.67654
452.13        66.60013
452.58        66.52479
453.02        66.43441
453.47        66.32623
453.91        66.19508
454.36        66.04051
454.80        65.88126
455.24         65.8279
455.69         65.9108
456.13        65.95999
456.58        65.90165
457.02        66.17866
457.46        65.81158
457.91        65.57945
458.35        65.22819
458.79        65.12243
459.24        65.22585
459.68        64.91862
460.13        64.29471
460.57        64.17272
461.01        64.69687
461.46         63.9391
461.90        64.36085
462.34        64.65073
462.79        63.93359
463.23        63.81078
463.68        63.85015
464.12        63.85271
464.56        63.76427
465.01         63.9138
465.45        64.19359
465.89        64.08775
466.34        63.66827
466.78        63.82684
467.22        64.39361
467.67        63.70292
468.11        63.77786
468.55        63.52602
468.99        63.57146
469.44        63.51075
469.88        63.36386
470.32        63.28841
470.77        63.26495
471.21        63.25697
471.65        63.23645
472.10        63.20926
472.54        63.16273
472.98        63.06969
473.42        62.92295
473.87        62.86086
474.31        62.80899
474.75        62.45166
475.20        61.91619
475.64        61.83393
476.08        62.20765
476.52        62.26502
476.97        61.91277
477.41        62.54308
477.85        62.41671
478.29        62.41862
478.74        62.66313
479.18        62.61943
479.62        62.38058
480.06        62.26958
480.50        62.25141
480.95        62.34285
481.39        62.50394
481.83        62.22892
482.27        61.93617
482.72        62.20729
483.16         62.0677
483.60        61.55766
484.04        62.04064
484.48        61.93321
484.93        61.69594
485.37        62.38459
485.81        63.26942
486.25        62.72549
486.69        64.98751
487.14        65.42724
487.58        62.30927
488.02         62.2683
488.46        63.22155
488.90        61.50624
489.34        62.00251
489.79        62.07936
490.23        62.21776
490.67        62.46296
491.11        62.47958
491.55        62.40615
491.99        62.22577
492.43         62.0747
492.88        61.98499
493.32        61.94437
493.76         61.9346
494.20        61.92293
494.64        61.89388
495.08        61.90864
495.52        61.98779
495.96        61.97887
496.41        61.93478
496.85        62.27039
497.29        62.79869
497.73        62.73853
498.17        62.15836
498.61        61.80198
499.05        61.76781
499.49        61.77369
499.93         61.7522
500.37        61.65878
500.82        61.52074
501.26        61.44508
501.70        61.39345
502.14        61.75301
502.58         61.5492
503.02        61.59037
503.46        61.69251
503.90        61.75492
504.34        61.76958
504.78        61.70201
505.22        61.56042
505.66        61.34031
506.10        61.08846
506.54        60.97139
506.98        61.02676
507.42        61.05255
507.86        60.95046
508.30        61.42438
508.74        60.91714
509.18        60.81605
509.62        60.78609
510.06         60.4505
510.50        60.79331
510.94        60.99722
511.38        61.26688
511.82        61.40318
512.26        61.37135
512.70        61.21616
513.14        60.99152
513.58        60.80935
514.02        60.69896
514.46        60.62223
514.90        60.57247
515.34        60.53717
515.78        60.51324
516.22        60.53006
516.66        60.55021
517.10        60.50518
517.54        60.38754
517.98        60.20586
518.42        60.06329
518.86        60.10701
519.30         60.3508
519.74        60.80383
520.18        61.29314
520.62        61.38128
521.06        61.08123
521.50        60.82974
521.93        60.70672
522.37        60.55095
522.81        60.39593
523.25        60.38596
523.69        60.47859
524.13        60.51191
524.57        60.46399
525.01        60.40168
525.45        60.33339
525.89        60.26383
526.32        60.20092
526.76         60.1389
527.20        60.11676
527.64        60.21022
528.08        60.41961
528.52        60.71236
528.96        60.99955
529.40        61.14108
529.83        61.09463
530.27        60.91378
530.71        60.67284
531.15         60.4985
531.59        60.42873
532.03         60.4375
532.46        60.47328
532.90        60.45411
533.34        60.36895
533.78         60.2598
534.22        60.17855
534.66         60.1959
535.09        60.30647
535.53        60.47487
535.97        60.65418
536.41        60.73022
536.85        60.66765
537.28        60.66208
537.72          60.676
538.16        60.27618
538.60        59.67199
539.04        59.70198
539.47        60.24779
539.91        60.46188
540.35        60.29641
540.79          60.216
541.22        60.21687
541.66        60.32401
542.10        60.20474
542.54         60.0905
542.97        59.94139
543.41        60.09894
543.85        60.46187
544.29        60.54626
544.72        60.34814
545.16        60.27484
545.60        60.32844
546.04        60.29093
546.47         60.1582
546.91        60.08248
547.35        60.08244
547.79        60.02303
548.22        59.95009
548.66        60.19679
549.10        60.64093
549.53        60.78768
549.97        60.61713
550.41        60.52437
550.84        60.50496
551.28        60.35802
551.72        60.13458
552.15        59.89738
552.59         59.6741
553.03        59.95752
553.46        59.74907
553.90        59.84858
554.34        59.93103
554.77         59.9489
555.21        59.92673
555.65        60.00655
556.08        60.17464
556.52        60.29367
556.96        60.34494
557.39        60.39847
557.83        60.46764
558.27        60.47551
558.70          60.438
559.14        60.36852
559.57        60.51661
560.01        60.33435
560.45        60.01137
560.88        59.97535
561.32        60.20662
561.75        60.36339
562.19        60.43389
562.63        60.26411
563.06        59.97499
563.50        60.34359
563.93        61.13946
564.37         61.0308
564.80         60.1668
565.24        60.00626
565.68        60.49593
566.11         60.6304
566.55        60.41305
566.98        60.33232
567.42        60.40311
567.85        60.61158
568.29        60.54523
568.72         60.5635
569.16        60.61209
569.60        60.68763
570.03        60.76483
570.47         60.9104
570.90        61.12347
571.34        60.91104
571.77        61.77645
572.21         61.3245
572.64        61.62559
573.08        61.32196
573.51        61.56242
573.95        61.33111
574.38        61.13792
574.82        60.89603
