SpectraSmart Spectrum 2.9.0.0
--------- Device Information -----------
Spectrum Name :  反射率_0
Saving Time :  2024/05/03 19:56:25
Spectro-Module Model Name : SE2030-DUVN
Spectro-Module Serial Number : OS361AC55029948
Wavelength Start : 200
Wavelength End : 1025
Wavelength Unit : Wavelength(nm)
Spectrum Unit : Reflectance(%)
-----------Spectrum Setting ------------
Integration Time : 20ms
Average : 10
Boxcar : 0
Background removal :  enabled
linearity correction :  enabled
SC :  disabled
Intensity correction :  disabled
DWT denoise :  enabled
savitzky-golay :  disabled
FFT :  disabled
Running average :  disabled
Kalman :  disabled
High pass :  disabled
---------------BEGIN--------------------
Wavelength(nm)             Reflectance(%)
200.29               0
200.75       -53.77437
201.21       -78.81329
201.67         1892.55
202.13        66.26112
202.58        49.29188
203.04        51.16621
203.50        57.91108
203.96        67.55093
204.42        84.69122
204.88          145.09
205.34       -2002.643
205.80       -156.8049
206.26       -175.4534
206.72       -45377.74
207.18        179.7549
207.64        126.0614
208.10        134.5428
208.55        221.7526
209.01        1103.857
209.47        1417.586
209.93         223.303
210.39        105.9112
210.85        76.82137
211.31        73.53107
211.77        85.22076
212.23        122.1628
212.69        222.3938
213.14        300.4716
213.60        176.2538
214.06        89.87122
214.52        55.87568
214.98        47.42191
215.44        55.52224
215.90        106.2124
216.36       -645.9065
216.81       -119.2044
217.27       -113.7435
217.73       -188.0789
218.19       -659.5248
218.65       -12771.58
219.11       -888.3588
219.57       -221.2836
220.02       -118.9741
220.48       -209.8605
220.94        278.1527
221.40        100.1004
221.86        73.95593
222.32        66.30963
222.77        64.18954
223.23        65.46684
223.69        68.42152
224.15        66.69734
224.61         59.2391
225.06        51.51915
225.52        47.81094
225.98        49.11864
226.44        54.80957
226.90        64.57613
227.36        76.72933
227.81        83.63229
228.27        80.58928
228.73        71.86034
229.19        61.75749
229.65         53.3711
230.10        47.06167
230.56        42.41885
231.02        39.28298
231.48        37.75873
231.93        37.49485
232.39        38.23998
232.85        39.51229
233.31        40.71321
233.77        41.63822
234.22         42.3125
234.68        42.85299
235.14        43.45735
235.60        44.20656
236.05        45.18543
236.51        45.99337
236.97        46.05994
237.43        45.31595
237.88        44.14766
238.34        43.52034
238.80        44.63398
239.26        48.23269
239.71         57.5449
240.17        71.85426
240.63        89.22295
241.08        98.56892
241.54         94.0227
242.00         84.2961
242.46        82.98869
242.91        94.37408
243.37        121.2751
243.83        171.1459
244.28        226.4926
244.74        234.4622
245.20          194.62
245.66        140.9771
246.11        104.3141
246.57        86.60677
247.03        77.82987
247.48        74.05461
247.94        71.53519
248.40        68.89032
248.85        67.55299
249.31         67.3266
249.77        66.77033
250.22        66.03011
250.68        65.57077
251.14        66.61659
251.59        71.49572
252.05        81.45024
252.51        97.84458
252.96        121.4613
253.42        142.1049
253.88        146.4066
254.33        135.7249
254.79        117.9774
255.25        100.3271
255.70        86.43605
256.16        76.94675
256.62         70.8567
257.07        67.38881
257.53        65.88522
257.99        65.18242
258.44         64.4816
258.90        63.57928
259.35        62.04787
259.81        60.55742
260.27        58.95657
260.72        57.15417
261.18        55.57819
261.63         54.0087
262.09        52.73853
262.55        51.67918
263.00        50.68343
263.46        49.76487
263.91        48.81747
264.37        47.99963
264.83        47.25605
265.28        46.55083
265.74        45.78625
266.19        44.58762
266.65        43.06521
267.11        41.29489
267.56        39.58702
268.02        38.45407
268.47         37.9066
268.93         37.8045
269.38        37.79911
269.84        37.30919
270.30        36.25272
270.75        34.85775
271.21        33.52965
271.66        32.74511
272.12        32.58176
272.57        32.79012
273.03        33.11808
273.48        33.19686
273.94        32.91035
274.39        32.39435
274.85        31.67542
275.31        30.69945
275.76        29.53043
276.22        28.26143
276.67        27.12379
277.13        26.52385
277.58        26.41943
278.04        26.70569
278.49        27.01507
278.95        26.81722
279.40        26.00653
279.86        24.87334
280.31        23.71335
280.77        22.99664
281.22        22.71661
281.68        22.73416
282.13        22.82934
282.59        22.74449
283.04        22.40575
283.50        21.94438
283.95        21.45933
284.41        21.10098
284.86        20.90333
285.32        20.84147
285.77        20.86401
286.22         20.9528
286.68        21.09364
287.13        21.25638
287.59        21.46517
288.04        21.71519
288.50        22.00456
288.95        22.28934
289.41        22.51414
289.86        22.55388
290.32        22.42668
290.77        22.18832
291.22        21.95404
291.68        21.87329
292.13        21.99418
292.59        22.32239
293.04        22.84581
293.50        23.54112
293.95        24.37374
294.40         25.3404
294.86        26.44632
295.31        27.71029
295.77        29.13843
296.22        30.70818
296.68        32.34268
297.13        33.90008
297.58        35.31531
298.04          36.637
298.49        37.91924
298.95        39.31603
299.40        40.86803
299.85        42.56013
300.31        44.41484
300.76        46.41933
301.21        48.56521
301.67        50.85591
302.12        53.18869
302.58         55.4297
303.03         57.4953
303.48        59.40639
303.94        61.28219
304.39        63.23685
304.84        65.35448
305.30        67.60555
305.75        69.86984
306.20        71.99767
306.66        73.96067
307.11        75.75468
307.57         77.4939
308.02        79.21879
308.47        80.99242
308.93        82.78503
309.38        84.53884
309.83        86.26995
310.29        87.96358
310.74         89.5947
311.19        91.10773
311.65        92.39227
312.10        93.40298
312.55        94.17441
313.00        94.78819
313.46        95.39155
313.91        96.01265
314.36        96.67245
314.82        97.36007
315.27        98.01597
315.72        98.64559
316.18        99.27003
316.63         99.9439
317.08        100.7677
317.53        101.7465
317.99        102.8227
318.44        103.8809
318.89        104.6712
319.35        105.1279
319.80        105.3144
320.25         105.385
320.70        105.6171
321.16        106.0642
321.61        106.6681
322.06        107.2781
322.51        107.6473
322.97        107.7054
323.42        107.5749
323.87        107.3652
324.32         107.262
324.78        107.3207
325.23        107.5305
325.68        107.8491
326.13        108.2232
326.59        108.5995
327.04        109.0545
327.49         109.564
327.94        110.1228
328.39        110.7118
328.85        111.2576
329.30        111.7991
329.75        112.2614
330.20         112.627
330.66        112.8842
331.11        113.0847
331.56        113.1884
332.01        113.2254
332.46        113.2254
332.92        113.2504
333.37        113.5303
333.82         114.067
334.27        114.8186
334.72        115.6817
335.17        116.4707
335.63        117.0758
336.08        117.5811
336.53        117.9729
336.98        118.3075
337.43        118.6073
337.88        118.8502
338.34        119.0368
338.79         119.203
339.24        119.3686
339.69        119.5853
340.14        119.8685
340.59        120.2235
341.05         120.653
341.50        121.1484
341.95        121.7638
342.40        122.6016
342.85        123.6395
343.30         124.812
343.75        125.9018
344.20        126.5708
344.66        126.7757
345.11        126.6122
345.56        126.3202
346.01         126.275
346.46        126.5783
346.91        127.1099
347.36        127.7666
347.81        128.3763
348.26        128.8673
348.72        129.3122
349.17        129.6439
349.62        129.7776
350.07        129.7176
350.52        129.4738
350.97        129.1909
351.42        129.1189
351.87        129.2929
352.32        129.6217
352.77        129.9381
353.22        129.9686
353.67        129.6518
354.13        129.1241
354.58        128.4382
355.03        127.7554
355.48        127.1507
355.93        126.5967
356.38        126.1481
356.83        125.8901
357.28        125.8126
357.73        125.8725
358.18        125.9555
358.63        125.8705
359.08        125.5509
359.53         125.028
359.98        124.3289
360.43        123.5205
360.88        122.6301
361.33        121.6324
361.78        120.5761
362.23        119.5255
362.68         118.508
363.13         117.562
363.58        116.6119
364.03        115.5291
364.48        114.3183
364.93        113.0214
365.38        111.8535
365.83        111.1332
366.28        110.8911
366.73        111.0158
367.18        111.1698
367.63        110.8155
368.08        109.8315
368.53         108.375
368.98        106.8081
369.43        105.6817
369.88        105.1254
370.33        104.9936
370.78        104.9739
371.23        104.5455
371.68         103.586
372.13        102.2736
372.58         100.958
373.03        100.1548
373.48        99.95331
373.93        100.1583
374.38        100.4107
374.83        100.1378
375.28         99.1991
375.72        97.77467
376.17        96.24691
376.62        95.01452
377.07        94.18209
377.52        93.61951
377.97        93.18649
378.42        92.67722
378.87        92.04208
379.32        91.36909
379.77        90.74863
380.22        90.27901
380.67        89.96259
381.11        89.76331
381.56        89.53856
382.01        89.15007
382.46        88.57799
382.91        87.88169
383.36         87.1955
383.81        86.70372
384.26        86.43337
384.71        86.32739
385.15        86.24635
385.60        86.00063
386.05        85.53517
386.50        84.90712
386.95        84.25035
387.40        83.76472
387.85        83.48939
388.29        83.32665
388.74        83.20998
389.19        82.85201
389.64        82.21735
390.09        81.40309
390.54        80.60468
390.98        80.05351
391.43         79.8262
391.88         79.9492
392.33        80.23728
392.78        79.94024
393.23        79.19793
393.67        79.18751
394.12        79.73667
394.57        79.14679
395.02        77.68121
395.47        77.22095
395.91        77.76015
396.36         77.8111
396.81        77.35754
397.26        77.26024
397.71        77.39738
398.15        77.27087
398.60        76.96281
399.05        76.29813
399.50        75.54223
399.95        75.65397
400.39        76.42883
400.84        76.30385
401.29        75.35645
401.74        74.93223
402.18        75.09103
402.63        75.10918
403.08        75.02065
403.53        74.58157
403.97        74.83752
404.42        74.82304
404.87        74.80481
405.32         74.6564
405.76        74.36602
406.21        74.10559
406.66        73.86517
407.11        73.48893
407.55        73.13692
408.00        73.10411
408.45        73.36918
408.90        73.84885
409.34        74.23386
409.79        73.75832
410.24        72.69057
410.68        72.18838
411.13        72.34703
411.58        72.53546
412.03        72.57841
412.47        72.49715
412.92        72.22128
413.37        71.76742
413.81        71.32738
414.26        71.25729
414.71        71.56989
415.15        72.22181
415.60        72.88794
416.05        73.08137
416.49         72.6825
416.94        71.87326
417.39        71.03589
417.83        70.71939
418.28        71.04475
418.73        71.82876
419.17        72.77441
419.62        73.31516
420.07        73.28192
420.51        72.83088
420.96         72.2254
421.41        71.72259
421.85         71.3879
422.30         71.3589
422.74        71.45627
423.19        71.24205
423.64        70.80206
424.08        70.92684
424.53        71.57568
424.98         72.0131
425.42        72.16264
425.87        72.59295
426.31        73.21394
426.76        73.12622
427.21        72.58018
427.65        72.92281
428.10         73.8685
428.54        74.25816
428.99        73.60478
429.44         72.8194
429.88        72.10087
430.33        72.37094
430.77        73.26503
431.22        73.49033
431.66        73.02935
432.11        72.80187
432.56        72.87304
433.00        73.20415
433.45        73.68573
433.89        74.09913
434.34        71.64077
434.78        74.14326
435.23        74.55856
435.67        72.62782
436.12        71.83405
436.57        71.95337
437.01        74.07656
437.46        75.02721
437.90        74.56178
438.35        73.96092
438.79        74.32237
439.24        74.15408
439.68        73.80541
440.13         73.6675
440.57         73.7848
441.02        73.72703
441.46        73.50432
441.91        74.06856
442.35        74.98074
442.80        74.65817
443.24        73.45516
443.69        73.63856
444.13        75.02466
444.58        75.68738
445.02        75.42078
445.47        74.92857
445.91        74.45882
446.36        74.35673
446.80        74.66875
447.24        75.15566
447.69        75.61859
448.13        75.86699
448.58        75.84672
449.02        75.59309
449.47        75.28082
449.91        75.14255
450.36        75.25225
450.80        75.49236
451.25        75.78255
451.69        75.95769
452.13        75.98405
452.58        75.93896
453.02        75.81757
453.47        75.65228
453.91         75.4492
454.36        75.15003
454.80        74.83783
455.24        74.76733
455.69        74.92359
456.13        75.08041
456.58        75.10503
457.02         75.0802
457.46        74.32833
457.91        74.25033
458.35         74.4996
458.79        74.64291
459.24        74.55669
459.68         74.0881
460.13        73.43559
460.57        73.18138
461.01        73.45068
461.46        73.61028
461.90        73.27674
462.34         74.3214
462.79        72.49021
463.23        72.25816
463.68        72.43294
464.12        72.73519
464.56        72.95081
465.01        73.00821
465.45        72.90776
465.89        72.75231
466.34        72.63632
466.78        72.95409
467.22        73.29797
467.67        73.14597
468.11        73.12262
468.55        72.87279
468.99        72.69247
469.44        72.54347
469.88        72.47032
470.32        72.47602
470.77        72.52386
471.21         72.5798
471.65        72.60009
472.10        72.59218
472.54        72.54001
472.98        72.41126
473.42        72.20205
473.87        72.06139
474.31        71.92172
474.75        71.47787
475.20          70.873
475.64        70.74736
476.08        71.09769
476.52        71.12325
476.97        70.72829
477.41        71.24926
477.85         71.2577
478.29        71.12305
478.74        71.36769
479.18        71.58804
479.62        71.97017
480.06        72.00477
480.50        71.62846
480.95        71.40807
481.39         71.4826
481.83        70.44266
482.27        70.61926
482.72        71.01675
483.16        70.81362
483.60        70.96735
484.04        71.20541
484.48        71.10778
484.93        70.75967
485.37        71.23651
485.81        72.48936
486.25        71.40213
486.69        72.27277
487.14        72.52274
487.58        70.19001
488.02        70.12843
488.46        71.61887
488.90        69.80508
489.34        71.26229
489.79        71.36073
490.23        71.12612
490.67        71.17455
491.11        71.25222
491.55        71.21284
491.99        71.01227
492.43        70.87839
492.88        70.82681
493.32        70.84303
493.76        70.90427
494.20        70.91649
494.64         70.8469
495.08        70.88338
495.52        71.00833
495.96        70.74051
496.41        70.25677
496.85         70.6043
497.29        71.53712
497.73        71.59566
498.17        70.83572
498.61        70.52681
499.05        70.76037
499.49        70.81559
499.93         70.6563
500.37        70.64597
500.82        70.71378
501.26        70.48045
501.70        70.04829
502.14        69.96638
502.58        70.20953
503.02        70.28748
503.46        70.18024
503.90        70.18526
504.34        70.28242
504.78        70.29127
505.22        70.20005
505.66        70.05072
506.10        69.88226
506.54        69.81602
506.98        69.88094
507.42        69.93537
507.86        69.89688
508.30        70.20759
508.74        69.89214
509.18        69.75116
509.62        69.58114
510.06         69.5412
510.50        69.64865
510.94        69.86505
511.38        70.09666
511.82        70.16454
512.26          70.035
512.70        69.77497
513.14        69.47662
513.58        69.28312
514.02        69.23215
514.46        69.26731
514.90        69.36123
515.34        69.46807
515.78        69.56383
516.22        69.67838
516.66        69.75649
517.10        69.70683
517.54        69.52699
517.98        69.23583
518.42        68.96802
518.86        68.94363
519.30        69.19776
519.74        69.66235
520.18        70.15774
520.62        70.38609
521.06        70.27617
521.50        69.92172
521.93        69.48334
522.37         69.2365
522.81        69.24438
523.25        69.41648
523.69        69.64967
524.13        69.78114
524.57        69.76682
525.01        69.67897
525.45        69.55495
525.89        69.44608
526.32         69.3726
526.76        69.31323
527.20        69.29971
527.64        69.39619
528.08        69.59914
528.52        69.88866
528.96        70.16267
529.40        70.25697
529.83        70.12831
530.27        69.83772
530.71        69.49798
531.15        69.29721
531.59        69.28169
532.03        69.40791
532.46        69.56802
532.90         69.5875
533.34        69.43954
533.78        69.20181
534.22        68.98611
534.66        68.95287
535.09        69.11259
535.53        69.39511
535.97        69.71633
536.41        69.89532
536.85        69.87219
537.28        69.88958
537.72         69.9019
538.16         69.4062
538.60        68.64972
539.04        68.59865
539.47        69.14723
539.91        69.34889
540.35        69.15129
540.79        69.12537
541.22         69.2449
541.66        69.25164
542.10        69.14754
542.54         68.9044
542.97        68.63619
543.41        68.75466
543.85        69.14475
544.29        69.27692
544.72        69.14661
545.16        69.05936
545.60        68.96677
546.04        69.28707
546.47        69.00101
546.91         68.8039
547.35        68.51626
547.79        68.57909
548.22        68.92647
548.66         69.1723
549.10        69.26563
549.53        69.41313
549.97        69.57539
550.41        69.59662
550.84        69.43214
551.28        69.21374
551.72        69.02137
552.15         68.6926
552.59        68.23539
553.03        68.78096
553.46         68.3082
553.90        68.42142
554.34        68.47606
554.77        68.61662
555.21        68.51512
555.65        68.62937
556.08        68.82715
556.52          68.952
556.96        68.97532
557.39        68.90179
557.83        68.82928
558.27        68.92231
558.70        69.12791
559.14        69.26602
559.57        69.23692
560.01        68.97659
560.45         68.6105
560.88        68.43714
561.32        68.51471
561.75        68.75227
562.19        69.07953
562.63        69.02338
563.06        68.66416
563.50        68.93591
563.93        69.63967
564.37        69.40494
564.80        68.42908
565.24        68.29082
565.68        68.87622
566.11        69.00662
566.55        68.67642
566.98        68.41534
567.42        68.31306
567.85        68.55584
568.29        68.63353
568.72        68.72701
569.16         68.7597
569.60        68.77224
570.03        68.71381
570.47         68.9413
570.90        68.97458
571.34        68.48248
571.77        69.42465
572.21        68.82453
572.64        68.93301
573.08        68.74049
573.51        69.26695
573.95         69.0435
574.38        68.58961
574.82        68.15362
