SpectraSmart Spectrum 2.9.0.0
--------- Device Information -----------
Spectrum Name :  反射率_0
Saving Time :  2024/05/03 19:57:42
Spectro-Module Model Name : SE2030-DUVN
Spectro-Module Serial Number : OS361AC55029948
Wavelength Start : 200
Wavelength End : 1025
Wavelength Unit : Wavelength(nm)
Spectrum Unit : Reflectance(%)
-----------Spectrum Setting ------------
Integration Time : 20ms
Average : 10
Boxcar : 0
Background removal :  enabled
linearity correction :  enabled
SC :  disabled
Intensity correction :  disabled
DWT denoise :  enabled
savitzky-golay :  disabled
FFT :  disabled
Running average :  disabled
Kalman :  disabled
High pass :  disabled
---------------BEGIN--------------------
Wavelength(nm)             Reflectance(%)
200.29               0
200.75       -79.53152
201.21       -121.6089
201.67        2957.366
202.13        105.8603
202.58        80.87065
203.04        85.53448
203.50        96.29546
203.96        107.2336
204.42        121.7572
204.88        171.0653
205.34       -1620.635
205.80       -93.73828
206.26       -139.0545
206.72       -54541.18
207.18        278.7841
207.64        216.6951
208.10        233.0857
208.55         357.901
209.01        1519.656
209.47        1582.368
209.93         212.043
210.39        92.18176
210.85          63.386
211.31        55.81982
211.77        56.64908
212.23        67.69073
212.69        103.5469
213.14        141.1935
213.60        102.7305
214.06        72.40507
214.52        60.42734
214.98        59.18798
215.44        67.71329
215.90        108.5783
216.36       -489.9047
216.81        -76.7704
217.27       -82.35452
217.73       -167.0405
218.19       -700.8215
218.65        -15626.4
219.11       -1236.397
219.57       -361.3014
220.02        -226.034
220.48       -381.7906
220.94        410.8667
221.40         118.359
221.86         74.3402
222.32        61.04902
222.77        56.84015
223.23        57.49109
223.69        61.19168
224.15        61.11955
224.61        54.91652
225.06        48.04092
225.52        44.50904
225.98        45.27642
226.44        49.73188
226.90        57.27547
227.36         66.6198
227.81        72.01086
228.27        69.88874
228.73        63.72288
229.19        56.27618
229.65        49.46582
230.10        43.75214
230.56        39.02146
231.02        35.92612
231.48        35.40208
231.93         36.9529
232.39        40.00183
232.85        43.12201
233.31         44.3133
233.77        43.28596
234.22        40.60803
234.68        37.66277
235.14        36.82129
235.60        38.82363
236.05        43.23281
236.51        48.65025
236.97        52.06831
237.43        52.27195
237.88        50.28231
238.34        47.86003
238.80        47.14362
239.26        48.92079
239.71        55.53345
240.17        65.33845
240.63        76.79859
241.08         81.2297
241.54         75.6982
242.00        67.47417
242.46        66.10662
242.91        74.43328
243.37        94.45486
243.83        131.8897
244.28        174.2971
244.74        182.2266
245.20        154.0447
245.66        113.6084
246.11        83.28481
246.57        65.61753
247.03        54.12897
247.48         47.2787
247.94        43.19035
248.40        40.75744
248.85        40.41247
249.31        41.90804
249.77        43.45795
250.22        44.41225
250.68        45.05743
251.14          46.527
251.59        50.89845
252.05         59.4193
252.51        73.49094
252.96        93.78294
253.42        111.7299
253.88        116.2485
254.33        108.5932
254.79        95.82238
255.25         84.0788
255.70        75.43683
256.16          69.769
256.62        66.26453
257.07        64.40632
257.53        63.82314
257.99        63.61829
258.44        63.00797
258.90        61.74385
259.35         59.5796
259.81        57.37105
260.27         55.1396
260.72         52.9727
261.18        51.25426
261.63        49.67086
262.09        48.47145
262.55        47.55937
263.00        46.76608
263.46        46.10704
263.91        45.36641
264.37        44.52405
264.83         43.5411
265.28        42.45904
265.74        41.37093
266.19        40.17905
266.65        38.98431
267.11        37.74313
267.56        36.56075
268.02        35.65597
268.47        34.99609
268.93        34.54591
269.38         34.0987
269.84        33.31916
270.30        32.20354
270.75        30.89279
271.21        29.71991
271.66        29.06772
272.12        28.97748
272.57        29.24361
273.03        29.59294
273.48        29.61699
273.94        29.20408
274.39        28.50379
274.85        27.61717
275.31        26.60648
275.76        25.55672
276.22        24.52555
276.67        23.65979
277.13        23.24311
277.58         23.2212
278.04         23.5069
278.49        23.83577
278.95        23.82902
279.40         23.3834
279.86        22.71153
280.31        21.94234
280.77        21.33451
281.22        20.88618
281.68        20.54274
282.13        20.27647
282.59        20.11112
283.04        20.01816
283.50        20.01771
283.95        20.02239
284.41        19.91011
284.86        19.66365
285.32        19.35056
285.77        19.06046
286.22        18.98358
286.68        19.15223
287.13        19.46523
287.59        19.84494
288.04        20.14744
288.50        20.34572
288.95        20.45686
289.41        20.50579
289.86        20.48783
290.32         20.4439
290.77        20.37797
291.22         20.3383
291.68        20.38685
292.13        20.54731
292.59        20.84849
293.04        21.30631
293.50        21.94065
293.95        22.73499
294.40        23.67955
294.86        24.75709
295.31        25.95562
295.77        27.27884
296.22        28.71614
296.68        30.24333
297.13        31.79984
297.58        33.33193
298.04        34.85628
298.49         36.3395
298.95        37.80772
299.40        39.27561
299.85        40.75721
300.31         42.3652
300.76        44.22896
301.21        46.37118
301.67        48.76085
302.12        51.19421
302.58        53.37713
303.03        55.21155
303.48        56.78711
303.94        58.35744
304.39        60.23133
304.84        62.51453
305.30        65.09538
305.75        67.72475
306.20        70.05334
306.66        71.99864
307.11        73.62191
307.57        75.11337
308.02         76.6297
308.47        78.26929
308.93         79.9688
309.38        81.64449
309.83          83.273
310.29        84.82956
310.74        86.30769
311.19         87.6792
311.65        88.87118
312.10        89.84254
312.55        90.61004
313.00        91.21112
313.46        91.72632
313.91        92.17559
314.36        92.60557
314.82        93.05144
315.27        93.52862
315.72        94.06084
316.18         94.6416
316.63        95.30066
317.08        96.09747
317.53        97.01932
317.99        98.02274
318.44        98.98219
318.89        99.63383
319.35        99.91837
319.80        99.90669
320.25        99.78514
320.70        99.88246
321.16        100.2635
321.61        100.8548
322.06        101.4868
322.51        101.8747
322.97        101.9375
323.42        101.8141
323.87        101.6058
324.32        101.4869
324.78        101.5121
325.23        101.6528
325.68        101.9106
326.13        102.3106
326.59        102.8037
327.04        103.4385
327.49        104.0845
327.94        104.5544
328.39        104.7953
328.85        104.8011
329.30         104.746
329.75        104.7971
330.20        105.0175
330.66        105.3359
331.11        105.7253
331.56        106.0109
332.01        106.1655
332.46          106.26
332.92        106.3462
333.37        106.6282
333.82        107.1125
334.27        107.7426
334.72        108.4685
335.17        109.2123
335.63        109.8892
336.08        110.5545
336.53        111.1291
336.98        111.5454
337.43        111.7998
337.88        111.9217
338.34        111.9627
338.79        112.0413
339.24        112.2031
339.69        112.4543
340.14        112.8244
340.59        113.3432
341.05        113.9972
341.50        114.7757
341.95        115.6171
342.40        116.4351
342.85        117.1858
343.30        117.8645
343.75        118.4417
344.20        118.8889
344.66        119.2273
345.11        119.4482
345.56        119.6149
346.01        119.8226
346.46        120.1005
346.91         120.427
347.36        120.7888
347.81        121.1524
348.26        121.5051
348.72        121.8772
349.17        122.2133
349.62        122.4511
350.07        122.5851
350.52        122.6196
350.97        122.6489
351.42        122.8362
351.87        123.1862
352.32        123.6155
352.77        123.9763
353.22        124.0347
353.67        123.7488
354.13        123.2549
354.58        122.5971
355.03        121.9224
355.48        121.3065
355.93        120.7204
356.38        120.2676
356.83        120.1073
357.28        120.2275
357.73        120.5558
358.18        120.8699
358.63        120.8007
359.08        120.2622
359.53        119.3706
359.98         118.287
360.43        117.2867
360.88        116.4568
361.33         115.701
361.78        115.0235
362.23        114.4198
362.68        113.8623
363.13        113.3864
363.58        112.8379
364.03        111.9633
364.48        110.7446
364.93        109.2592
365.38        107.8031
365.83        106.8314
366.28        106.4307
366.73         106.476
367.18        106.6302
367.63        106.3434
368.08        105.4805
368.53        104.1964
368.98        102.8372
369.43        101.9278
369.88        101.5754
370.33        101.6186
370.78        101.7052
371.23        101.2589
371.68        100.1544
372.13        98.60448
372.58        97.01333
373.03        95.97453
373.48        95.61454
373.93        95.73553
374.38        95.99863
374.83        95.85387
375.28        95.14343
375.72        94.01556
376.17        92.79761
376.62        91.81947
377.07        91.16171
377.52        90.70834
377.97        90.29745
378.42        89.69754
378.87         88.8783
379.32        87.95305
379.77        87.09869
380.22         86.5349
380.67        86.28285
381.11        86.27271
381.56        86.29122
382.01         86.0638
382.46        85.52693
382.91        84.78159
383.36        84.00285
383.81        83.43903
384.26        83.13844
384.71        83.01806
385.15        82.94431
385.60        82.73927
386.05        82.34491
386.50        81.82207
386.95        81.27087
387.40        80.83514
387.85        80.54812
388.29        80.32805
388.74        80.15208
389.19        79.80962
389.64        79.27048
390.09         78.5956
390.54        77.93529
390.98        77.45154
391.43        77.21482
391.88        77.28806
392.33        77.49564
392.78        77.16316
393.23        76.44149
393.67        76.31906
394.12        76.71043
394.57        76.38023
395.02        75.45374
395.47        75.09899
395.91        75.31012
396.36        75.20036
396.81        74.78285
397.26        74.55637
397.71         74.4561
398.15        74.26652
398.60        74.08358
399.05        73.57957
399.50        72.96613
399.95         73.2981
400.39        74.28882
400.84        73.98994
401.29        72.57415
401.74        72.02036
402.18        72.37253
402.63        72.30305
403.08        71.88492
403.53        71.40741
403.97        71.88002
404.42        72.10247
404.87         72.2682
405.32        72.24691
405.76        72.00302
406.21        71.74435
406.66        71.44334
407.11        70.89539
407.55         70.3131
408.00        70.01386
408.45        70.05943
408.90        70.69384
409.34        71.47933
409.79        70.98693
410.24        69.55469
410.68        68.99581
411.13        69.41722
411.58        69.79197
412.03        69.89236
412.47        69.84645
412.92        69.57066
413.37        69.05506
413.81        68.51157
414.26        68.32169
414.71        68.50922
415.15        69.02774
415.60        69.58283
416.05        69.73235
416.49        69.36886
416.94        68.66734
417.39        67.95364
417.83        67.69232
418.28        67.98372
418.73        68.65511
419.17        69.46961
419.62        69.97202
420.07        70.01912
420.51        69.73232
420.96        69.27723
421.41        68.79837
421.85        68.34949
422.30        68.03787
422.74        67.80899
423.19        67.56514
423.64         67.3468
424.08         67.5132
424.53        67.99602
424.98        68.39548
425.42         68.6438
425.87         69.0149
426.31        69.46344
426.76        69.45868
427.21        69.16022
427.65        69.42258
428.10        70.04981
428.54        70.15623
428.99        69.77383
429.44        69.12462
429.88        68.46973
430.33        68.70407
430.77        69.47015
431.22        69.46818
431.66         68.7505
432.11        68.46398
432.56        68.65495
433.00        69.02386
433.45         69.4769
433.89        70.03268
434.34        67.43336
434.78        70.37787
435.23         70.1731
435.67         67.8339
436.12        68.32336
436.57        68.29272
437.01        69.54774
437.46         70.1626
437.90        70.18769
438.35        69.35246
438.79        69.93681
439.24        69.74008
439.68        69.43433
440.13        69.40087
440.57        69.64902
441.02        69.44242
441.46        68.88558
441.91        69.47853
442.35        70.68621
442.80        70.32677
443.24        68.75352
443.69        68.68864
444.13         69.9912
444.58        70.38632
445.02        69.79496
445.47         69.4877
445.91        69.58653
446.36        69.71241
446.80        69.84614
447.24        70.21605
447.69         70.7316
448.13        70.57767
448.58        70.76321
449.02        70.53889
449.47        70.31937
449.91        70.16331
450.36        70.13194
450.80        70.20265
451.25        70.32068
451.69        70.30971
452.13        70.18488
452.58        70.14502
453.02        70.17097
453.47        70.12982
453.91        70.00495
454.36        69.86718
454.80        69.74475
455.24        69.66477
455.69        69.63036
456.13        69.69546
456.58        69.78067
457.02        69.72402
457.46        68.87048
457.91        69.17926
458.35        68.98898
458.79        69.17201
459.24        69.23693
459.68        68.79455
460.13        67.99471
460.57        68.26735
461.01        67.99223
461.46        68.25377
461.90        68.35127
462.34        68.37904
462.79        67.69669
463.23        67.30298
463.68        67.13052
464.12        67.23492
464.56        67.48856
465.01        67.49788
465.45        67.25513
465.89        67.26154
466.34        67.50217
466.78        67.62508
467.22         67.6398
467.67        67.48626
468.11         67.4432
468.55         67.3961
468.99        67.40556
469.44        67.33234
469.88        67.18694
470.32        67.06754
470.77        66.97655
471.21        66.88946
471.65        66.78879
472.10        66.68101
472.54        66.57939
472.98        66.49063
473.42        66.41543
473.87        66.47282
474.31        66.51536
474.75         66.1811
475.20        65.63554
475.64        65.20815
476.08        65.45283
476.52        65.47279
476.97         65.4103
477.41        65.54892
477.85        65.79646
478.29        66.11535
478.74        65.75464
479.18        65.90156
479.62        66.07128
480.06        66.05384
480.50        65.67933
480.95        65.70422
481.39        66.24873
481.83        64.96983
482.27        65.38041
482.72        65.94866
483.16        65.43352
483.60        65.58769
484.04        65.85629
484.48        65.58462
484.93        64.76336
485.37        66.15677
485.81        66.65751
486.25        66.08067
486.69         67.0953
487.14        67.32265
487.58        65.32597
488.02        65.26064
488.46        66.52409
488.90        64.38004
489.34        65.39228
489.79        65.42824
490.23        65.27561
490.67        65.43829
491.11        65.55862
491.55        65.61333
491.99        65.52645
492.43          65.451
492.88        65.38461
493.32        65.28653
493.76        65.19031
494.20        65.10315
494.64        65.01536
495.08        65.14584
495.52         65.4098
495.96        65.09126
496.41        64.40395
496.85          64.701
497.29        65.75872
497.73        65.90061
498.17        65.15016
498.61        64.92834
499.05        65.27317
499.49        65.15588
499.93        64.63577
500.37        64.58581
500.82        64.92484
501.26         64.7267
501.70        64.25989
502.14        64.23081
502.58         64.6408
503.02        64.79863
503.46        64.66885
503.90        64.60765
504.34        64.62529
504.78        64.58627
505.22        64.49239
505.66        64.38205
506.10        64.25562
506.54        64.17109
506.98        64.14687
507.42        64.15334
507.86        63.86397
508.30        64.33627
508.74        63.98943
509.18        64.02917
509.62        64.02967
510.06        64.07037
510.50        64.14423
510.94        64.24793
511.38        64.33516
511.82        64.29037
512.26        64.10656
512.70        63.82923
513.14        63.54244
513.58        63.38387
514.02        63.38194
514.46         63.4715
514.90        63.60256
515.34        63.74905
515.78        63.78492
516.22        63.82583
516.66        63.80859
517.10        63.67908
517.54        63.44839
517.98        63.13215
518.42        62.86303
518.86        62.85336
519.30        63.13384
519.74         63.6352
520.18        64.17728
520.62         64.4613
521.06        64.40826
521.50        64.10353
521.93        63.69129
522.37        63.42162
522.81        63.35959
523.25        63.43344
523.69          63.558
524.13        63.59879
524.57        63.52377
525.01        63.39454
525.45         63.2683
525.89        63.22481
526.32        63.27988
526.76        63.40164
527.20        63.55722
527.64        63.70865
528.08        63.83617
528.52        63.94947
528.96        64.02942
529.40        64.04825
529.83        63.99244
530.27        63.87568
530.71        63.73474
531.15        63.63644
531.59        63.59684
532.03         63.6196
532.46        63.64366
532.90        63.55525
533.34        63.35968
533.78        63.13862
534.22         62.9792
534.66        62.98176
535.09         63.1472
535.53        63.43599
535.97        63.76725
536.41        63.95743
536.85        63.94902
537.28        63.96553
537.72        63.97005
538.16        63.51336
538.60        62.82435
539.04        62.78316
539.47        63.29215
539.91        63.48271
540.35        63.30663
540.79        63.29025
541.22        63.40543
541.66        63.40918
542.10        63.30128
542.54        63.05644
542.97         62.7831
543.41        62.89676
543.85        63.30854
544.29        63.48399
544.72        63.37019
545.16        63.34097
545.60        63.36947
546.04        63.21734
546.47        62.93356
546.91         62.7474
547.35        62.69295
547.79        62.71241
548.22         62.7794
548.66        62.88387
549.10         63.0058
549.53        63.22152
549.97        63.46726
550.41        63.57694
550.84        63.52018
551.28        63.37919
551.72        63.18872
552.15        62.97568
552.59        62.79865
553.03        62.65781
553.46        62.52175
553.90        62.51987
554.34         62.6088
554.77        62.70401
555.21        62.79167
555.65        62.90109
556.08        63.00675
556.52        63.08472
556.96        63.11558
557.39        63.11009
557.83        63.10238
558.27        63.04713
558.70        62.95292
559.14        62.97895
559.57        63.06462
560.01        62.89847
560.45        62.57235
560.88        62.58462
561.32        62.88369
561.75        62.95197
562.19        62.83758
562.63        62.66984
563.06        62.54662
563.50        62.98138
563.93        63.74159
564.37        63.63584
564.80         62.8194
565.24        62.74055
565.68        63.27544
566.11        63.29211
566.55         62.8265
566.98         62.4179
567.42        62.20238
567.85        62.50811
568.29        62.81418
568.72         62.9433
569.16        62.84529
569.60        62.97179
570.03         62.9967
570.47        63.20014
570.90        63.55755
571.34        62.69106
571.77        63.70879
572.21        63.21129
572.64        63.59032
573.08        63.08842
573.51        63.51084
573.95        63.22511
574.38        62.93601
574.82        62.53192
