SpectraSmart Spectrum 2.9.0.0
--------- Device Information -----------
Spectrum Name :  反射率_0
Saving Time :  2024/05/03 20:00:43
Spectro-Module Model Name : SE2030-DUVN
Spectro-Module Serial Number : OS361AC55029948
Wavelength Start : 200
Wavelength End : 1025
Wavelength Unit : Wavelength(nm)
Spectrum Unit : Reflectance(%)
-----------Spectrum Setting ------------
Integration Time : 20ms
Average : 10
Boxcar : 0
Background removal :  enabled
linearity correction :  enabled
SC :  disabled
Intensity correction :  disabled
DWT denoise :  enabled
savitzky-golay :  disabled
FFT :  disabled
Running average :  disabled
Kalman :  disabled
High pass :  disabled
---------------BEGIN--------------------
Wavelength(nm)             Reflectance(%)
200.29               0
200.75       -28.26793
201.21       -39.98127
201.67        930.1946
202.13        33.23191
202.58        25.92114
203.04        28.42525
203.50         32.7587
203.96        36.54939
204.42        40.56039
204.88        51.82699
205.34       -346.9524
205.80       -9.126695
206.26       -23.95212
206.72        -14963.2
207.18        86.98177
207.64        64.43653
208.10        57.01628
208.55        53.54853
209.01        16.42065
209.47       -82.06625
209.93        15.40075
210.39         27.7309
210.85        32.69581
211.31        37.34548
211.77        44.45362
212.23        60.90583
212.69        100.8877
213.14        123.1834
213.60        65.21089
214.06        29.60709
214.52        16.49976
214.98        13.69484
215.44        17.79375
215.90        41.53568
216.36        -315.356
216.81       -68.52125
217.27        -71.4231
217.73       -121.9369
218.19       -428.1125
218.65       -8242.188
219.11       -568.2817
219.57       -139.1684
220.02       -71.35061
220.48       -117.1557
220.94        148.9631
221.40        53.61755
221.86        40.32957
222.32        37.23315
222.77        37.65098
223.23        40.82667
223.69        46.92435
224.15        51.70531
224.61        50.85006
225.06        47.14344
225.52        44.17891
225.98        43.12838
226.44        43.56436
226.90         44.5833
227.36        45.73252
227.81         45.8214
228.27        44.24194
228.73        42.21957
229.19         39.7356
229.65        36.45629
230.10        32.77356
230.56        29.33372
231.02        26.96184
231.48        26.67679
231.93        28.15026
232.39        30.73837
232.85        33.43309
233.31        34.84344
233.77        34.75373
234.22        33.62263
234.68        32.24403
235.14        31.95615
235.60        33.18386
236.05        35.59885
236.51        38.61313
236.97         40.9473
237.43        41.97699
237.88        42.30042
238.34        42.34258
238.80        42.57351
239.26         43.3146
239.71         46.5726
240.17        50.44168
240.63        59.09484
241.08        70.03016
241.54         78.7762
242.00         83.4377
242.46        86.99706
242.91        91.99607
243.37        98.28675
243.83        105.6733
244.28        106.3375
244.74        89.90704
245.20        65.37873
245.66         46.8647
246.11        40.08752
246.57        42.33368
247.03        49.09201
247.48        56.72038
247.94        62.06295
248.40        64.82069
248.85        66.42184
249.31        65.72657
249.77        60.25114
250.22        52.25986
250.68        44.79173
251.14        40.42557
251.59        41.45029
252.05        48.47164
252.51        62.68817
252.96        85.79432
253.42        110.3518
253.88        122.9379
254.33        121.4994
254.79        109.9398
255.25         94.0024
255.70        79.30665
256.16        68.18481
256.62        60.73373
257.07         56.8102
257.53        55.51807
257.99        55.39119
258.44        55.48788
258.90        55.35389
259.35         54.5116
259.81        53.64127
260.27        52.53089
260.72        51.01488
261.18        49.52769
261.63        47.93121
262.09        46.62785
262.55        45.69959
263.00        45.00465
263.46        44.49526
263.91        43.94323
264.37        43.29578
264.83         42.5006
265.28        41.62215
265.74        40.71979
266.19        39.65099
266.65        38.52008
267.11        37.29437
267.56        36.14385
268.02        35.38471
268.47        34.99346
268.93        34.90265
269.38        34.81472
269.84        34.23392
270.30        33.11703
270.75        31.66037
271.21        30.29742
271.66        29.55285
272.12        29.50498
272.57        29.91144
273.03          30.442
273.48        30.59252
273.94        30.22231
274.39        29.50788
274.85        28.59882
275.31        27.62243
275.76         26.6647
276.22        25.74912
276.67        24.96469
277.13        24.52753
277.58        24.37535
278.04        24.45092
278.49        24.54145
278.95         24.3595
279.40        23.82735
279.86        23.12812
280.31        22.35238
280.77        21.70605
281.22        21.17845
281.68        20.74345
282.13        20.38317
282.59        20.13543
283.04        19.98063
283.50        19.92772
283.95        19.90792
284.41        19.83063
284.86        19.66957
285.32        19.46939
285.77        19.27049
286.22        19.18962
286.68        19.24782
287.13        19.37564
287.59         19.5312
288.04         19.6198
288.50        19.63442
288.95        19.58366
289.41        19.49874
289.86          19.388
290.32        19.28464
290.77        19.17786
291.22        19.09529
291.68         19.0663
292.13         19.0985
292.59        19.22219
293.04         19.4275
293.50        19.70558
293.95        20.04624
294.40        20.44969
294.86        20.95327
295.31        21.62017
295.77        22.45394
296.22        23.41817
296.68        24.41815
297.13        25.28893
297.58        25.96948
298.04          26.516
298.49        26.98256
298.95        27.49881
299.40        28.09737
299.85        28.75347
300.31        29.49853
300.76        30.34808
301.21        31.30378
301.67        32.37309
302.12        33.45751
302.58        34.41404
303.03        35.20011
303.48        35.86311
303.94        36.54981
304.39        37.43171
304.84        38.56733
305.30        39.89388
305.75        41.27139
306.20        42.50697
306.66        43.55802
307.11        44.46162
307.57         45.3171
308.02        46.19386
308.47        47.15121
308.93        48.16157
309.38        49.20327
309.83        50.30656
310.29        51.45852
310.74        52.62909
311.19        53.76374
311.65        54.75993
312.10        55.56789
312.55        56.20657
313.00        56.70079
313.46        57.10946
313.91        57.45248
314.36        57.75613
314.82         58.0607
315.27        58.40361
315.72        58.80971
316.18        59.27662
316.63        59.80544
317.08        60.40057
317.53        61.04694
317.99         61.7227
318.44        62.37764
318.89        62.89451
319.35        63.24032
319.80        63.44031
320.25        63.55797
320.70        63.71761
321.16        63.94614
321.61        64.22541
322.06        64.50792
322.51        64.71506
322.97        64.82009
323.42        64.87322
323.87        64.89645
324.32         64.9295
324.78        64.98542
325.23        65.07859
325.68         65.2077
326.13         65.3827
326.59        65.58462
327.04        65.84404
327.49        66.14478
327.94        66.48203
328.39         66.8428
328.85        67.19621
329.30        67.54462
329.75        67.80726
330.20        67.97066
330.66        68.03435
331.11        68.08064
331.56        68.17027
332.01         68.3343
332.46        68.56001
332.92        68.81369
333.37        69.11444
333.82        69.42858
334.27        69.76855
334.72        70.12329
335.17        70.47143
335.63        70.78467
336.08        71.09192
336.53        71.38746
336.98        71.70504
337.43        72.04903
337.88        72.41092
338.34        72.75471
338.79        73.03667
339.24        73.25359
339.69        73.44597
340.14        73.66037
340.59        73.96898
341.05        74.38757
341.50        74.88487
341.95         75.4587
342.40        76.11614
342.85        76.82975
343.30        77.58463
343.75        78.26587
344.20        78.69245
344.66        78.85637
345.11        78.81258
345.56        78.72556
346.01         78.8501
346.46         79.2518
346.91        79.85079
347.36        80.55902
347.81        81.22972
348.26        81.80336
348.72        82.32581
349.17        82.76695
349.62        83.09836
350.07        83.32433
350.52        83.44022
350.97        83.51221
351.42        83.66062
351.87        83.90675
352.32        84.21469
352.77        84.51319
353.22        84.68211
353.67        84.69393
354.13        84.61253
354.58        84.45277
355.03        84.29307
355.48        84.16626
355.93        84.06109
356.38         83.9903
356.83        83.97369
357.28        84.00695
357.73        84.07853
358.18        84.16124
358.63        84.20718
359.08        84.19366
359.53        84.12094
359.98        83.97334
360.43        83.73907
360.88        83.41503
361.33        82.99507
361.78        82.52189
362.23        82.05585
362.68        81.62109
363.13        81.23757
363.58        80.84087
364.03        80.32561
364.48        79.69191
364.93        78.97331
365.38          78.344
365.83        78.06409
366.28        78.16231
366.73        78.55119
367.18        78.95669
367.63        78.93824
368.08        78.39374
368.53        77.44877
368.98        76.40502
369.43        75.72481
369.88        75.52031
370.33        75.67555
370.78        75.92055
371.23        75.79958
371.68        75.20314
372.13        74.28074
372.58        73.34978
373.03         72.8853
373.48        72.97251
373.93         73.4396
374.38        73.94804
374.83        73.94777
375.28        73.30595
375.72        72.20349
376.17        71.00554
376.62        70.12682
377.07        69.67538
377.52        69.51719
377.97        69.50021
378.42        69.38913
378.87        69.11149
379.32        68.74995
379.77        68.39452
380.22        68.15424
380.67        68.04418
381.11        68.03042
381.56        67.97987
382.01        67.74688
382.46        67.31028
382.91        66.73026
383.36        66.16567
383.81        65.83837
384.26        65.78178
384.71        65.93064
385.15        66.10497
385.60        66.04089
386.05        65.67474
386.50        65.09663
386.95        64.49187
387.40        64.13995
387.85         64.0922
388.29        64.21601
388.74          64.404
389.19        64.36259
389.64        64.04121
390.09        63.53798
390.54        63.01019
390.98        62.64458
391.43         62.5251
391.88         62.6782
392.33        62.97145
392.78        62.91192
393.23        62.61796
393.67        62.77174
394.12        63.27971
394.57        63.34122
395.02        62.91557
395.47        62.38222
395.91        61.91312
396.36        61.61925
396.81        61.59685
397.26        61.82316
397.71         62.0882
398.15        62.14056
398.60        62.01544
399.05        61.47071
399.50        60.79326
399.95        61.01971
400.39        61.92977
400.84        61.85391
401.29        60.87838
401.74        60.48814
402.18        60.76089
402.63        60.89685
403.08         60.9076
403.53        60.68031
403.97        61.05019
404.42        61.18377
404.87        61.31079
405.32        61.32464
405.76        61.20351
406.21        61.17347
406.66        61.14016
407.11        60.65822
407.55        59.93889
408.00        59.68116
408.45        59.94051
408.90        60.39738
409.34        60.79931
409.79        60.67127
410.24          60.151
410.68        60.00218
411.13         60.2698
411.58        60.46153
412.03        60.48109
412.47        60.44508
412.92        60.31916
413.37        60.08029
413.81        59.83001
414.26        59.79144
414.71        59.96814
415.15         60.3513
415.60        60.75143
416.05        60.90352
416.49        60.74108
416.94        60.36581
417.39        59.98793
417.83        59.91122
418.28        60.20479
418.73        60.75867
419.17        61.40817
419.62        61.82638
420.07        61.91336
420.51        61.74436
420.96         61.4626
421.41        61.19534
421.85        60.97533
422.30        60.89176
422.74        60.85407
423.19        60.72557
423.64        60.53199
424.08        60.58611
424.53        60.88623
424.98        61.21287
425.42        61.54662
425.87        62.07395
426.31        62.69219
426.76        62.90484
427.21        62.79328
427.65        62.97269
428.10        63.38463
428.54        63.53201
428.99        63.45506
429.44        63.31542
429.88        63.18131
430.33        63.35487
430.77        63.64604
431.22        63.62426
431.66         63.3022
432.11        63.10017
432.56        63.10653
433.00        63.41774
433.45        63.93082
433.89        64.80985
434.34        62.98825
434.78        65.03737
435.23        64.96895
435.67        63.11399
436.12        63.40004
436.57        63.72326
437.01        65.32716
437.46        65.99168
437.90        65.62182
438.35        65.32053
438.79         65.2153
439.24        65.02195
439.68        64.77417
440.13        64.94505
440.57        65.43674
441.02        65.19707
441.46         64.4203
441.91         65.0434
442.35        66.52169
442.80        66.30666
443.24        64.77136
443.69        64.88842
444.13        66.47705
444.58        67.04952
445.02        66.50761
445.47        66.19611
445.91        66.24751
446.36        66.34538
446.80        66.50048
447.24        66.81358
447.69        67.17738
448.13        67.37712
448.58        67.40425
449.02        67.37566
449.47        67.35577
449.91        67.32162
450.36        67.31576
450.80         67.3502
451.25        67.41024
451.69        67.41582
452.13         67.3638
452.58         67.2835
453.02        67.20476
453.47        67.20056
453.91        67.27386
454.36        67.40162
454.80        67.50292
455.24        67.54746
455.69        67.54633
456.13        67.33677
456.58        66.98634
457.02        67.25166
457.46        67.13483
457.91        67.14732
458.35        66.93452
458.79        66.97883
459.24        67.19773
459.68        66.80799
460.13        65.94766
460.57        66.14429
461.01        66.09097
461.46        66.22204
461.90        66.13319
462.34        66.81024
462.79        65.97778
463.23        65.78568
463.68        65.65938
464.12        65.64256
464.56        65.71451
465.01        65.91833
465.45        66.15198
465.89        66.24596
466.34        66.16892
466.78        66.12542
467.22           66.27
467.67        65.54488
468.11        66.02242
468.55        66.02158
468.99        66.10011
469.44        66.12689
469.88        66.10481
470.32         66.0483
470.77        65.95341
471.21        65.88207
471.65        65.82172
472.10        65.75184
472.54        65.67989
472.98        65.59328
473.42        65.48147
473.87        65.52938
474.31        65.60635
474.75         65.2113
475.20        64.53622
475.64        64.41085
476.08        64.83472
476.52        64.96545
476.97        64.72002
477.41        64.86298
477.85        65.48091
478.29        64.91228
478.74        65.24142
479.18        65.71223
479.62        65.25165
480.06        65.21732
480.50        65.06536
480.95        65.08844
481.39          65.305
481.83        64.64612
482.27        64.68829
482.72        65.30863
483.16        64.91493
483.60        65.09743
484.04        65.32005
484.48        65.22517
484.93        64.76099
485.37         65.5591
485.81        66.16002
486.25        65.43837
486.69        66.50762
487.14        67.24178
487.58        64.95518
488.02        64.64317
488.46        65.96227
488.90        64.31611
489.34        65.09892
489.79        65.16763
490.23        65.43662
490.67        65.78618
491.11        65.95697
491.55        65.84886
491.99        65.48664
492.43        65.26957
492.88        65.23856
493.32        65.23669
493.76        65.23669
494.20        65.21294
494.64        65.12801
495.08        65.18145
495.52        65.36615
495.96        65.09475
496.41        64.57694
496.85        65.15784
497.29        66.48141
497.73        66.52386
498.17        65.40823
498.61        65.03609
499.05        65.50143
499.49        65.64043
499.93        65.38388
500.37        65.24672
500.82        65.20664
501.26        64.96665
501.70        64.63022
502.14        64.63491
502.58        64.92875
503.02        65.05861
503.46          64.996
503.90        65.00657
504.34          65.085
504.78        65.09866
505.22        65.03159
505.66         64.9191
506.10        64.80762
506.54        64.76026
506.98        64.73636
507.42        65.01808
507.86         64.5769
508.30         64.8021
508.74        64.53909
509.18        64.43358
509.62        64.28619
510.06        64.28116
510.50        64.43774
510.94        64.69751
511.38        64.97488
511.82         65.1046
512.26        65.05038
512.70        64.86909
513.14        64.62417
513.58        64.44131
514.02        64.35891
514.46        64.28587
514.90        64.21423
515.34        64.37563
515.78        64.37125
516.22        64.53148
516.66        64.66283
517.10        64.64494
517.54        64.46397
517.98        64.15855
518.42        63.87928
518.86        63.86104
519.30        64.14337
519.74        64.64362
520.18         65.1832
520.62        65.46829
521.06        65.42257
521.50        65.14031
521.93        64.75246
522.37        64.48624
522.81        64.40271
523.25        64.42843
523.69        64.51389
524.13        64.58227
524.57        64.60506
525.01        64.62483
525.45        64.62726
525.89        64.57813
526.32        64.47826
526.76        64.34099
527.20        64.22595
527.64        64.24051
528.08        64.39922
528.52         64.6635
528.96        64.94936
529.40        65.12296
529.83        65.13541
530.27        65.03394
530.71        64.87169
531.15        64.74306
531.59        64.67739
532.03        64.65771
532.46        64.63956
532.90         64.5554
533.34        64.40713
533.78        64.24055
534.22        64.12101
534.66        64.13773
535.09        64.28574
535.53        64.52126
535.97        64.78762
536.41         64.9495
536.85        64.95917
537.28        65.02548
537.72        65.09146
538.16        64.66798
538.60         63.9784
539.04        63.93267
539.47        64.43563
539.91        64.60895
540.35        64.40768
540.79        64.36157
541.22        64.45531
541.66        64.46423
542.10        64.39011
542.54        64.20344
542.97        63.98425
543.41        64.10693
543.85        64.47378
544.29        64.55988
544.72        64.35747
545.16        64.30464
545.60          64.396
546.04        64.39632
546.47        64.29655
546.91        64.22501
547.35        64.19354
547.79        64.14387
548.22        64.11555
548.66        64.27044
549.10        64.57304
549.53        64.90476
549.97        65.16094
550.41        65.28428
550.84        65.23969
551.28        64.96712
551.72        64.58472
552.15        64.43058
552.59        64.50202
553.03        64.46263
553.46        64.31131
553.90        64.24469
554.34        64.19942
554.77        64.53863
555.21        64.19166
555.65        64.39069
556.08        64.73879
556.52        64.90993
556.96        64.87049
557.39        64.87939
557.83         64.9713
558.27        64.92036
558.70        64.74833
559.14        64.73664
559.57         64.8261
560.01        64.65472
560.45        64.33067
560.88        64.34705
561.32        64.66712
561.75        64.88742
562.19        64.96484
562.63        64.73439
563.06        64.33138
563.50        64.53217
563.93        65.18224
564.37        65.12417
564.80        64.47837
565.24        64.51144
565.68        65.09401
566.11        65.26314
566.55        65.01035
566.98        64.68385
567.42        64.41454
567.85        64.62846
568.29        64.82015
568.72        64.85411
569.16        64.70197
569.60        64.74857
570.03        64.94672
570.47        65.21049
570.90        65.51342
571.34        65.12835
571.77        65.87938
572.21        65.46049
572.64        65.44768
573.08        65.09233
573.51        65.51688
573.95        65.33925
574.38        65.11906
574.82        64.77667
