SpectraSmart Spectrum 2.9.0.0
--------- Device Information -----------
Spectrum Name :  反射率_0
Saving Time :  2024/05/03 20:03:03
Spectro-Module Model Name : SE2030-DUVN
Spectro-Module Serial Number : OS361AC55029948
Wavelength Start : 200
Wavelength End : 1025
Wavelength Unit : Wavelength(nm)
Spectrum Unit : Reflectance(%)
-----------Spectrum Setting ------------
Integration Time : 20ms
Average : 10
Boxcar : 0
Background removal :  enabled
linearity correction :  enabled
SC :  disabled
Intensity correction :  disabled
DWT denoise :  enabled
savitzky-golay :  disabled
FFT :  disabled
Running average :  disabled
Kalman :  disabled
High pass :  disabled
---------------BEGIN--------------------
Wavelength(nm)             Reflectance(%)
200.29               0
200.75        39.38795
201.21        44.51578
201.67         -147.38
202.13        34.41274
202.58        37.76517
203.04        39.67662
203.50        40.45629
203.96        39.70763
204.42        36.55718
204.88        24.05211
205.34        473.9709
205.80        85.56309
206.26        85.71125
206.72        8005.867
207.18        23.54795
207.64        35.82361
208.10        41.39717
208.55        55.93554
209.01        153.9398
209.47        101.9767
209.93        21.25332
210.39         16.0805
210.85        16.11197
211.31        18.87681
211.77        24.98434
212.23        39.76982
212.69        80.26729
213.14        122.7016
213.60        81.58299
214.06        48.19489
214.52        33.87526
214.98        29.23539
215.44        30.30773
215.90        42.75612
216.36       -173.0744
216.81       -34.34616
217.27        -51.9786
217.73       -126.9078
218.19       -566.4351
218.65       -12409.99
219.11       -914.1566
219.57       -236.1138
220.02       -123.3901
220.48       -180.7336
220.94        189.2527
221.40        56.61454
221.86        38.30555
222.32        34.76455
222.77        36.60323
223.23         43.5879
223.69        54.37682
224.15        56.16832
224.61        43.59267
225.06        28.05634
225.52        18.02923
225.98        15.51061
226.44        18.96738
226.90        27.55596
227.36        40.10447
227.81        49.79404
228.27        51.52721
228.73        48.22015
229.19        43.06715
229.65        38.73768
230.10        35.68859
230.56        33.42279
231.02        31.97662
231.48        31.67608
231.93        32.27956
232.39         33.5939
232.85        35.19442
233.31        36.46471
233.77         37.2567
234.22        37.71812
234.68        37.95994
235.14        38.15657
235.60        38.40978
236.05        38.72562
236.51        39.08445
236.97        39.60313
237.43        40.24492
237.88        41.08729
238.34        42.18521
238.80        43.63869
239.26        45.76356
239.71        51.13688
240.17        57.82091
240.63        66.66264
241.08        71.95328
241.54        70.25311
242.00        65.54985
242.46        64.37536
242.91           68.73
243.37        79.57027
243.83        99.08834
244.28        116.7209
244.74        109.8394
245.20        82.44268
245.66        54.74501
246.11        41.54914
246.57        41.19981
247.03        46.94497
247.48        53.28331
247.94        55.06117
248.40        52.01141
248.85        46.17397
249.31        39.40762
249.77        35.65976
250.22        36.38282
250.68        39.33139
251.14        43.44962
251.59        49.12193
252.05        57.41626
252.51        70.17263
252.96        88.13197
253.42        103.8642
253.88        107.8498
254.33        101.2452
254.79        90.06036
255.25        79.53784
255.70         71.7971
256.16        66.90752
256.62        64.40525
257.07        64.10079
257.53        65.46448
257.99        67.28838
258.44        68.45778
258.90        68.31979
259.35         66.6003
259.81        64.51308
260.27        62.13091
260.72        59.57569
261.18         57.4211
261.63        55.39073
262.09        53.96877
262.55         53.2768
263.00        53.07619
263.46        53.23907
263.91         53.3276
264.37        53.03083
264.83        52.24023
265.28        51.12189
265.74        49.85375
266.19        48.40143
266.65        46.94268
267.11        45.41544
267.56        44.01517
268.02         43.1137
268.47        42.67535
268.93        42.61525
269.38        42.60179
269.84        42.07411
270.30        40.95649
270.75        39.45193
271.21        37.97252
271.66        36.99967
272.12        36.62215
272.57        36.61456
273.03        36.72461
273.48        36.57835
273.94        36.08094
274.39        35.37405
274.85        34.55615
275.31        33.66124
275.76        32.73759
276.22        31.83006
276.67        31.03634
277.13        30.61205
277.58         30.4846
278.04        30.58357
278.49        30.65171
278.95        30.35015
279.40        29.60401
279.86        28.64948
280.31        27.63126
280.77        26.83604
281.22        26.25388
281.68        25.84678
282.13        25.55603
282.59        25.37222
283.04        25.25357
283.50        25.22041
283.95        25.22773
284.41        25.23232
284.86        25.20604
285.32        25.18495
285.77        25.14513
286.22        25.11937
286.68        25.12375
287.13        25.11031
287.59        25.13711
288.04         25.2418
288.50        25.43701
288.95        25.68107
289.41        25.89584
289.86        25.90671
290.32        25.72592
290.77         25.4188
291.22        25.13469
291.68        25.07285
292.13        25.27995
292.59        25.73654
293.04        26.38034
293.50        27.11021
293.95        27.87301
294.40         28.6939
294.86        29.61851
295.31        30.72211
295.77        32.02409
296.22        33.47663
296.68        34.99358
297.13        36.42102
297.58        37.68668
298.04        38.85076
298.49        39.93836
298.95        41.05996
299.40        42.24602
299.85        43.48334
300.31        44.84758
300.76         46.4125
301.21        48.18115
301.67        50.13094
302.12        52.07955
302.58        53.77109
303.03        55.11923
303.48        56.20967
303.94         57.2581
304.39        58.51304
304.84        60.07174
305.30        61.84289
305.75        63.65379
306.20         65.2767
306.66        66.65887
307.11        67.83723
307.57        68.91602
308.02        69.92632
308.47        70.94333
308.93        71.95271
309.38        72.96095
309.83        74.07065
310.29        75.28478
310.74        76.55421
311.19        77.78438
311.65        78.80165
312.10        79.53793
312.55         80.0388
313.00        80.37947
313.46        80.69707
313.91        81.02097
314.36        81.36034
314.82        81.71369
315.27         82.0471
315.72        82.37243
316.18         82.7105
316.63        83.10264
317.08        83.62156
317.53         84.2662
317.99         84.9864
318.44         85.6954
318.89        86.20292
319.35        86.45675
319.80        86.50704
320.25        86.45189
320.70        86.47321
321.16        86.61014
321.61        86.83222
322.06        87.06982
322.51        87.20841
322.97        87.21573
323.42        87.17263
323.87        87.11305
324.32        87.09682
324.78        87.14033
325.23        87.24734
325.68        87.43359
326.13        87.74264
326.59        88.14445
327.04        88.66872
327.49        89.21223
327.94        89.63653
328.39        89.89619
328.85        89.97725
329.30        90.01128
329.75        90.10909
330.20        90.31312
330.66        90.57378
331.11        90.86035
331.56         91.0118
332.01        91.01119
332.46        90.92142
332.92        90.83459
333.37        91.00777
333.82        91.45963
334.27        92.11575
334.72        92.86375
335.17        93.51374
335.63        93.96042
336.08        94.29432
336.53        94.49801
336.98        94.60027
337.43        94.63468
337.88        94.60121
338.34        94.56171
338.79        94.64193
339.24        94.87466
339.69        95.26418
340.14        95.76558
340.59        96.28526
341.05        96.78873
341.50        97.29481
341.95        97.83881
342.40        98.49792
342.85        99.26548
343.30        100.0828
343.75        100.8417
344.20        101.3818
344.66         101.686
345.11        101.8029
345.56        101.8302
346.01        101.9114
346.46         102.106
346.91        102.3807
347.36        102.7459
347.81        103.2141
348.26        103.7599
348.72        104.3702
349.17        104.9522
349.62        105.3766
350.07        105.6121
350.52         105.698
350.97        105.6748
351.42        105.6236
351.87        105.5737
352.32        105.4855
352.77        105.4064
353.22        105.4137
353.67        105.5035
354.13        105.6825
354.58        105.7716
355.03         105.553
355.48        105.0134
355.93        104.2567
356.38        103.4884
356.83        103.0299
357.28        102.9543
357.73        103.1457
358.18        103.4697
358.63        103.7038
359.08        103.7539
359.53        103.6718
359.98        103.4344
360.43        103.0167
360.88        102.4282
361.33         101.655
361.78        100.7996
362.23        100.0284
362.68        99.38309
363.13        98.85522
363.58        98.32394
364.03        97.58408
364.48        96.61821
364.93         95.5106
365.38        94.46706
365.83        93.79088
366.28        93.53214
366.73        93.58345
367.18        93.71345
367.63        93.55561
368.08        93.00717
368.53        92.16602
368.98        91.22604
369.43        90.47854
369.88        89.99781
370.33        89.71072
370.78        89.44953
371.23        88.94801
371.68        88.15739
372.13        87.17476
372.58        86.24341
373.03        85.71423
373.48        85.63818
373.93         85.8928
374.38        86.17252
374.83        85.98257
375.28        85.20943
375.72        83.99364
376.17        82.71442
376.62        81.79794
377.07        81.33918
377.52        81.20153
377.97        81.16497
378.42        80.88552
378.87        80.28539
379.32        79.49367
379.77         78.7079
380.22        78.18581
380.67        77.96668
381.11        77.97504
381.56        77.99069
382.01          77.726
382.46        77.12316
382.91        76.29333
383.36        75.46349
383.81        74.95264
384.26        74.81345
384.71        74.94062
385.15        75.11462
385.60        75.01424
386.05        74.55945
386.50        73.86737
386.95        73.13673
387.40        72.66349
387.85        72.50872
388.29        72.52761
388.74         72.6315
389.19        72.53769
389.64        72.18855
390.09        71.67155
390.54        71.11671
390.98        70.65703
391.43        70.37057
391.88        70.32622
392.33        70.41238
392.78        70.09367
393.23        69.51906
393.67        69.54921
394.12        70.07441
394.57        69.94859
395.02        69.25009
395.47        68.97619
395.91        69.14172
396.36        69.05815
396.81        68.73938
397.26        68.55714
397.71        68.48871
398.15         68.3529
398.60        68.21974
399.05        67.97797
399.50        67.70078
399.95        67.72324
400.39        67.96378
400.84        67.79744
401.29        67.28149
401.74        66.94034
402.18        66.81667
402.63        66.67923
403.08        66.61948
403.53        66.30969
403.97        66.67995
404.42        66.88685
404.87        67.12185
405.32        67.18906
405.76        67.04203
406.21         66.8685
406.66        66.64529
407.11        66.13955
407.55        65.53168
408.00        65.29679
408.45        65.43597
408.90        65.65025
409.34        65.74356
409.79        65.40038
410.24        64.78943
410.68         64.5546
411.13        64.74438
411.58        64.97445
412.03        65.09621
412.47        65.06277
412.92        64.81239
413.37        64.37685
413.81        63.92631
414.26        63.78166
414.71        63.96057
415.15        64.42292
415.60         64.9192
416.05        65.08592
416.49        64.82896
416.94        64.28678
417.39         63.7254
417.83        63.52722
418.28         63.7768
418.73        64.33234
419.17        64.99999
419.62        65.40291
420.07        65.42819
420.51        65.17645
420.96        64.79749
421.41        64.42376
421.85          64.098
422.30        63.90134
422.74        63.77045
423.19        63.64038
423.64        63.52362
424.08        63.65731
424.53        64.00856
424.98        64.35369
425.42        64.65002
425.87        65.08413
426.31        65.57097
426.76        65.57841
427.21         65.2486
427.65        65.39283
428.10        65.89008
428.54         66.0313
428.99        65.86577
429.44        65.48894
429.88        65.08404
430.33        65.56295
430.77        66.48795
431.22        66.31204
431.66        65.21138
432.11        64.83236
432.56        65.22203
433.00        65.63789
433.45        65.92204
433.89        66.30906
434.34        63.80453
434.78        66.69581
435.23        66.43723
435.67        64.85905
436.12        65.29287
436.57        65.32351
437.01        66.21752
437.46        67.44016
437.90        67.18309
438.35        66.10561
438.79        66.76988
439.24        66.45963
439.68        66.10575
440.13        66.01163
440.57        66.19824
441.02        66.09493
441.46        65.73557
441.91         66.1298
442.35        66.92966
442.80        66.82478
443.24        66.03189
443.69        66.22315
444.13        67.22655
444.58        67.73396
445.02        67.26655
445.47        66.98576
445.91        66.90942
446.36        66.96507
446.80        67.16379
447.24        67.53339
447.69        67.93443
448.13        68.13039
448.58        68.08252
449.02        67.84246
449.47        67.54502
449.91        67.36102
450.36        67.35717
450.80        67.44843
451.25        67.58949
451.69        67.67673
452.13        67.68459
452.58        67.65434
453.02        67.58057
453.47        67.48066
453.91        67.35502
454.36        67.19571
454.80        67.01123
455.24        66.89672
455.69        66.88793
456.13        66.84196
456.58        66.71399
457.02        66.96209
457.46        66.61648
457.91        66.51403
458.35        66.34984
458.79         66.3746
459.24        66.53682
459.68        66.23595
460.13        65.58528
460.57         65.4676
461.01        66.04633
461.46         65.1777
461.90        65.69646
462.34        65.86358
462.79        65.21303
463.23        64.90814
463.68        64.67977
464.12        64.65271
464.56        64.75443
465.01        64.95123
465.45         65.1241
465.89        65.10666
466.34        64.92731
466.78        64.95842
467.22        65.29034
467.67        64.73309
468.11        64.97417
468.55        64.91256
468.99        64.99384
469.44        64.92461
469.88        64.71085
470.32         64.4552
470.77        64.21033
471.21          64.087
471.65        64.08678
472.10        64.16753
472.54        64.27268
472.98        64.29107
473.42        64.18604
473.87        64.16184
474.31        64.12717
474.75        63.66312
475.20        62.97686
475.64        62.82783
476.08        63.16398
476.52        63.30397
476.97        63.20087
477.41        63.24421
477.85        63.31779
478.29        63.87592
478.74        63.34103
479.18        64.10416
479.62         63.9938
480.06        64.05202
480.50        63.71387
480.95        63.53819
481.39         63.6555
481.83        62.63987
482.27        62.98082
482.72        63.23193
483.16        63.15676
483.60        63.37001
484.04        63.70252
484.48        63.59806
484.93        63.02008
485.37        64.13422
485.81        65.06165
486.25        63.79986
486.69        66.37899
487.14        66.41129
487.58         63.1707
488.02        63.47683
488.46        64.22043
488.90        62.79631
489.34        63.48491
489.79         63.1056
490.23        63.17636
490.67        63.41998
491.11        63.76274
491.55        63.76737
491.99        63.42764
492.43        63.27478
492.88        63.33734
493.32        63.38592
493.76         63.3758
494.20        63.34874
494.64        63.29055
495.08         63.2262
495.52        63.21061
495.96        63.17646
496.41        63.14709
496.85        63.47961
497.29        63.99556
497.73        63.79074
498.17        63.01445
498.61        62.94388
499.05        63.51578
499.49        63.46386
499.93        62.84716
500.37        62.68187
500.82        62.95213
501.26        63.01487
501.70        62.85142
502.14         62.7938
502.58         62.8573
503.02         62.9166
503.46        62.96542
503.90        63.03968
504.34        63.09739
504.78         63.0634
505.22        62.91947
505.66        62.70944
506.10        62.49015
506.54        62.35521
506.98        62.32584
507.42        62.65905
507.86        62.27892
508.30        63.01927
508.74        62.47566
509.18        62.38803
509.62        62.21678
510.06        62.17397
510.50        62.28316
510.94        62.50489
511.38        62.73934
511.82        62.76627
512.26         62.5513
512.70        62.17195
513.14        61.76367
513.58        61.53629
514.02        61.53833
514.46        61.69545
514.90        61.91979
515.34        62.06496
515.78        62.08632
516.22        62.04676
516.66        61.96018
517.10        61.84531
517.54        61.72482
517.98        61.57934
518.42         61.4861
518.86        61.57522
519.30        61.85483
519.74        62.28392
520.18        62.71288
520.62        62.89289
521.06        62.76844
521.50        62.41476
521.93         61.9806
522.37        61.72218
522.81        61.70098
523.25        61.84246
523.69        62.04805
524.13        62.15879
524.57        62.13273
525.01        62.03389
525.45        61.91443
525.89        61.84998
526.32        61.86008
526.76        61.91539
527.20        62.00285
527.64        62.11578
528.08         62.2414
528.52        62.38286
528.96        62.50352
529.40        62.54476
529.83        62.48635
530.27        62.35266
530.71        62.19228
531.15        62.09245
531.59        62.07397
532.03        62.12433
532.46        62.17968
532.90        62.13693
533.34        61.98893
533.78        61.78664
534.22        61.61565
534.66         61.5992
535.09        61.74131
535.53        61.99054
535.97        62.27502
536.41        62.43553
536.85        62.42044
537.28        62.44209
537.72        62.46477
538.16        62.04868
538.60        61.41276
539.04        61.41484
539.47        61.94504
539.91        62.14149
540.35        61.95539
540.79        61.88539
541.22        61.91547
541.66        61.93294
542.10        61.77831
542.54        61.55756
542.97        61.31068
543.41        61.42006
543.85        61.79259
544.29        61.92163
544.72        61.78305
545.16        61.76207
545.60        61.84605
546.04        61.83053
546.47        61.71828
546.91        61.62144
547.35        61.57266
547.79        61.57333
548.22        61.63182
548.66        61.81148
549.10        62.05857
549.53        62.28262
549.97        62.41621
550.41        62.43521
550.84        62.30272
551.28        62.05706
551.72        61.79122
552.15        61.50006
552.59        61.21585
553.03        61.58992
553.46        61.38754
553.90        61.49547
554.34         61.4874
554.77        61.55012
555.21        61.77493
555.65        61.30518
556.08        61.84506
556.52        61.99569
556.96        62.18038
557.39        62.22168
557.83        62.16581
558.27        62.09859
558.70        62.03869
559.14        62.08019
559.57        62.16717
560.01          62.087
560.45        61.87687
560.88        61.84639
561.32        61.98578
561.75        61.96459
562.19        61.85555
562.63         61.7761
563.06        61.76558
563.50        62.14352
563.93        62.71262
564.37        62.55033
564.80        61.81918
565.24        61.78345
565.68        62.34137
566.11        62.40129
566.55        62.15284
566.98        61.87957
567.42        61.74253
567.85        62.01295
568.29         62.2119
568.72        62.33241
569.16        62.31594
569.60         62.3928
570.03        62.51241
570.47        62.69151
570.90        62.95206
571.34        62.50834
571.77        63.19912
572.21        62.93716
572.64        63.01554
573.08         62.5327
573.51        63.26987
573.95        63.05005
574.38        62.68655
574.82        62.10641
