SpectraSmart Spectrum 2.9.0.0
--------- Device Information -----------
Spectrum Name :  反射率_0
Saving Time :  2024/05/03 20:18:13
Spectro-Module Model Name : SE2030-DUVN
Spectro-Module Serial Number : OS361AC55029948
Wavelength Start : 200
Wavelength End : 1025
Wavelength Unit : Wavelength(nm)
Spectrum Unit : Reflectance(%)
-----------Spectrum Setting ------------
Integration Time : 20ms
Average : 10
Boxcar : 0
Background removal :  enabled
linearity correction :  enabled
SC :  disabled
Intensity correction :  disabled
DWT denoise :  enabled
savitzky-golay :  disabled
FFT :  disabled
Running average :  disabled
Kalman :  disabled
High pass :  disabled
---------------BEGIN--------------------
Wavelength(nm)             Reflectance(%)
200.29               0
200.75        38.22343
201.21        30.65957
201.67        510.6866
202.13        55.49722
202.58        43.84229
203.04        37.17776
203.50        33.44674
203.96        34.69635
204.42        43.68826
204.88        80.28511
205.34       -1254.695
205.80       -108.2437
206.26       -120.7435
206.72        -29946.6
207.18        112.1395
207.64        72.96526
208.10        69.95704
208.55        95.86127
209.01        375.7086
209.47        485.4304
209.93        98.74468
210.39        60.63969
210.85        51.01429
211.31        49.33873
211.77        51.68074
212.23        59.95868
212.69        80.20529
213.14        85.52296
213.60        48.67327
214.06        29.78626
214.52        23.30053
214.98        20.99969
215.44        20.34437
215.90        22.35974
216.36       -32.50153
216.81       -2.473246
217.27       -14.90109
217.73       -55.89912
218.19       -291.3082
218.65       -6722.269
219.11        -495.921
219.57       -121.9517
220.02        -57.9015
220.48       -83.46422
220.94        98.87283
221.40        35.30259
221.86        26.35713
222.32        23.22107
222.77        21.43547
223.23        20.13149
223.69        20.22999
224.15        24.68907
224.61         31.8694
225.06         37.5439
225.52        41.04052
225.98        43.19699
226.44        44.74308
226.90        45.50188
227.36        44.91075
227.81         42.1607
228.27        37.86343
228.73        33.77298
229.19         30.5845
229.65        28.31317
230.10        26.78527
230.56        26.02087
231.02        26.17964
231.48        27.60094
231.93         29.9692
232.39        32.93584
232.85        35.77243
233.31        37.45468
233.77        37.84033
234.22        37.26655
234.68        36.34541
235.14        36.11423
235.60        36.94693
236.05        38.67649
236.51        40.94436
236.97         42.9602
237.43        44.27867
237.88        45.26182
238.34        46.23156
238.80        47.70257
239.26         50.2054
239.71        56.15227
240.17        64.44036
240.63        76.89994
241.08        87.93909
241.54        92.34319
242.00        91.83914
242.46         93.1833
242.91        99.50275
243.37        111.0711
243.83        130.7373
244.28        151.4563
244.74        151.5807
245.20        133.0052
245.66         108.555
246.11        87.67278
246.57        72.28849
247.03        60.22775
247.48        51.18767
247.94        44.04875
248.40        37.94257
248.85        32.21689
249.31        28.05261
249.77         27.9417
250.22          31.619
250.68        37.07118
251.14        42.48375
251.59        47.46312
252.05        53.06533
252.51        60.55262
252.96        71.50675
253.42        84.58214
253.88        94.46872
254.33        98.52125
254.79        96.60329
255.25        90.09388
255.70        82.53094
256.16        76.43842
256.62          72.641
257.07        71.65155
257.53        72.87029
257.99        74.75015
258.44        75.81924
258.90        75.12108
259.35        72.47665
259.81        69.40283
260.27        66.29985
260.72        63.60312
261.18        61.78972
261.63        60.31665
262.09         59.3952
262.55        58.84048
263.00        58.42301
263.46        58.16295
263.91        57.80732
264.37        57.33345
264.83        56.64866
265.28        55.78003
265.74        54.74704
266.19        53.28923
266.65        51.57612
267.11        49.64804
267.56        47.80252
268.02        46.54954
268.47        45.88414
268.93        45.67253
269.38        45.56397
269.84        44.97795
270.30         43.8167
270.75        42.28021
271.21        40.75683
271.66           39.68
272.12        39.12994
272.57        38.89832
273.03        38.73392
273.48        38.27497
273.94          37.461
274.39        36.44883
274.85        35.41093
275.31        34.47855
275.76        33.69078
276.22        33.03791
276.67        32.51898
277.13        32.26645
277.58        32.18658
278.04        32.25485
278.49        32.25291
278.95        31.90945
279.40        31.17382
279.86        30.25798
280.31        29.30274
280.77        28.60663
281.22        28.14039
281.68        27.84758
282.13        27.64267
282.59        27.47684
283.04        27.29826
283.50        27.15816
283.95        26.99461
284.41        26.74268
284.86        26.39502
285.32        26.01287
285.77        25.67288
286.22        25.55814
286.68        25.69785
287.13        25.98248
287.59        26.34671
288.04        26.64631
288.50        26.85678
288.95        26.99136
289.41        27.04867
289.86        26.97629
290.32        26.82142
290.77        26.60439
291.22        26.43555
291.68        26.46372
292.13        26.71882
292.59        27.19964
293.04        27.86174
293.50        28.62502
293.95        29.44412
294.40        30.34376
294.86        31.34516
295.31        32.48814
295.77         33.7944
296.22        35.22768
296.68        36.76177
297.13        38.33946
297.58        39.89201
298.04        41.43174
298.49        42.88998
298.95        44.24526
299.40         45.5052
299.85        46.71368
300.31        48.01019
300.76        49.56395
301.21         51.4179
301.67        53.52647
302.12        55.71156
302.58         57.7248
303.03        59.45719
303.48        60.97779
303.94        62.46346
304.39        64.09991
304.84        65.97854
305.30        68.03141
305.75        70.08948
306.20        71.93793
306.66        73.53943
307.11        74.92364
307.57        76.24343
308.02         77.5905
308.47         79.0464
308.93        80.57422
309.38        82.10766
309.83        83.64529
310.29        85.16711
310.74        86.65103
311.19        88.05427
311.65        89.28797
312.10         90.2991
312.55        91.09714
313.00        91.72353
313.46        92.26834
313.91         92.7476
314.36        93.20277
314.82        93.64243
315.27        94.04027
315.72        94.42329
316.18        94.81272
316.63        95.28574
317.08        95.97457
317.53        96.88582
317.99        97.95107
318.44        99.02728
318.89        99.81739
319.35        100.2384
319.80        100.3653
320.25        100.3472
320.70        100.4582
321.16        100.7569
321.61        101.1807
322.06         101.618
322.51        101.8884
322.97        101.9357
323.42        101.8688
323.87        101.7375
324.32        101.6248
324.78        101.5653
325.23         101.575
325.68         101.682
326.13        101.9515
326.59        102.3592
327.04        102.9372
327.49        103.5935
327.94         104.209
328.39        104.7271
328.85        105.1099
329.30        105.4308
329.75        105.6848
330.20        105.8844
330.66        106.0032
331.11        106.0858
331.56         106.087
332.01        106.0328
332.46        105.9619
332.92        105.9364
333.37        106.1721
333.82        106.6672
334.27        107.3754
334.72        108.1897
335.17        108.9224
335.63        109.4668
336.08        109.9081
336.53        110.2365
336.98        110.5083
337.43        110.7528
337.88        110.9515
338.34         111.121
338.79        111.3221
339.24         111.568
339.69        111.8803
340.14        112.2489
340.59        112.6409
341.05        113.0418
341.50        113.4605
341.95        113.9198
342.40        114.4728
342.85        115.1137
343.30          115.81
343.75        116.4629
344.20        116.9223
344.66        117.1778
345.11        117.2602
345.56        117.2919
346.01        117.4563
346.46        117.8048
346.91        118.2871
347.36        118.8336
347.81        119.3306
348.26        119.7391
348.72        120.0969
349.17         120.409
349.62        120.7091
350.07        121.0007
350.52         121.254
350.97        121.4487
351.42        121.5714
351.87        121.6042
352.32        121.5314
352.77        121.3616
353.22        121.1088
353.67        120.7882
354.13        120.4543
354.58        120.0261
355.03        119.4477
355.48        118.7459
355.93        117.9737
356.38        117.2935
356.83        116.9534
357.28        116.9775
357.73        117.2519
358.18        117.5826
358.63        117.6553
359.08        117.3694
359.53        116.8144
359.98        116.0455
360.43         115.168
360.88        114.2396
361.33        113.2236
361.78        112.2222
362.23        111.3885
362.68        110.7458
363.13        110.2891
363.58        109.8421
364.03        109.1096
364.48        108.0507
364.93        106.7579
365.38        105.4968
365.83         104.674
366.28        104.3602
366.73        104.4193
367.18        104.5502
367.63         104.274
368.08        103.4685
368.53        102.2771
368.98        100.9787
369.43         99.9882
369.88        99.40788
370.33         99.1283
370.78        98.91409
371.23        98.38361
371.68        97.45783
372.13        96.27438
372.58        95.13205
373.03        94.46565
373.48        94.34256
373.93         94.5996
374.38        94.89742
374.83        94.69118
375.28        93.84621
375.72        92.52045
376.17        91.09279
376.62        89.97183
377.07        89.26021
377.52        88.83112
377.97        88.51139
378.42        88.03882
378.87        87.35827
379.32        86.57767
379.77        85.85107
380.22        85.36799
380.67        85.14872
381.11        85.13668
381.56        85.12499
382.01        84.85619
382.46        84.27953
382.91        83.48819
383.36        82.69814
383.81        82.21741
384.26        82.09309
384.71        82.22211
385.15        82.37984
385.60         82.2403
386.05        81.71962
386.50        80.92899
386.95        80.07706
387.40        79.47679
387.85        79.19569
388.29        79.09412
388.74        79.07193
389.19        78.80836
389.64        78.25668
390.09        77.52712
390.54        76.80286
390.98        76.32655
391.43        76.18701
391.88        76.31665
392.33        76.56191
392.78        76.48598
393.23        76.11906
393.67        76.01381
394.12        76.13807
394.57        75.68622
395.02        74.80423
395.47        74.40128
395.91        74.49095
396.36        74.35863
396.81        74.02096
397.26        73.90849
397.71        73.93269
398.15        73.83244
398.60        73.69651
399.05        73.26514
399.50        72.71339
399.95        72.99992
400.39        73.89449
400.84        73.51231
401.29        72.08639
401.74        71.86497
402.18        72.72305
402.63        72.56676
403.08        71.55542
403.53        70.83102
403.97        71.45062
404.42        71.76961
404.87        71.95947
405.32        71.87713
405.76        71.81116
406.21        71.62537
406.66        71.40842
407.11        70.92585
407.55        70.37502
408.00        70.22397
408.45        70.45006
408.90        70.79487
409.34        70.98664
409.79        70.47131
410.24        69.51848
410.68        69.14114
411.13        69.41776
411.58        69.78074
412.03        70.00904
412.47        70.00459
412.92        69.67656
413.37        69.08656
413.81          68.466
414.26        68.22349
414.71        68.39223
415.15        68.90526
415.60        69.48195
416.05        69.70992
416.49        69.47067
416.94        68.91614
417.39        68.31625
417.83        68.05607
418.28        68.22445
418.73        68.67812
419.17        69.22891
419.62        69.51189
420.07        69.42741
420.51        69.08105
420.96        68.63709
421.41        68.23619
421.85        67.91216
422.30        67.75347
422.74        67.67731
423.19        67.55455
423.64        67.41531
424.08        67.61104
424.53        68.06438
424.98        68.41659
425.42        68.62428
425.87        68.85013
426.31        69.10543
426.76        69.22243
427.21        69.24413
427.65        69.36318
428.10        69.50761
428.54          69.495
428.99        69.36308
429.44        69.10114
429.88        68.80231
430.33        68.83214
430.77        69.00949
431.22        69.04122
431.66        68.86977
432.11         68.4764
432.56         68.0063
433.00        68.27272
433.45        69.08453
433.89        69.73089
434.34        67.49993
434.78        69.29134
435.23        68.84882
435.67        68.00157
436.12         67.9185
436.57        67.98392
437.01        68.61441
437.46        70.16671
437.90        69.45224
438.35        68.88771
438.79        69.19492
439.24         69.0909
439.68        68.86044
440.13        68.66093
440.57        68.57476
441.02        68.43353
441.46        68.26405
441.91        68.92382
442.35        69.92889
442.80        69.54568
443.24         68.1462
443.69        68.28146
444.13        69.73379
444.58        70.14883
445.02        69.43064
445.47        68.89999
445.91        68.75687
446.36        68.76517
446.80        68.94141
447.24        69.40824
447.69        69.96368
448.13        70.13503
448.58        69.93081
449.02        69.73655
449.47        69.65182
449.91        69.52315
450.36        69.40751
450.80        69.40359
451.25        69.48818
451.69        69.50971
452.13        69.45325
452.58        69.38156
453.02        69.29537
453.47        69.18911
453.91        69.04144
454.36        68.91736
454.80        68.87244
455.24        68.61559
455.69        68.48742
456.13        68.68976
456.58         68.8446
457.02        68.29868
457.46        68.27552
457.91        68.11113
458.35        68.11308
458.79        68.18033
459.24        68.24614
459.68        67.86045
460.13        67.13203
460.57        67.03678
461.01          67.125
461.46        66.71787
461.90        66.84634
462.34        67.13731
462.79        66.32321
463.23        66.22774
463.68        66.36493
464.12        66.41331
464.56        66.30741
465.01        66.30851
465.45        66.35665
465.89        66.33683
466.34        66.06309
466.78        66.30414
467.22        66.88521
467.67        66.63756
468.11        66.10062
468.55        65.85451
468.99        66.06422
469.44        66.05132
469.88        65.82377
470.32        65.76205
470.77        65.83599
471.21        65.84074
471.65        65.74362
472.10        65.60115
472.54          65.452
472.98        65.36517
473.42        65.34593
473.87        65.43796
474.31        65.51117
474.75        65.29762
475.20        64.87285
475.64         64.5769
476.08        64.45779
476.52        64.34202
476.97        64.23576
477.41        64.30276
477.85        64.26389
478.29        64.79016
478.74        64.54796
479.18        64.98716
479.62        65.15695
480.06         65.1903
480.50         64.8569
480.95        64.69873
481.39        64.85951
481.83        63.70909
482.27        64.17623
482.72        64.27171
483.16        64.25342
483.60        64.40036
484.04        64.60291
484.48        64.51483
484.93        64.16791
485.37        64.90192
485.81          65.534
486.25        65.02955
486.69        67.03512
487.14        66.89378
487.58        63.92424
488.02        64.10706
488.46        65.57903
488.90        63.63105
489.34        63.59336
489.79        64.24652
490.23        64.24222
490.67        64.56237
491.11        64.33472
491.55        64.27788
491.99        64.33898
492.43        64.29488
492.88        64.17036
493.32        64.10717
493.76        64.10845
494.20        64.07719
494.64        63.99359
495.08        64.01334
495.52        64.13241
495.96        63.94442
496.41        63.59023
496.85        64.00713
497.29        64.93697
497.73        64.93409
498.17        64.09726
498.61        63.82452
499.05        64.18092
499.49        64.25224
499.93        63.97766
500.37        63.82338
500.82        63.84122
501.26        63.41306
501.70        63.54093
502.14         63.5058
502.58        63.31514
503.02        63.32848
503.46        63.47316
503.90        63.52078
504.34         63.7142
504.78        63.71723
505.22        63.61055
505.66        63.37391
506.10        63.09503
506.54        63.04087
506.98        63.22308
507.42        63.31919
507.86        63.23482
508.30        63.61547
508.74        63.33302
509.18        63.23181
509.62        63.05499
510.06        62.98981
510.50        63.05494
510.94        63.20715
511.38        63.37233
511.82        63.40194
512.26        63.26865
512.70           63.03
513.14        62.76262
513.58        62.58227
514.02        62.51906
514.46        62.52832
514.90        62.58212
515.34        62.63412
515.78        62.66534
516.22         62.7046
516.66        62.72048
517.10        62.65905
517.54        62.52297
517.98        62.32207
518.42        62.15134
518.86        62.16739
519.30        62.39022
519.74        62.76539
520.18        63.15891
520.62        63.34876
521.06        63.28135
521.50        63.03011
521.93        62.70085
522.37        62.47825
522.81        62.40488
523.25        62.43388
523.69        62.53322
524.13        62.60122
524.57        62.60386
525.01        62.77854
525.45        62.74566
525.89         62.7221
526.32        62.60111
526.76        62.40958
527.20        62.23833
527.64        62.24928
528.08        62.46819
528.52        62.83877
528.96        63.22521
529.40        63.41025
529.83        63.33162
530.27        63.06436
530.71        62.72847
531.15        62.52676
531.59        62.51985
532.03         62.6255
532.46         62.7263
532.90        62.74138
533.34        62.66571
533.78         62.1636
534.22         62.0652
534.66        61.96758
535.09        62.09444
535.53        62.36118
535.97        62.67882
536.41         62.8488
536.85        62.80467
537.28         62.7802
537.72        62.75796
538.16        62.32541
538.60        61.70826
539.04        61.75637
539.47        62.34552
539.91        62.57619
540.35         62.3905
540.79        62.32091
541.22        62.36382
541.66        62.32035
542.10        62.20147
542.54        61.96983
542.97        61.71866
543.41        61.83226
543.85        62.21716
544.29        62.37017
544.72        62.24505
545.16         62.1901
545.60        62.18503
546.04        62.07164
546.47        61.81416
546.91          61.682
547.35        61.67977
547.79        61.78703
548.22        61.95368
548.66        62.08672
549.10        62.17473
549.53        62.38118
549.97         62.6432
550.41        62.71915
550.84        62.55489
551.28        62.35339
551.72        62.19501
552.15        61.88906
552.59        61.45004
553.03        61.95347
553.46        61.48136
553.90        61.59385
554.34        61.69694
554.77           61.71
555.21        61.66885
555.65        61.84238
556.08        62.17386
556.52        62.31865
556.96        62.26057
557.39        62.21288
557.83        62.23296
558.27        62.23669
558.70         62.2216
559.14        62.27998
559.57         62.3461
560.01        62.21959
560.45        61.96535
560.88        61.90318
561.32        62.04264
561.75        62.11158
562.19        62.14057
562.63        62.10001
563.06        62.03121
563.50        62.37132
563.93        62.92589
564.37        62.73396
564.80        61.95635
565.24        61.82326
565.68        62.25916
566.11        62.35195
566.55        62.11094
566.98        61.94975
567.42        61.93505
567.85         62.2082
568.29         62.3883
568.72         62.4319
569.16          62.342
569.60        62.34687
570.03        62.41805
570.47        62.59583
570.90        62.83865
571.34        62.33123
571.77        62.97271
572.21        62.45465
572.64        62.74332
573.08        62.67874
573.51        62.86096
573.95         62.8395
574.38        62.88831
574.82        62.31017
