SpectraSmart Spectrum 2.9.0.0
--------- Device Information -----------
Spectrum Name :  反射率_0
Saving Time :  2024/05/03 19:58:12
Spectro-Module Model Name : SE2030-DUVN
Spectro-Module Serial Number : OS361AC55029948
Wavelength Start : 200
Wavelength End : 1025
Wavelength Unit : Wavelength(nm)
Spectrum Unit : Reflectance(%)
-----------Spectrum Setting ------------
Integration Time : 20ms
Average : 10
Boxcar : 0
Background removal :  enabled
linearity correction :  enabled
SC :  disabled
Intensity correction :  disabled
DWT denoise :  enabled
savitzky-golay :  disabled
FFT :  disabled
Running average :  disabled
Kalman :  disabled
High pass :  disabled
---------------BEGIN--------------------
Wavelength(nm)             Reflectance(%)
200.29               0
200.75        9.231433
201.21       -2.618871
201.67        865.5735
202.13        49.37996
202.58        33.22478
203.04         25.8073
203.50        22.49312
203.96        24.90649
204.42        36.38553
204.88        81.57833
205.34       -1562.084
205.80       -151.5607
206.26       -169.9889
206.72       -38863.14
207.18        130.5843
207.64        79.10166
208.10         73.6863
208.55        99.85017
209.01        401.6985
209.47        555.3319
209.93        116.9119
210.39        72.81165
210.85        60.82338
211.31        56.68167
211.77        54.88767
212.23        53.62964
212.69         48.0285
213.14        26.53429
213.60        15.03774
214.06        18.61967
214.52        22.45368
214.98        24.58743
215.44        26.72893
215.90        33.58353
216.36         -95.374
216.81       -23.94088
217.27       -53.29713
217.73       -148.8433
218.19       -689.3564
218.65       -15000.56
219.11       -1057.835
219.57       -246.8308
220.02       -105.4643
220.48       -120.7326
220.94         117.479
221.40        39.21415
221.86        29.60481
222.32        26.98144
222.77        26.15543
223.23        27.04565
223.69        30.16203
224.15        34.46651
224.61        37.25561
225.06        38.00144
225.52        38.64082
225.98        40.83851
226.44        45.02406
226.90          50.961
227.36        57.99097
227.81        62.48112
228.27        61.72763
228.73        57.83884
229.19        52.60706
229.65        47.23531
230.10        42.23864
230.56        37.99737
231.02        34.84931
231.48        33.32822
231.93        33.16506
232.39        33.94756
232.85        35.13912
233.31        36.05903
233.77        36.53294
234.22        36.73174
234.68        36.84109
235.14        37.14031
235.60        37.76583
236.05        38.72253
236.51        39.84149
236.97        40.90379
237.43        41.71338
237.88        42.35383
238.34        43.18338
238.80         44.7491
239.26        47.56142
239.71        54.43341
240.17        63.59711
240.63        73.91982
241.08        77.29173
241.54        70.34002
242.00         60.6498
242.46        57.60421
242.91        63.45314
243.37        80.52299
243.83        112.5113
244.28        142.6438
244.74         134.446
245.20        92.07697
245.66        49.53957
246.11        33.80145
246.57        41.03383
247.03        58.79871
247.48        75.60559
247.94        81.21877
248.40        75.38393
248.85        62.25158
249.31        46.32254
249.77        38.04783
250.22         40.4245
250.68        47.68551
251.14        55.44831
251.59        61.44928
252.05        66.31979
252.51        71.88283
252.96        78.80467
253.42        84.78249
253.88        86.61567
254.33        83.81972
254.79        79.04688
255.25        74.33437
255.70        70.44064
256.16        67.96303
256.62        66.46521
257.07        65.67879
257.53        65.62965
257.99        65.64864
258.44        65.13745
258.90        64.06215
259.35        62.19659
259.81        60.35277
260.27        58.54564
260.72        56.84017
261.18        55.61432
261.63        54.52264
262.09        53.79239
262.55        53.28587
263.00        52.82603
263.46        52.43047
263.91        51.91376
264.37        51.32492
264.83        50.59973
265.28        49.75488
265.74        48.78019
266.19        47.40287
266.65        45.76642
267.11        43.91703
267.56        42.15233
268.02        40.96645
268.47        40.36385
268.93        40.22554
269.38        40.18881
269.84         39.6513
270.30        38.52094
270.75        37.00651
271.21          35.565
271.66        34.74014
272.12        34.62176
272.57        34.97047
273.03        35.40584
273.48        35.35435
273.94        34.68754
274.39         33.6027
274.85         32.4064
275.31        31.43771
275.76        30.76637
276.22        30.31264
276.67        29.93302
277.13        29.55384
277.58        29.07947
278.04        28.57651
278.49        28.01591
278.95        27.43084
279.40        26.82888
279.86        26.27571
280.31         25.7457
280.77        25.31374
281.22        24.92208
281.68        24.59794
282.13        24.30409
282.59        24.05249
283.04        23.82508
283.50         23.6363
283.95         23.4724
284.41        23.33856
284.86        23.22308
285.32        23.15705
285.77        23.11509
286.22        23.11532
286.68        23.16403
287.13         23.2167
287.59        23.31187
288.04        23.46428
288.50        23.68015
288.95        23.92025
289.41        24.12268
289.86        24.14422
290.32        23.99983
290.77         23.7443
291.22         23.5045
291.68        23.44859
292.13        23.61954
292.59        24.00941
293.04        24.57754
293.50        25.25632
293.95        26.00526
294.40        26.84445
294.86        27.80386
295.31        28.93557
295.77        30.25645
296.22        31.72966
296.68        33.28978
297.13        34.81418
297.58        36.23163
298.04         37.5807
298.49        38.86308
298.95         40.1572
299.40        41.48735
299.85        42.85497
300.31        44.34107
300.76        46.02555
301.21         47.9253
301.67        50.02809
302.12        52.17374
302.58        54.13745
303.03        55.83078
303.48        57.31516
303.94        58.79436
304.39        60.50219
304.84        62.52839
305.30        64.78754
305.75        67.06357
306.20        69.06263
306.66        70.72284
307.11        72.09134
307.57        73.35342
308.02         74.6577
308.47        76.09857
308.93        77.62551
309.38        79.14436
309.83        80.60799
310.29        81.99236
310.74        83.29628
311.19        84.52494
311.65        85.66344
312.10        86.67298
312.55        87.53682
313.00        88.24239
313.46        88.79485
313.91        89.19447
314.36        89.51442
314.82        89.80434
315.27        90.10307
315.72        90.45811
316.18        90.86839
316.63        91.39787
317.08         92.1598
317.53        93.14558
317.99        94.28566
318.44         95.4241
318.89        96.24364
319.35        96.65629
319.80        96.74544
320.25        96.65863
320.70        96.66802
321.16        96.84563
321.61        97.13879
322.06        97.48109
322.51        97.76241
322.97        97.93872
323.42        98.09252
323.87        98.22003
324.32         98.3162
324.78        98.38307
325.23        98.44864
325.68        98.55669
326.13        98.80521
326.59        99.18411
327.04        99.71426
327.49        100.3031
327.94        100.8305
328.39        101.2476
328.85        101.5355
329.30        101.7836
329.75        102.0106
330.20        102.2363
330.66        102.4255
331.11        102.6158
331.56         102.753
332.01        102.8509
332.46        102.9454
332.92        103.0708
333.37        103.3956
333.82        103.9112
334.27        104.5824
334.72        105.3427
335.17        106.0781
335.63        106.7024
336.08        107.2756
336.53        107.7606
336.98        108.1632
337.43        108.4951
337.88        108.7607
338.34        108.9678
338.79        109.1635
339.24        109.3663
339.69        109.5935
340.14        109.8909
340.59        110.3181
341.05        110.8736
341.50        111.5415
341.95        112.2496
342.40         112.894
342.85        113.4381
343.30        113.8994
343.75        114.2908
344.20        114.6439
344.66        114.9938
345.11        115.3141
345.56        115.6317
346.01        115.9823
346.46        116.3765
346.91        116.8057
347.36        117.2623
347.81        117.7286
348.26        118.1882
348.72        118.6419
349.17        119.0408
349.62        119.3377
350.07        119.5233
350.52        119.6092
350.97        119.6321
351.42        119.6613
351.87        119.7056
352.32        119.7282
352.77        119.7122
353.22         119.629
353.67        119.4757
354.13        119.3164
354.58         119.072
355.03          118.69
355.48        118.1944
355.93        117.6249
356.38        117.1372
356.83        116.9757
357.28        117.1611
357.73        117.5792
358.18        118.0322
358.63        118.1995
359.08        117.9807
359.53        117.4692
359.98        116.7282
360.43        115.8748
360.88        114.9725
361.33        113.9855
361.78        113.0169
362.23        112.2186
362.68        111.6145
363.13        111.2013
363.58        110.8011
364.03        110.1165
364.48        109.1016
364.93        107.8417
365.38        106.6044
365.83        105.8011
366.28         105.503
366.73        105.5785
367.18        105.7088
367.63        105.3832
368.08        104.4851
368.53        103.1774
368.98        101.7888
369.43          100.81
369.88        100.3544
370.33        100.2807
370.78        100.3061
371.23        99.96558
371.68        99.14272
372.13        97.99158
372.58        96.81207
373.03        96.04543
373.48         95.7733
373.93         95.8367
374.38        95.93508
374.83        95.59167
375.28        94.69596
375.72        93.39737
376.17        92.04834
376.62        91.00999
377.07        90.36868
377.52        90.00486
377.97         89.7515
378.42        89.35582
378.87        88.76053
379.32         88.0634
379.77        87.40182
380.22        86.94862
380.67        86.72168
381.11        86.66595
381.56        86.60052
382.01        86.31267
382.46         85.7619
382.91        85.03432
383.36        84.29903
383.81        83.79227
384.26         83.5536
384.71        83.50438
385.15        83.49139
385.60        83.30309
386.05        82.87598
386.50        82.28066
386.95        81.64387
387.40        81.15173
387.85        80.85047
388.29        80.65044
388.74        80.51193
389.19        80.19986
389.64        79.67746
390.09        79.00829
390.54        78.36458
390.98        77.94208
391.43        77.81537
391.88        78.03353
392.33        78.37416
392.78        78.11746
393.23        77.41917
393.67        77.22076
394.12        77.49552
394.57        77.28378
395.02        76.62549
395.47        76.20905
395.91        76.09976
396.36        75.93715
396.81        75.76173
397.26        75.77963
397.71        75.83199
398.15        75.68282
398.60        75.41373
399.05        74.71272
399.50        73.88714
399.95        74.11877
400.39        75.13491
400.84         74.9744
401.29        73.74904
401.74        73.23988
402.18        73.51993
402.63         73.5666
403.08        73.40683
403.53        72.98341
403.97        73.31916
404.42        73.38548
404.87        73.45643
405.32        73.42371
405.76        73.24899
406.21        73.16493
406.66        73.09887
407.11        72.55425
407.55        71.75815
408.00         71.6423
408.45        72.13099
408.90        72.27647
409.34        71.92615
409.79        71.39648
410.24         70.8683
410.68        70.58789
411.13        70.60942
411.58        70.77113
412.03        70.92673
412.47        70.92694
412.92        70.69675
413.37        70.28434
413.81        69.86552
414.26        69.78273
414.71        70.04877
415.15        70.61401
415.60        71.18013
416.05        71.31326
416.49        70.91006
416.94        70.14246
417.39         69.3505
417.83        69.02052
418.28        69.25911
418.73        69.89327
419.17        70.68385
419.62        71.16737
420.07        71.19839
420.51        70.90001
420.96        70.44123
421.41        69.96747
421.85        69.53109
422.30        69.24228
422.74        69.03384
423.19        68.78645
423.64        68.53738
424.08        68.66077
424.53        69.10525
424.98        69.47147
425.42        69.69711
425.87        70.11478
426.31        70.63507
426.76        70.54038
427.21        70.02277
427.65        70.20641
428.10        70.92567
428.54        71.07828
428.99        70.69318
429.44        70.20788
429.88         69.7931
430.33          69.966
430.77        70.45064
431.22        70.37598
431.66        69.80008
432.11        69.57116
432.56         69.6951
433.00        70.04762
433.45         70.4161
433.89        70.66434
434.34         67.7999
434.78        70.49179
435.23        70.32319
435.67        69.55418
436.12        68.27104
436.57        68.35329
437.01        70.14981
437.46        70.88866
437.90        70.47989
438.35        70.38255
438.79        70.62399
439.24        70.55566
439.68        70.18683
440.13        70.01078
440.57        70.05906
441.02        69.73736
441.46        69.18184
441.91        69.72071
442.35        70.86752
442.80        70.63696
443.24        69.34714
443.69        69.52233
444.13        70.95155
444.58        71.39145
445.02        70.74687
445.47        70.23706
445.91        70.04923
446.36        70.01116
446.80        70.14966
447.24        70.51385
447.69        70.93739
448.13        71.15285
448.58        71.10874
449.02        70.85045
449.47        70.52785
449.91        70.35479
450.36        70.37405
450.80        70.51065
451.25        70.68034
451.69        70.73382
452.13        70.64167
452.58        70.46413
453.02        70.24883
453.47         70.0956
453.91        70.02367
454.36        70.00159
454.80        69.98112
455.24        69.97932
455.69        70.01275
456.13        69.92517
456.58         69.7207
457.02        70.02931
457.46        69.81264
457.91        69.75542
458.35         69.5376
458.79        69.55593
459.24        69.71685
459.68        69.43372
460.13        68.84678
460.57        68.55058
461.01         68.6351
461.46        68.39922
461.90        68.35391
462.34        68.38411
462.79        67.83105
463.23        67.69106
463.68        67.71642
464.12        67.64629
464.56        67.45779
465.01        67.44948
465.45        67.52457
465.89        67.42035
466.34        67.22971
466.78        67.29648
467.22        67.60867
467.67        67.75421
468.11         67.7171
468.55        67.61385
468.99        67.49297
469.44         67.3916
469.88        67.33616
470.32        67.28104
470.77         67.2244
471.21        67.20767
471.65        67.21179
472.10        67.22589
472.54        67.20832
472.98        67.11179
473.42        66.93139
473.87        66.74255
474.31        66.52232
474.75        66.22346
475.20        65.88605
475.64        65.69635
476.08        65.73038
476.52        65.65122
476.97        65.37027
477.41        66.16796
477.85        66.19364
478.29        66.15127
478.74        66.02995
479.18        66.41858
479.62        66.57758
480.06        66.63895
480.50        66.33646
480.95        66.15123
481.39        66.14602
481.83        65.46832
482.27        65.65019
482.72        65.56888
483.16        65.61461
483.60        65.62993
484.04        65.87788
484.48        65.76046
484.93        65.37312
485.37        66.17482
485.81        67.44543
486.25        66.41957
486.69        67.58316
487.14        67.84609
487.58        65.92265
488.02        65.52473
488.46        66.23392
488.90        64.88982
489.34        65.65154
489.79        65.56473
490.23         65.5538
490.67        65.82736
491.11        66.18636
491.55        66.08741
491.99         65.5787
492.43        65.34067
492.88         65.4202
493.32        65.52091
493.76        65.56589
494.20        65.53229
494.64        65.38478
495.08        65.26525
495.52        65.22951
495.96        64.98448
496.41        64.67886
496.85         65.1714
497.29        66.17645
497.73        66.23231
498.17         65.4286
498.61        65.19342
499.05        65.55614
499.49        65.56056
499.93        65.18712
500.37        64.88115
500.82        64.69785
501.26        64.60749
501.70        64.61462
502.14        64.69825
502.58        64.78748
503.02        64.86935
503.46        64.91269
503.90        64.91486
504.34         64.8764
504.78         64.8167
505.22        64.74517
505.66        64.64139
506.10        64.52142
506.54        64.48094
506.98        64.53934
507.42        64.56021
507.86        64.46371
508.30        64.76245
508.74        64.37203
509.18        64.18568
509.62        63.97431
510.06        63.91162
510.50        64.01882
510.94         64.2598
511.38        64.53282
511.82        64.64217
512.26        64.54486
512.70        64.29982
513.14        64.01146
513.58        63.84461
514.02        63.83746
514.46        63.93115
514.90        64.05328
515.34         64.0864
515.78        64.00206
516.22        63.85862
516.66        63.68986
517.10        63.54241
517.54        63.44131
517.98        63.36414
518.42        63.34974
518.86         63.4638
519.30        63.70123
519.74        64.03632
520.18        64.36475
520.62        64.51488
521.06        64.44673
521.50        64.20689
521.93        63.89493
522.37          63.692
522.81        63.64002
523.25        63.68957
523.69        63.77688
524.13        63.79617
524.57        63.72425
525.01        63.61316
525.45        63.49783
525.89        63.42723
526.32        63.41375
526.76        63.43637
527.20        63.50282
527.64        63.63686
528.08        63.82733
528.52        64.06322
528.96        64.27029
529.40        64.33199
529.83        64.21872
530.27        63.97779
530.71        63.70027
531.15         63.5392
531.59        63.53163
532.03        63.64372
532.46        63.78627
532.90        63.81347
533.34        63.70262
533.78        63.51857
534.22        63.35039
534.66        63.32615
535.09        63.45338
535.53        63.67546
535.97        63.93018
536.41        64.07656
536.85        64.06467
537.28         64.1063
537.72        64.14983
538.16        63.71638
538.60        63.02853
539.04        62.98463
539.47        63.48317
539.91        63.64714
540.35        63.43191
540.79        63.36118
541.22        63.43938
541.66        63.47727
542.10         63.4775
542.54        63.39495
542.97        63.27353
543.41         63.4314
543.85        63.76076
544.29        63.75893
544.72         63.4477
545.16        63.30515
545.60         63.3395
546.04        63.30608
546.47        63.18526
546.91        63.09202
547.35        63.03585
547.79        62.94662
548.22        62.86397
548.66         63.0017
549.10        63.29118
549.53        63.48442
549.97        63.54163
550.41        63.55331
550.84        63.49514
551.28         63.3888
551.72        63.28819
552.15        62.80637
552.59        62.84392
553.03         62.6771
553.46        62.57312
553.90        62.61731
554.34        62.77961
554.77        62.96135
555.21        63.11202
555.65        63.22359
556.08        63.26621
556.52        63.23231
556.96        63.14011
557.39        63.07478
557.83        63.07437
558.27        63.03255
558.70        62.96268
559.14        63.05377
559.57        63.23571
560.01        63.20635
560.45        63.00529
560.88        63.00557
561.32        63.19103
561.75        63.17925
562.19        63.04177
562.63         62.9232
563.06        62.87156
563.50         63.2007
563.93        63.71421
564.37        63.52333
564.80         62.7818
565.24        62.67706
565.68        63.12444
566.11        63.21873
566.55        62.96516
566.98        62.77044
567.42        62.70284
567.85        62.94759
568.29        63.03286
568.72        63.08979
569.16         63.0741
569.60        63.09742
570.03        63.11967
570.47        63.27346
570.90        63.58006
571.34        62.93131
571.77        63.99411
572.21         63.4599
572.64        63.54159
573.08        63.47055
573.51        63.69347
573.95        63.63319
574.38        63.64725
574.82        62.57602
