SpectraSmart Spectrum 2.9.0.0
--------- Device Information -----------
Spectrum Name :  反射率_0
Saving Time :  2024/05/03 20:28:44
Spectro-Module Model Name : SE2030-DUVN
Spectro-Module Serial Number : OS361AC55029948
Wavelength Start : 200
Wavelength End : 1025
Wavelength Unit : Wavelength(nm)
Spectrum Unit : Reflectance(%)
-----------Spectrum Setting ------------
Integration Time : 20ms
Average : 10
Boxcar : 0
Background removal :  enabled
linearity correction :  enabled
SC :  disabled
Intensity correction :  disabled
DWT denoise :  enabled
savitzky-golay :  disabled
FFT :  disabled
Running average :  disabled
Kalman :  disabled
High pass :  disabled
---------------BEGIN--------------------
Wavelength(nm)             Reflectance(%)
200.29               0
200.75       -4.461124
201.21        1.689693
201.67       -31.48779
202.13        15.80882
202.58         26.4665
203.04        37.84959
203.50        48.86818
203.96        59.39447
204.42        73.98822
204.88        119.8268
205.34       -1443.682
205.80       -93.10242
206.26       -92.24501
206.72       -23866.36
207.18        100.0368
207.64        73.19028
208.10        80.06293
208.55        135.7343
209.01        699.1379
209.47        939.6288
209.93        153.5144
210.39        73.98518
210.85        53.01976
211.31        48.33451
211.77        51.38251
212.23        64.91695
212.69         100.462
213.14        115.4289
213.60        57.96691
214.06        25.94455
214.52        14.65541
214.98        11.72333
215.44        13.44742
215.90        25.81803
216.36       -172.8218
216.81       -40.07711
217.27       -48.89745
217.73       -98.63261
218.19       -383.5132
218.65       -7332.705
219.11       -447.5587
219.57       -79.39165
220.02       -19.63034
220.48       -37.94384
220.94        107.1196
221.40         56.8082
221.86        50.91819
222.32        51.26325
222.77        54.69177
223.23        62.27733
223.69        73.25877
224.15        76.24841
224.61        65.68509
225.06        51.43024
225.52        42.20015
225.98        40.25195
226.44        44.25077
226.90        53.53796
227.36        66.33628
227.81        74.46765
228.27        72.94575
228.73         65.9401
229.19        58.28664
229.65        53.72283
230.10         51.9854
230.56        51.80099
231.02        52.12162
231.48        52.21122
231.93        51.93795
232.39        51.75301
232.85        51.79615
233.31            52.3
233.77         53.2737
234.22        54.51561
234.68        55.88035
235.14        57.12398
235.60        58.17248
236.05        59.26645
236.51        60.13582
236.97        60.49504
237.43        60.31219
237.88        59.73302
238.34        59.51738
238.80        60.73973
239.26        64.06614
239.71        72.15962
240.17        84.56269
240.63        98.67376
241.08         104.839
241.54         98.4542
242.00        87.95208
242.46        84.83897
242.91        92.06892
243.37        111.1563
243.83        147.2175
244.28        185.9837
244.74        187.6741
245.20        153.7274
245.66        110.3067
246.11        79.56967
246.57        63.00998
247.03        53.89313
247.48        49.40286
247.94        46.51511
248.40         44.2684
248.85        43.40193
249.31        44.75674
249.77        48.51808
250.22        53.36345
250.68        57.82466
251.14         62.2319
251.59         68.5696
252.05        78.36933
252.51        93.31007
252.96        113.5944
253.42        129.0039
253.88        129.1732
254.33        118.0151
254.79          104.34
255.25        94.41455
255.70        88.73542
256.16        85.98302
256.62        85.34659
257.07        86.60802
257.53        89.35385
257.99        92.31682
258.44          93.893
258.90        93.02444
259.35        89.62617
259.81        85.59068
260.27        81.48005
260.72        77.92622
261.18        75.52814
261.63        73.57362
262.09        72.39017
262.55        71.80163
263.00        71.50443
263.46        71.52272
263.91        71.38207
264.37        70.81713
264.83        69.73412
265.28        68.28015
265.74        66.73396
266.19        65.11878
266.65        63.63366
267.11         62.1428
267.56        60.76401
268.02        59.79395
268.47        59.15496
268.93        58.80504
269.38        58.40677
269.84         57.4056
270.30         55.7779
270.75        53.75713
271.21        51.84767
271.66        50.62695
272.12        50.18584
272.57        50.22938
273.03        50.45272
273.48        50.38017
273.94        49.88353
274.39        49.14218
274.85        48.18819
275.31        46.93855
275.76        45.46625
276.22        43.88992
276.67        42.51522
277.13        41.92065
277.58        42.02304
278.04        42.64824
278.49        43.24503
278.95        43.01382
279.40        41.79557
279.86        40.04688
280.31        38.18241
280.77         36.8666
281.22        36.11167
281.68        35.75586
282.13        35.57595
282.59         35.3498
283.04        34.98078
283.50        34.59811
283.95        34.22978
284.41        33.95062
284.86        33.75207
285.32        33.62423
285.77        33.52283
286.22        33.47301
286.68        33.47589
287.13        33.47779
287.59        33.50203
288.04        33.50962
288.50        33.51808
288.95        33.51053
289.41        33.47073
289.86        33.31662
290.32        33.09015
290.77        32.81726
291.22        32.62489
291.68        32.67572
292.13        32.99504
292.59        33.58036
293.04        34.34468
293.50        35.14478
293.95        35.92522
294.40        36.72569
294.86        37.64379
295.31        38.83152
295.77        40.32228
296.22        42.03271
296.68        43.83562
297.13        45.50634
297.58        46.93718
298.04        48.21275
298.49        49.34336
298.95        50.43256
299.40        51.52358
299.85        52.62408
300.31        53.87458
300.76        55.44199
301.21        57.35322
301.67        59.56298
302.12        61.83557
302.58        63.83467
303.03        65.43816
303.48        66.75167
303.94        68.01489
304.39        69.49888
304.84         71.3166
305.30        73.36491
305.75        75.45182
306.20        77.33227
306.66        78.95042
307.11         80.3385
307.57        81.62269
308.02        82.84442
308.47        84.08493
308.93        85.32102
309.38        86.53282
309.83        87.79906
310.29        89.11889
310.74        90.45303
311.19        91.72063
311.65        92.76656
312.10        93.53069
312.55        94.05824
313.00        94.43287
313.46        94.80598
313.91        95.20209
314.36         95.6278
314.82        96.07285
315.27        96.48383
315.72        96.86871
316.18        97.25659
316.63        97.68472
317.08        98.22302
317.53        98.87691
317.99        99.59931
318.44         100.332
318.89        100.9209
319.35        101.3191
319.80        101.5617
320.25         101.717
320.70        101.9241
321.16        102.2012
321.61        102.5219
322.06        102.8187
322.51        102.9862
322.97        102.9951
323.42        102.9312
323.87        102.8201
324.32        102.7107
324.78        102.6273
325.23        102.5983
325.68        102.6772
326.13        102.9678
326.59        103.4481
327.04          104.13
327.49        104.8771
327.94         105.499
328.39        105.9234
328.85        106.1411
329.30        106.2642
329.75        106.3528
330.20        106.4493
330.66        106.5116
331.11        106.5979
331.56        106.6786
332.01        106.7731
332.46        106.9192
332.92        107.1192
333.37         107.488
333.82        107.9941
334.27        108.6002
334.72        109.2703
335.17        109.9492
335.63        110.5612
336.08        111.1556
336.53         111.634
336.98        111.9029
337.43        111.9672
337.88        111.8809
338.34         111.756
338.79        111.8021
339.24        112.0775
339.69         112.545
340.14        113.1713
340.59        113.8848
341.05        114.6316
341.50        115.4238
341.95        116.1945
342.40        116.8568
342.85        117.3831
343.30        117.7724
343.75        118.0617
344.20        118.3288
344.66        118.6253
345.11        118.9326
345.56        119.2426
346.01        119.5301
346.46        119.7954
346.91        120.0417
347.36        120.3364
347.81        120.7757
348.26        121.3638
348.72        122.0802
349.17        122.7463
349.62        123.1121
350.07        123.1317
350.52        122.8649
350.97        122.5414
351.42        122.5385
351.87        122.9117
352.32        123.5164
352.77        124.0757
353.22        124.1498
353.67        123.6523
354.13        122.7941
354.58        121.7535
355.03        120.8754
355.48        120.2864
355.93        119.9055
356.38        119.7168
356.83        119.6959
357.28        119.7879
357.73         119.967
358.18        120.1432
358.63        120.1629
359.08        119.9667
359.53        119.5753
359.98        118.9624
360.43        118.1177
360.88         117.076
361.33        115.8582
361.78         114.635
362.23        113.6534
362.68          112.97
363.13        112.5546
363.58        112.2058
364.03        111.5887
364.48        110.6409
364.93        109.4566
365.38        108.3078
365.83        107.6112
366.28        107.4346
366.73        107.6351
367.18        107.8693
367.63        107.5953
368.08        106.6855
368.53        105.3044
368.98        103.8154
369.43         102.762
369.88        102.2724
370.33        102.2067
370.78        102.2331
371.23        101.7995
371.68        100.7857
372.13        99.38542
372.58        98.00423
373.03        97.24335
373.48        97.20806
373.93         97.6776
374.38        98.23188
374.83        98.18949
375.28        97.37316
375.72        95.98997
376.17        94.46284
376.62        93.25928
377.07        92.50121
377.52        92.03292
377.97        91.69163
378.42        91.23578
378.87        90.60702
379.32        89.91479
379.77        89.26087
380.22        88.75576
380.67        88.40752
381.11        88.17288
381.56        87.92371
382.01         87.5445
382.46        87.01905
382.91        86.40546
383.36        85.80274
383.81        85.34246
384.26        85.04421
384.71        84.86106
385.15        84.70782
385.60         84.4831
386.05        84.14356
386.50        83.71396
386.95        83.24907
387.40        82.82951
387.85        82.47932
388.29        82.14893
388.74        81.84999
389.19        81.41385
389.64        80.82315
390.09        80.12327
390.54        79.46952
390.98        79.02962
391.43        78.87284
391.88        79.06548
392.33         79.3981
392.78        79.15403
393.23        78.48706
393.67        78.35803
394.12        78.72489
394.57        78.53648
395.02        77.85503
395.47         77.5177
395.91        77.54706
396.36        77.39084
396.81        77.07547
397.26         76.9041
397.71         76.8038
398.15        76.59949
398.60        76.37994
399.05        75.89435
399.50        75.33854
399.95        75.53059
400.39        76.26808
400.84        76.13347
401.29        75.21027
401.74        74.75134
402.18        74.82153
402.63        74.75122
403.08        74.60903
403.53        74.17608
403.97        74.50376
404.42        74.63298
404.87         74.7624
405.32        74.68853
405.76        74.38039
406.21        73.93316
406.66        73.43671
407.11        73.08708
407.55        72.96256
408.00        72.90007
408.45        72.86295
408.90        73.01596
409.34        73.17601
409.79        72.76224
410.24        71.96043
410.68        71.55225
411.13        71.60551
411.58        71.71649
412.03         71.7591
412.47        71.71363
412.92        71.51572
413.37        71.18911
413.81        70.85895
414.26        70.78686
414.71        70.97112
415.15        71.38614
415.60        71.78255
416.05         71.8191
416.49        71.41907
416.94        70.72361
417.39        70.01723
417.83        69.69971
418.28        69.86362
418.73        70.37769
419.17        71.03637
419.62        71.43163
420.07        71.43731
420.51        71.14644
420.96        70.74581
421.41        70.38555
421.85        70.09182
422.30        70.03371
422.74        70.05432
423.19        69.72169
423.64        69.15209
424.08        69.18544
424.53        69.74884
424.98        70.06103
425.42        70.06461
425.87        70.21128
426.31        70.50674
426.76        70.60582
427.21        70.57571
427.65        70.72028
428.10        70.92024
428.54        71.11349
428.99        70.90338
429.44        70.61172
429.88        70.23608
430.33        70.44507
430.77        70.94502
431.22        70.83018
431.66        70.17722
432.11        69.87026
432.56        69.97417
433.00        70.32735
433.45        70.70521
433.89         71.2179
434.34        68.76819
434.78        71.04282
435.23        70.86213
435.67        69.96929
436.12         69.3297
436.57        69.22294
437.01        70.28092
437.46        70.69683
437.90        70.47158
438.35        70.27982
438.79        70.58551
439.24        70.50877
439.68        70.19257
440.13        69.98847
440.57        69.96793
441.02        69.80116
441.46        69.51447
441.91         69.9607
442.35        70.73656
442.80        70.35284
443.24        69.12967
443.69        69.28042
444.13        70.60461
444.58         71.0381
445.02        70.48698
445.47        70.10206
445.91        70.02777
446.36         70.0426
446.80         70.1591
447.24        70.44064
447.69         70.7589
448.13        70.90678
448.58        70.84827
449.02        70.61507
449.47        70.32545
449.91        70.12556
450.36        70.07609
450.80        70.10344
451.25        70.16089
451.69        70.14247
452.13        70.03027
452.58        69.86695
453.02        69.68411
453.47        69.55595
453.91         69.4888
454.36        69.46732
454.80        69.46124
455.24        69.41638
455.69        69.33281
456.13        69.24277
456.58        69.20534
457.02        69.00581
457.46        69.10856
457.91        68.98084
458.35         68.7379
458.79        68.70947
459.24        68.81969
459.68        68.47004
460.13        67.78979
460.57        67.47694
461.01        67.64215
461.46        67.28088
461.90        67.25103
462.34        67.52555
462.79        67.12943
463.23        67.03693
463.68         66.9258
464.12        66.87215
464.56        66.85367
465.01        66.93661
465.45        67.05222
465.89        67.03431
466.34        66.88234
466.78        66.92426
467.22        67.25286
467.67        66.51433
468.11        66.81802
468.55        66.64963
468.99        66.61217
469.44        66.49766
469.88        66.32484
470.32        66.15714
470.77         66.0078
471.21        65.93877
471.65        65.93629
472.10        65.98044
472.54        66.03208
472.98        66.01164
473.42        65.89328
473.87        65.85477
474.31        65.81758
474.75         65.4091
475.20        64.81546
475.64        64.74401
476.08        65.14101
476.52        65.24291
476.97        64.99128
477.41        64.97861
477.85        65.13531
478.29        65.00861
478.74        65.21407
479.18        65.48263
479.62        65.57471
480.06        65.60166
480.50        65.37577
480.95        65.30943
481.39        65.48356
481.83        64.53855
482.27        64.66351
482.72        65.02139
483.16         64.6699
483.60        64.82033
484.04         65.1157
484.48        64.89629
484.93        64.17794
485.37        65.70463
485.81        66.14062
486.25        65.75758
486.69        68.52895
487.14        68.15102
487.58        64.45262
488.02        64.69241
488.46        66.07945
488.90        64.26413
489.34        64.81062
489.79        64.77615
490.23        64.59916
490.67        64.86541
491.11        65.08852
491.55        65.07425
491.99        64.79377
492.43        64.67017
492.88        64.73672
493.32        64.81833
493.76        64.85184
494.20        64.80634
494.64        64.66505
495.08        64.49531
495.52        64.36663
495.96        64.23116
496.41        64.15048
496.85        64.45934
497.29        64.99201
497.73         65.0076
498.17        64.56312
498.61         64.4808
499.05        64.74841
499.49        64.68109
499.93        64.31219
500.37        64.13174
500.82        64.15858
501.26        64.16517
501.70        64.14025
502.14        64.19041
502.58         64.2795
503.02        64.30471
503.46         64.2494
503.90        64.13644
504.34        64.00139
504.78        63.90138
505.22        63.83564
505.66        63.84314
506.10        63.90773
506.54        63.87028
506.98        63.68671
507.42        64.14651
507.86        63.49515
508.30        64.04605
508.74        63.61927
509.18        63.60757
509.62        63.53268
510.06        63.51291
510.50         63.5605
510.94        63.65079
511.38         63.7485
511.82        63.74553
512.26        63.62714
512.70        63.43372
513.14        63.21198
513.58         63.0351
514.02        62.92503
514.46        62.85298
514.90        62.82362
515.34        62.84277
515.78        62.90286
516.22        63.01309
516.66        63.11171
517.10         63.0975
517.54        62.95996
517.98        62.72547
518.42        62.50438
518.86        62.47689
519.30        62.67361
519.74        63.03377
520.18        63.42537
520.62        63.63076
521.06        63.59398
521.50        63.38487
521.93        63.10213
522.37        62.92052
522.81        62.88297
523.25        62.93141
523.69        63.02247
524.13        63.08826
524.57        63.10695
525.01        63.11727
525.45        63.11125
525.89        63.06841
526.32        62.99078
526.76        62.88506
527.20         62.8077
527.64        62.85877
528.08         63.0483
528.52        63.34141
528.96        63.63874
529.40        63.78273
529.83        63.72532
530.27         63.5225
530.71        63.26421
531.15        63.10072
531.59        63.07226
532.03        63.14723
532.46        63.23986
532.90        63.21408
533.34        63.05399
533.78        62.82327
534.22        62.62818
534.66        62.61985
535.09        62.80569
535.53        63.12304
535.97        63.47305
536.41         63.6534
536.85        63.60392
537.28        63.55547
537.72        63.50222
538.16         63.0461
538.60        62.42089
539.04         62.4827
539.47        63.09914
539.91        63.34838
540.35        63.16763
540.79        63.09862
541.22        63.14294
541.66        63.10591
542.10        63.00159
542.54        62.79278
542.97         62.5627
543.41        62.68618
543.85        63.06436
544.29        63.18162
544.72        63.01807
545.16        62.96924
545.60        63.02257
546.04        62.99359
546.47        62.87614
546.91        62.71319
547.35        62.56534
547.79        62.56923
548.22        62.71804
548.66        62.93282
549.10        63.16082
549.53        63.41565
549.97        63.62172
550.41        63.68517
550.84        63.57935
551.28        63.32092
551.72        62.98826
552.15        62.72241
552.59        62.59785
553.03         62.5575
553.46        62.56266
553.90        62.63065
554.34        62.71303
554.77        62.74528
555.21        62.76229
555.65        62.87086
556.08        63.06301
556.52        63.28472
556.96        63.45706
557.39        63.52073
557.83        63.47962
558.27        63.27124
558.70        62.98961
559.14        62.93953
559.57        63.08397
560.01        63.12601
560.45        63.04134
560.88         63.0118
561.32        63.04759
561.75        63.01838
562.19        62.99493
562.63        62.90535
563.06        62.81192
563.50        63.21852
563.93        63.90104
564.37        63.77917
564.80        63.00596
565.24        62.90432
565.68        63.40124
566.11         63.5088
566.55        63.23299
566.98        63.07633
567.42        63.06495
567.85        63.20928
568.29        63.09428
568.72        63.08958
569.16        63.15937
569.60        63.36834
570.03        63.38786
570.47        63.72414
570.90        64.30212
571.34        63.63361
571.77        64.80791
572.21        64.19929
572.64         64.5016
573.08        63.98013
573.51        64.30544
573.95        64.32338
574.38        64.30505
574.82        64.01319
