SpectraSmart Spectrum 2.9.0.0
--------- Device Information -----------
Spectrum Name :  反射率_0
Saving Time :  2024/05/03 20:00:14
Spectro-Module Model Name : SE2030-DUVN
Spectro-Module Serial Number : OS361AC55029948
Wavelength Start : 200
Wavelength End : 1025
Wavelength Unit : Wavelength(nm)
Spectrum Unit : Reflectance(%)
-----------Spectrum Setting ------------
Integration Time : 20ms
Average : 10
Boxcar : 0
Background removal :  enabled
linearity correction :  enabled
SC :  disabled
Intensity correction :  disabled
DWT denoise :  enabled
savitzky-golay :  disabled
FFT :  disabled
Running average :  disabled
Kalman :  disabled
High pass :  disabled
---------------BEGIN--------------------
Wavelength(nm)             Reflectance(%)
200.29               0
200.75       -22.15915
201.21        -56.4593
201.67        2307.555
202.13        95.05018
202.58        59.07198
203.04        46.00202
203.50        41.45868
203.96         45.8506
204.42        63.99318
204.88        136.4948
205.34       -2476.277
205.80       -225.1816
206.26       -233.0345
206.72       -47745.26
207.18        143.1583
207.64         80.8503
208.10        75.26302
208.55        112.9495
209.01        549.2148
209.47        785.3799
209.93        145.5801
210.39        80.59298
210.85        64.22864
211.31        62.36211
211.77        69.10954
212.23        90.04102
212.69        147.1002
213.14        195.3341
213.60        127.1024
214.06        78.55907
214.52        60.26592
214.98        58.53076
215.44        71.31288
215.90        132.3984
216.36       -746.9667
216.81       -131.6861
217.27       -126.5289
217.73       -211.7383
218.19       -756.3227
218.65       -15157.64
219.11       -1109.138
219.57       -302.5717
220.02       -174.5176
220.48       -265.3307
220.94        257.2503
221.40        68.32554
221.86        41.82827
222.32        36.43071
222.77         38.9445
223.23        48.61777
223.69         65.6874
224.15         76.9446
224.61         71.2056
225.06        58.18267
225.52        48.72864
225.98         46.9433
226.44        51.62971
226.90        61.12144
227.36        72.95329
227.81          78.189
228.27        72.28481
228.73        61.04957
229.19        49.49733
229.65        40.85274
230.10        35.17072
230.56        31.47991
231.02        29.45307
231.48        29.07726
231.93        29.91083
232.39        31.68419
232.85        33.77955
233.31        35.33146
233.77        36.16107
234.22        36.46154
234.68        36.53754
235.14        36.93621
235.60        37.85666
236.05        39.19531
236.51         40.7473
236.97        42.16155
237.43        43.18097
237.88        44.02802
238.34        44.91014
238.80        46.12933
239.26        48.07975
239.71         53.1931
240.17        59.82739
240.63        69.57757
241.08        77.33311
241.54         78.8866
242.00        76.90219
242.46        77.73769
242.91        83.99778
243.37        96.88341
243.83        118.4442
244.28        135.8808
244.74        123.7426
245.20        88.69284
245.66        55.36795
246.11        40.49009
246.57        41.39218
247.03        50.21075
247.48        60.15941
247.94        65.13794
248.40        64.78023
248.85        61.46334
249.31        56.67355
249.77        53.24175
250.22        52.60786
250.68         53.4924
251.14        55.55356
251.59        59.45261
252.05        66.09595
252.51        77.18868
252.96        93.57726
253.42         108.759
253.88        113.7827
254.33        108.5033
254.79        98.79204
255.25        89.80049
255.70        83.03846
256.16        78.72812
256.62        75.71169
257.07         73.2185
257.53        71.32172
257.99        69.42629
258.44        67.46814
258.90        66.06801
259.35        64.75394
259.81        63.83957
260.27         62.6842
260.72        60.71379
261.18        58.48928
261.63        56.07199
262.09        54.11176
262.55        52.84447
263.00        52.08793
263.46        51.69648
263.91        51.28589
264.37        50.64423
264.83        49.68557
265.28         48.5316
265.74        47.35201
266.19        46.11271
266.65        44.93366
267.11        43.71356
267.56        42.53588
268.02        41.60964
268.47        40.88944
268.93        40.36399
269.38        39.79404
269.84        38.79471
270.30        37.37393
270.75        35.69461
271.21        34.19493
271.66        33.38983
272.12        33.33656
272.57        33.79239
273.03        34.35275
273.48        34.39132
273.94         33.7572
274.39        32.66642
274.85        31.38299
275.31        30.19662
275.76        29.21145
276.22        28.39162
276.67        27.72838
277.13        27.31525
277.58        27.06882
278.04        26.98842
278.49        26.91018
278.95        26.63312
279.40        26.09901
279.86        25.44514
280.31         24.7497
280.77        24.22051
281.22        23.82722
281.68        23.54983
282.13        23.30786
282.59        23.04854
283.04        22.74936
283.50        22.46536
283.95        22.22413
284.41        22.07984
284.86        22.03222
285.32        22.08634
285.77        22.19961
286.22        22.36464
286.68        22.56972
287.13        22.76979
287.59        22.98715
288.04        23.21741
288.50        23.46524
288.95        23.69637
289.41        23.86667
289.86        23.86255
290.32        23.71116
290.77         23.4684
291.22        23.25276
291.68        23.21734
292.13        23.40509
292.59        23.81394
293.04        24.42237
293.50        25.19126
293.95        26.07751
294.40         27.0818
294.86        28.20049
295.31         29.4398
295.77        30.80883
296.22        32.28828
296.68        33.83402
297.13        35.35777
297.58        36.80577
298.04         38.2137
298.49        39.58373
298.95        40.99701
299.40        42.47148
299.85        43.99748
300.31        45.65413
300.76        47.51658
301.21        49.59154
301.67        51.86594
302.12        54.13941
302.58        56.12868
303.03        57.74787
303.48        59.09025
303.94        60.43357
304.39        62.11697
304.84         64.2454
305.30        66.68937
305.75        69.17616
306.20        71.32295
306.66        73.03899
307.11        74.40019
307.57        75.59809
308.02        76.78606
308.47        78.07602
308.93         79.4213
309.38        80.77165
309.83        82.14994
310.29        83.54686
310.74         84.9479
311.19        86.31113
311.65        87.54053
312.10        88.57288
312.55        89.40553
313.00         90.0647
313.46        90.62109
313.91        91.08006
314.36        91.48256
314.82        91.82552
315.27        92.06818
315.72        92.24596
316.18        92.39769
316.63        92.63615
317.08        93.14596
317.53        93.95079
317.99        94.97191
318.44        96.05502
318.89        96.88202
319.35        97.35229
319.80        97.53549
320.25        97.56264
320.70        97.68004
321.16        97.94099
321.61        98.29123
322.06        98.62314
322.51        98.76817
322.97        98.68327
323.42        98.47619
323.87         98.2313
324.32        98.08546
324.78        98.07481
325.23        98.19023
325.68        98.39758
326.13        98.65833
326.59         98.9181
327.04        99.23451
327.49        99.55911
327.94        99.84671
328.39        100.0811
328.85        100.2292
329.30        100.3664
329.75          100.49
330.20        100.6176
330.66        100.7272
331.11        100.8867
331.56        101.0875
332.01        101.3399
332.46        101.6454
332.92        101.9702
333.37        102.3751
333.82        102.8148
334.27        103.2758
334.72        103.7294
335.17        104.1332
335.63        104.4428
336.08          104.72
336.53        104.9394
336.98        105.1173
337.43        105.2694
337.88        105.3993
338.34        105.5325
338.79        105.7327
339.24        106.0075
339.69        106.3624
340.14         106.761
340.59        107.1361
341.05         107.468
341.50        107.7787
341.95        108.1166
342.40        108.5772
342.85        109.1669
343.30        109.8375
343.75        110.4897
344.20        110.9689
344.66        111.2573
345.11        111.3938
345.56        111.4624
346.01        111.5881
346.46        111.8136
346.91        112.0938
347.36        112.4311
347.81        112.8283
348.26        113.2627
348.72        113.7365
349.17        114.1458
349.62        114.3498
350.07        114.3236
350.52        114.1046
350.97        113.8074
351.42         113.624
351.87        113.5974
352.32        113.6671
352.77        113.7409
353.22        113.6685
353.67         113.416
354.13          113.07
354.58        112.6478
355.03        112.2427
355.48        111.8927
355.93        111.5811
356.38        111.3138
356.83        111.1058
357.28        110.9396
357.73        110.7839
358.18        110.6156
358.63        110.3974
359.08        110.1051
359.53        109.7476
359.98         109.254
360.43        108.5259
360.88        107.5649
361.33        106.4044
361.78        105.2206
362.23        104.2741
362.68        103.6216
363.13        103.2185
363.58        102.8502
364.03        102.1691
364.48        101.1163
364.93        99.80016
365.38        98.51875
365.83        97.72521
366.28        97.49633
366.73        97.67894
367.18        97.91866
367.63        97.65044
368.08        96.74089
368.53          95.369
368.98         93.8849
369.43        92.81412
369.88        92.28001
370.33         92.1286
370.78        92.07648
371.23        91.65721
371.68        90.75906
372.13        89.55405
372.58        88.32994
373.03        87.50251
373.48        87.15346
373.93        87.12556
374.38        87.16941
374.83        86.89386
375.28        86.19094
375.72        85.16928
376.17         84.0778
376.62        83.14216
377.07        82.42165
377.52        81.83687
377.97        81.29774
378.42        80.68446
378.87          79.983
379.32        79.25697
379.77        78.59287
380.22        78.08472
380.67        77.73292
381.11        77.51214
381.56        77.28786
382.01        76.91466
382.46        76.37297
382.91        75.72338
383.36        75.09489
383.81        74.66861
384.26        74.46796
384.71        74.42575
385.15        74.41446
385.60        74.26176
386.05        73.91067
386.50        73.41542
386.95        72.86593
387.40        72.39618
387.85        72.04639
388.29        71.75092
388.74        71.50636
389.19        71.14923
389.64        70.65076
390.09        70.04737
390.54        69.46817
390.98        69.04903
391.43        68.85301
391.88        68.94966
392.33        69.14737
392.78        68.82585
393.23        68.13522
393.67        67.87061
394.12        68.04469
394.57        67.93906
395.02         67.5559
395.47        67.32477
395.91        67.27516
396.36        67.17695
396.81        67.05199
397.26        67.01141
397.71        66.93956
398.15        66.69501
398.60        66.36333
399.05        65.69189
399.50        64.94632
399.95        65.06702
400.39        65.84944
400.84        65.79308
401.29        64.94378
401.74        64.56301
402.18        64.70253
402.63        64.66483
403.08         64.5126
403.53        64.14017
403.97        64.45338
404.42        64.57262
404.87        64.69968
405.32         64.6786
405.76        64.48476
406.21        64.30869
406.66        64.10809
407.11        63.68169
407.55         63.2007
408.00        62.93206
408.45         62.9453
408.90        63.47577
409.34         64.1655
409.79        63.81414
410.24        62.68088
410.68         62.2394
411.13        62.57466
411.58        62.85002
412.03        62.88752
412.47        62.81296
412.92        62.56779
413.37           62.14
413.81        61.71562
414.26        61.63354
414.71        61.91195
415.15         62.5093
415.60         63.1472
416.05        63.39859
416.49        63.14998
416.94        62.55724
417.39        61.92506
417.83        61.69285
418.28        61.96226
418.73        62.58363
419.17        63.33564
419.62         63.7917
420.07        63.82628
420.51        63.55774
420.96        63.17497
421.41        62.86016
421.85        62.65343
422.30        62.63341
422.74        62.69962
423.19        62.62089
423.64        62.42483
424.08        62.62595
424.53        63.19613
424.98        63.28658
425.42        63.64381
425.87         63.8667
426.31        64.19606
426.76         64.2894
427.21        64.25741
427.65        64.60545
428.10        65.14397
428.54        65.29505
428.99        65.08313
429.44        64.59614
429.88        64.07533
430.33        64.33305
430.77        65.08137
431.22         65.2797
431.66        64.91754
432.11        64.81693
432.56        65.01508
433.00        65.25945
433.45        65.42599
433.89        65.97749
434.34        63.99616
434.78        66.10876
435.23        66.05142
435.67        65.07561
436.12        64.76469
436.57        64.98701
437.01        66.33053
437.46        67.38998
437.90        66.93483
438.35        66.57198
438.79        66.81441
439.24        66.64843
439.68         66.3286
440.13        66.29872
440.57        66.56656
441.02        66.37094
441.46        65.84492
441.91        66.49583
442.35         67.8279
442.80        67.61169
443.24        66.43826
443.69        66.51647
444.13        67.78367
444.58        68.19093
445.02        67.66225
445.47        67.30447
445.91        67.26624
446.36        67.32756
446.80        67.49139
447.24         67.9247
447.69        68.44559
448.13        68.50781
448.58        68.18634
449.02        68.09907
449.47        68.28883
449.91        68.30008
450.36        68.16404
450.80        68.14386
451.25        68.22559
451.69        68.20822
452.13        68.08746
452.58        67.93507
453.02        67.77918
453.47        67.68769
453.91        67.66492
454.36        67.68719
454.80        67.72183
455.24        67.74305
455.69        67.75165
456.13        67.72305
456.58        67.67516
457.02        67.63567
457.46        67.53171
457.91        67.40867
458.35        67.21909
458.79        67.21167
459.24          67.299
459.68        66.96722
460.13        66.37222
460.57        66.11652
461.01        66.29189
461.46        66.29161
461.90        66.28455
462.34        66.60407
462.79        65.85334
463.23        65.67619
463.68        65.68779
464.12        65.73528
464.56        65.75327
465.01        65.87861
465.45        66.02183
465.89        65.93378
466.34        65.69427
466.78        65.81396
467.22        66.28333
467.67        65.89252
468.11        65.72988
468.55        65.48397
468.99        65.50325
469.44        65.44366
469.88        65.32726
470.32        65.32291
470.77        65.39897
471.21         65.4655
471.65        65.48048
472.10         65.4578
472.54        65.41027
472.98        65.33137
473.42        65.21252
473.87         65.2421
474.31        65.29107
474.75        64.82858
475.20        64.08382
475.64        63.96827
476.08        64.38537
476.52        64.54623
476.97        64.41841
477.41        64.25344
477.85        64.04942
478.29        64.86989
478.74        64.37877
479.18        64.99172
479.62        64.68115
480.06         64.6964
480.50        64.58365
480.95        64.49341
481.39        64.49247
481.83        64.06947
482.27        63.83396
482.72        64.49706
483.16         64.2672
483.60        64.24789
484.04        64.56529
484.48        64.35512
484.93        63.86855
485.37        64.70651
485.81        65.54623
486.25         65.1539
486.69        67.05636
487.14          67.394
487.58        64.10528
488.02        64.12835
488.46        64.87543
488.90        63.48048
489.34        63.79449
489.79        64.00247
490.23        64.48963
490.67         64.7161
491.11        64.48482
491.55        64.41908
491.99        64.49765
492.43        64.44135
492.88        64.26112
493.32        64.17061
493.76        64.18146
494.20        64.16632
494.64        64.10005
495.08        64.17763
495.52        64.36001
495.96        64.11501
496.41        63.61467
496.85        63.95954
497.29        64.89532
497.73        64.91084
498.17        64.10621
498.61        63.78829
499.05         64.0519
499.49        64.34452
499.93        64.50327
500.37        64.29127
500.82        63.78191
501.26        63.52702
501.70        63.57829
502.14        63.60996
502.58        63.59676
503.02        63.63543
503.46        63.71315
503.90        63.81437
504.34        63.90861
504.78         63.9351
505.22        63.87981
505.66        63.75931
506.10          63.592
506.54        63.50293
506.98        63.52842
507.42        63.56503
507.86        63.19741
508.30        63.87692
508.74        63.26676
509.18        63.19875
509.62        63.08289
510.06        63.10349
510.50        63.26697
510.94        63.54418
511.38        63.84494
511.82        63.96116
512.26        63.85386
512.70        63.58717
513.14         63.2629
513.58        63.04266
514.02        62.97004
514.46        62.99156
514.90        63.06133
515.34        63.10184
515.78        63.08986
516.22        63.06941
516.66        63.03444
517.10        62.96854
517.54        62.87932
517.98        62.75812
518.42        62.67471
518.86        62.74573
519.30        62.97884
519.74        63.33699
520.18        63.69073
520.62        63.81672
521.06        63.67455
521.50        63.35781
521.93        62.98567
522.37        62.74596
522.81        62.68833
523.25        62.76175
523.69        62.90334
524.13        63.00309
524.57        63.03014
525.01         63.0372
525.45        63.02573
525.89        62.99168
526.32        62.94131
526.76        62.86918
527.20        62.83424
527.64        62.94366
528.08        63.20242
528.52        63.57102
528.96        63.92591
529.40        64.07082
529.83        63.95364
530.27        63.64724
530.71        63.27214
531.15        63.02579
531.59        62.96196
532.03        63.03596
532.46        63.15187
532.90        63.15453
533.34        63.01896
533.78        62.81521
534.22        62.64038
534.66        62.63192
535.09        62.79519
535.53        63.06582
535.97         63.3629
536.41        63.51632
536.85        63.47225
537.28        63.45466
537.72        63.43056
538.16        62.95702
538.60        62.26385
539.04        62.22549
539.47         62.7444
539.91        62.95777
540.35         62.8149
540.79        62.83342
541.22        62.98671
541.66        63.03474
542.10        62.97453
542.54        62.78109
542.97        62.54531
543.41        62.65308
543.85        63.01168
544.29        63.10473
544.72        62.91503
545.16        62.83421
545.60        62.84674
546.04        62.79388
546.47        62.67705
546.91        62.47093
547.35        62.26336
547.79        62.37418
548.22        62.72825
548.66        62.92261
549.10        62.94003
549.53        63.13169
549.97        63.44423
550.41        63.55507
550.84        63.41049
551.28        63.24153
551.72        63.11582
552.15        62.82664
552.59        62.37864
553.03        62.82631
553.46        62.31134
553.90        62.40401
554.34        62.50971
554.77         62.6721
555.21        62.88286
555.65        62.76047
556.08        63.03436
556.52        63.05974
556.96        63.05138
557.39        63.04136
557.83        63.06565
558.27        63.03138
558.70        62.93251
559.14        62.96734
559.57        63.07288
560.01         62.8843
560.45        62.52595
560.88        62.59121
561.32        63.07619
561.75        63.18979
562.19        62.99346
562.63        62.81159
563.06        62.73874
563.50        63.04229
563.93        63.55507
564.37        63.51684
564.80        62.99548
565.24          62.884
565.68        63.12591
566.11        63.12433
566.55        62.92146
566.98        62.72915
567.42        62.60689
567.85        62.97186
568.29        63.31526
568.72        63.34526
569.16        63.00346
569.60        63.47209
570.03        63.30171
570.47        63.57236
570.90        63.86622
571.34        63.37239
571.77        64.18744
572.21        63.85699
572.64         63.8798
573.08        63.85919
573.51        63.89763
573.95        63.70095
574.38        63.56287
574.82        62.91726
