SpectraSmart Spectrum 2.9.0.0
--------- Device Information -----------
Spectrum Name :  反射率_0
Saving Time :  2024/05/03 20:01:10
Spectro-Module Model Name : SE2030-DUVN
Spectro-Module Serial Number : OS361AC55029948
Wavelength Start : 200
Wavelength End : 1025
Wavelength Unit : Wavelength(nm)
Spectrum Unit : Reflectance(%)
-----------Spectrum Setting ------------
Integration Time : 20ms
Average : 10
Boxcar : 0
Background removal :  enabled
linearity correction :  enabled
SC :  disabled
Intensity correction :  disabled
DWT denoise :  enabled
savitzky-golay :  disabled
FFT :  disabled
Running average :  disabled
Kalman :  disabled
High pass :  disabled
---------------BEGIN--------------------
Wavelength(nm)             Reflectance(%)
200.29               0
200.75        31.50449
201.21        17.11076
201.67        944.5843
202.13        64.90409
202.58        42.50348
203.04        29.71928
203.50        21.46591
203.96        19.39034
204.42        25.05813
204.88        51.27274
205.34        -986.257
205.80       -113.1993
206.26       -163.0356
206.72       -48563.68
207.18        197.5599
207.64         126.431
208.10        106.0511
208.55        93.58788
209.01       -14.62067
209.47       -258.2025
209.93        0.701172
210.39        35.36179
210.85        47.09398
211.31         52.4277
211.77        56.24098
212.23        62.88633
212.69         75.5379
213.14        72.63368
213.60        44.44877
214.06        32.27385
214.52         29.5076
214.98        31.40721
215.44        38.88632
215.90         69.0088
216.36       -368.4993
216.81        -68.7702
217.27       -76.92661
217.73       -151.5121
218.19       -586.9127
218.65       -11149.44
219.11       -662.5762
219.57       -107.0269
220.02       -13.10683
220.48       -8.365795
220.94        85.54324
221.40        57.82905
221.86        55.39135
222.32        55.02091
222.77        55.02814
223.23        56.04832
223.69        56.42579
224.15        51.28182
224.61         42.1921
225.06        34.08762
225.52        30.18361
225.98        30.83099
226.44        35.19599
226.90         43.2792
227.36         53.6533
227.81        59.55426
228.27        57.06884
228.73        49.91479
229.19        41.80568
229.65        35.49903
230.10        31.19278
230.56        28.19901
231.02        26.48921
231.48        26.28485
231.93        27.22843
232.39        29.07263
232.85        31.10812
233.31        32.30128
233.77        32.51392
234.22        32.06554
234.68        31.54593
235.14        31.96495
235.60         33.6765
236.05        36.48702
236.51        39.97318
236.97        43.16293
237.43        45.35888
237.88        46.72612
238.34        47.71238
238.80        49.06058
239.26        51.35884
239.71        57.11088
240.17        64.50574
240.63        73.05204
241.08        76.29388
241.54        71.41101
242.00        65.07728
242.46        66.10941
242.91        77.58302
243.37        103.3979
243.83        149.4454
244.28        195.0843
244.74        189.7823
245.20        136.9473
245.66        77.18622
246.11        43.92715
246.57        35.58381
247.03        39.95773
247.48        48.72627
247.94        54.32002
248.40         55.7401
248.85        55.90449
249.31         55.9481
249.77        56.48344
250.22        57.76875
250.68          59.072
251.14        60.99434
251.59        65.39652
252.05        73.42466
252.51        86.33625
252.96         105.225
253.42        122.9623
253.88         129.088
254.33        123.7456
254.79        111.6713
255.25        97.65583
255.70         85.6329
256.16         77.1488
256.62        71.93264
257.07         69.7718
257.53        69.90646
257.99        70.80888
258.44        71.40025
258.90        71.15427
259.35        69.64892
259.81        67.93818
260.27        65.85985
260.72        63.30117
261.18        60.89025
261.63         58.4626
262.09        56.62558
262.55        55.58577
263.00        55.11096
263.46        55.04848
263.91        54.93537
264.37        54.44929
264.83         53.4814
265.28        52.19863
265.74        50.80745
266.19        49.30369
266.65        47.84926
267.11        46.35161
267.56        44.94119
268.02         43.8974
268.47         43.1767
268.93        42.73951
269.38         42.3133
269.84        41.44999
270.30         40.1228
270.75        38.50312
271.21        37.00698
271.66         36.1158
272.12        35.89737
272.57        36.12715
273.03        36.46557
273.48        36.39299
273.94        35.79236
274.39        34.85078
274.85        33.78629
275.31         32.8144
275.76        32.00246
276.22        31.31501
276.67        30.75367
277.13        30.44554
277.58        30.30075
278.04        30.30884
278.49        30.24823
278.95        29.83673
279.40        29.02879
279.86        28.03374
280.31        27.02126
280.77        26.31494
281.22        25.88895
281.68        25.67873
282.13        25.55484
282.59        25.39662
283.04        25.14918
283.50        24.88441
283.95        24.61884
284.41        24.39677
284.86        24.22268
285.32        24.11208
285.77        24.04814
286.22        24.06951
286.68        24.18092
287.13        24.32888
287.59        24.53247
288.04        24.77387
288.50         25.0521
288.95         25.3343
289.41         25.5653
289.86        25.61166
290.32        25.49464
290.77        25.26686
291.22        25.05994
291.68        25.04868
292.13         25.2793
292.59        25.74716
293.04        26.41013
293.50        27.19633
293.95        28.05699
294.40        29.00253
294.86        30.06598
295.31         31.3049
295.77        32.73695
296.22        34.32768
296.68        35.98165
297.13        37.52794
297.58        38.89083
298.04        40.12595
298.49        41.29738
298.95         42.5807
299.40        44.00783
299.85        45.54283
300.31        47.18789
300.76        48.89911
301.21        50.66691
301.67        52.52077
302.12        54.35941
302.58        56.05603
303.03        57.54948
303.48        58.87063
303.94         60.1987
304.39        61.72583
304.84        63.53056
305.30        65.54933
305.75          67.568
306.20        69.29446
306.66        70.67782
307.11        71.76598
307.57        72.76543
308.02        73.85918
308.47         75.1368
308.93        76.52501
309.38        77.90083
309.83         79.1698
310.29        80.29731
310.74        81.30737
311.19        82.20576
311.65        82.98115
312.10        83.61586
312.55        84.10069
313.00        84.48393
313.46        84.86057
313.91        85.23449
314.36        85.63782
314.82        86.02981
315.27        86.30648
315.72        86.47739
316.18        86.58304
316.63        86.74167
317.08        87.15575
317.53        87.85179
317.99         88.7404
318.44        89.66646
318.89        90.31699
319.35        90.60397
319.80        90.62003
320.25        90.49817
320.70         90.4776
321.16        90.61793
321.61        90.86147
322.06        91.14808
322.51        91.38498
322.97        91.52918
323.42        91.65191
323.87        91.73117
324.32        91.73396
324.78        91.65977
325.23        91.54691
325.68        91.46502
326.13        91.55317
326.59        91.81503
327.04        92.25597
327.49        92.77099
327.94        93.21346
328.39        93.52605
328.85         93.7063
329.30        93.83652
329.75         93.9337
330.20        94.02403
330.66        94.07594
331.11        94.15181
331.56        94.24818
332.01        94.38532
332.46        94.58205
332.92        94.83047
333.37        95.21767
333.82        95.71071
334.27        96.28621
334.72         96.9053
335.17         97.5075
335.63        98.02686
336.08        98.50527
336.53        98.89078
336.98        99.15941
337.43         99.3212
337.88        99.40421
338.34        99.44335
338.79        99.51785
339.24         99.6608
339.69        99.88158
340.14        100.2158
340.59        100.7078
341.05        101.3415
341.50         102.088
341.95        102.8692
342.40        103.5762
342.85        104.1618
343.30        104.6377
343.75        104.9872
344.20        105.1982
344.66        105.3114
345.11        105.3342
345.56        105.3541
346.01        105.4981
346.46        105.7984
346.91        106.2158
347.36        106.7167
347.81        107.2366
348.26        107.7372
348.72        108.2363
349.17         108.654
349.62         108.894
350.07        108.9461
350.52        108.8307
350.97         108.663
351.42        108.6403
351.87        108.7941
352.32        109.0532
352.77        109.2995
353.22        109.3387
353.67        109.1318
354.13        108.7928
354.58        108.3478
355.03        107.9014
355.48        107.5106
355.93        107.1573
356.38        106.9102
356.83        106.8814
357.28        107.0565
357.73        107.3663
358.18         107.672
358.63        107.7448
359.08        107.5166
359.53        107.0574
359.98        106.3963
360.43        105.5991
360.88        104.7156
361.33        103.7241
361.78        102.7669
362.23        102.0528
362.68        101.6112
363.13        101.4167
363.58        101.2268
364.03        100.6401
364.48        99.59745
364.93        98.22799
365.38        96.87886
365.83        96.08707
366.28        95.95166
366.73        96.29082
367.18         96.7396
367.63        96.70889
368.08        96.04195
368.53         94.9228
368.98        93.65485
369.43        92.69073
369.88        92.15494
370.33        91.92465
370.78        91.79235
371.23        91.42482
371.68        90.74046
372.13        89.85317
372.58        89.00246
373.03         88.5343
373.48        88.49138
373.93        88.72978
374.38        88.94085
374.83        88.63531
375.28        87.71102
375.72        86.33315
376.17        84.87103
376.62        83.72301
377.07        82.99159
377.52        82.54971
377.97        82.26635
378.42        81.94095
378.87        81.50715
379.32        81.03394
379.77        80.56923
380.22        80.15605
380.67        79.79552
381.11        79.47663
381.56        79.10457
382.01        78.61689
382.46        78.02573
382.91        77.37188
383.36        76.78516
383.81        76.44191
384.26        76.35336
384.71        76.45583
385.15        76.57629
385.60        76.46426
386.05        76.05551
386.50        75.43665
386.95        74.75957
387.40        74.25587
387.85         73.9853
388.29        73.84063
388.74        73.78952
389.19        73.62569
389.64        73.29945
390.09         72.8564
390.54        72.40023
390.98        72.02106
391.43        71.78369
391.88         71.7839
392.33        71.87064
392.78        71.47452
393.23        70.76643
393.67        70.54482
394.12        70.80851
394.57        70.78445
395.02        70.46562
395.47        70.31762
395.91        70.33977
396.36        70.24187
396.81        70.03403
397.26        69.83054
397.71        69.60523
398.15        69.32371
398.60        69.08581
399.05        68.68311
399.50        68.22643
399.95        68.29422
400.39        68.74081
400.84        68.44039
401.29        67.54172
401.74        67.29996
402.18         67.6805
402.63        67.64919
403.08        67.28319
403.53        66.83564
403.97        67.26604
404.42        67.41558
404.87        67.47341
405.32         67.4092
405.76        67.19632
406.21        66.90067
406.66        66.55764
407.11        66.20972
407.55        65.94405
408.00        65.80171
408.45        65.78949
408.90          65.929
409.34        66.09795
409.79        65.97461
410.24        65.65071
410.68         65.5458
411.13        65.68935
411.58        65.85595
412.03        65.90316
412.47        65.71855
412.92         65.2648
413.37         64.6105
413.81        63.99649
414.26         63.8341
414.71         64.1489
415.15        64.87602
415.60         65.6764
416.05        66.01477
416.49         65.7402
416.94        65.03759
417.39        64.26313
417.83         63.9327
418.28        64.17068
418.73        64.80737
419.17         65.5926
419.62        66.05101
420.07        66.03183
420.51         65.6626
420.96        65.17583
421.41        64.75785
421.85        64.45412
422.30        64.49776
422.74        64.67922
423.19        64.32287
423.64        63.60299
424.08        63.72695
424.53         64.6388
424.98        65.18013
425.42        65.24738
425.87        65.66827
426.31        66.33536
426.76        66.23878
427.21        65.59258
427.65        65.68057
428.10        66.36196
428.54        66.66346
428.99        66.24254
429.44        65.90283
429.88        65.67595
430.33        65.87495
430.77        66.28098
431.22        66.36674
431.66        66.10651
432.11        65.89806
432.56        65.77806
433.00        65.96959
433.45        66.41148
433.89        67.04548
434.34        64.77345
434.78         67.7958
435.23        67.08281
435.67        66.27605
436.12        65.25757
436.57         65.3965
437.01        67.00204
437.46        67.61119
437.90        67.19268
438.35        66.79073
438.79        67.08109
439.24        66.96905
439.68        66.64577
440.13        66.47576
440.57        66.56455
441.02        66.52547
441.46        66.36332
441.91        67.19949
442.35        68.44521
442.80        67.81217
443.24        65.85108
443.69        66.00358
444.13        67.98318
444.58        68.57858
445.02        67.65686
445.47        67.03002
445.91        66.93581
446.36        66.96337
446.80        67.13523
447.24        67.64231
447.69        68.26073
448.13        68.42934
448.58        68.17628
449.02        68.00762
449.47        68.01879
449.91        67.94907
450.36        67.84832
450.80        67.89094
451.25         68.0378
451.69        68.04615
452.13        67.91664
452.58        67.82034
453.02        67.76999
453.47        67.65721
453.91        67.46233
454.36        67.36436
454.80        67.43126
455.24        67.01733
455.69        67.39527
456.13        67.49988
456.58        67.56767
457.02        67.70012
457.46        67.01084
457.91        66.83202
458.35        66.83595
458.79        66.87281
459.24        66.86334
459.68        66.54144
460.13        66.04059
460.57        65.87187
461.01        66.13538
461.46        65.89915
461.90        65.96525
462.34        66.25098
462.79        65.61025
463.23        65.39218
463.68         65.2691
464.12        65.20207
464.56        65.16763
465.01        65.42532
465.45        65.81705
465.89        65.72678
466.34        65.26772
466.78        65.43546
467.22        66.22716
467.67        65.62691
468.11        65.46056
468.55        65.19025
468.99        65.35332
469.44        65.30447
469.88        65.05711
470.32        64.91416
470.77        64.86469
471.21        64.81933
471.65         64.7553
472.10        64.69054
472.54        64.63982
472.98        64.61546
473.42        64.60451
473.87        64.73194
474.31        64.86077
474.75        64.56004
475.20        63.98631
475.64        63.81624
476.08        64.05391
476.52        64.08321
476.97        63.85479
477.41        63.86165
477.85         64.1815
478.29        64.04108
478.74        64.21118
479.18         64.8281
479.62        64.39635
480.06          64.378
480.50        64.18731
480.95        64.24182
481.39        64.61999
481.83        63.40001
482.27        63.85744
482.72        64.16492
483.16        63.88023
483.60        63.98728
484.04        64.15863
484.48         64.0002
484.93        63.52173
485.37        64.33684
485.81        65.15266
486.25         64.5312
486.69        66.68475
487.14        66.85633
487.58         63.9542
488.02        63.44541
488.46        64.86101
488.90        62.95423
489.34        63.70366
489.79        64.09556
490.23        63.95758
490.67        64.29031
491.11        64.45887
491.55        64.34939
491.99         63.9719
492.43        63.75149
492.88         63.7475
493.32        63.81609
493.76         63.8995
494.20        63.90892
494.64        63.79887
495.08        63.75123
495.52        63.81075
495.96        63.56698
496.41        63.18274
496.85        63.79091
497.29        64.93877
497.73        64.90359
498.17        63.79206
498.61        63.47922
499.05        64.03175
499.49        64.09088
499.93          63.623
500.37        63.51027
500.82        63.76184
501.26        63.28085
501.70        63.28976
502.14         63.1319
502.58        63.16194
503.02        63.21907
503.46        63.31704
503.90        63.29197
504.34        63.55064
504.78        63.56973
505.22        63.47771
505.66        63.37375
506.10        63.30366
506.54        63.21486
506.98        63.10946
507.42        63.12846
507.86         63.2453
508.30        62.99606
508.74         63.0663
509.18        62.91277
509.62         62.8022
510.06        62.81194
510.50        62.95586
510.94        63.19096
511.38        63.40471
511.82         63.4353
512.26        63.25191
512.70        62.91877
513.14        62.55364
513.58        62.34089
514.02         62.3244
514.46        62.43673
514.90        62.61742
515.34        62.76421
515.78        62.83787
516.22        62.88377
516.66        62.87543
517.10        62.76748
517.54        62.57209
517.98        62.29784
518.42        62.05798
518.86        62.03979
519.30        62.26944
519.74        62.68534
520.18        63.13586
520.62        63.36735
521.06        63.31396
521.50        63.05431
521.93        62.70053
522.37        62.45006
522.81        62.35839
523.25        62.36823
523.69        62.43785
524.13        62.50172
524.57         62.5361
525.01         62.5727
525.45        62.61071
525.89        62.64057
526.32        62.65786
526.76        62.66039
527.20        62.66169
527.64        62.70329
528.08        62.79032
528.52        62.89331
528.96        62.97583
529.40        63.02641
529.83        63.00145
530.27        62.82877
530.71        62.57926
531.15        62.45799
531.59        62.49114
532.03        62.59951
532.46        62.69893
532.90        62.68141
533.34        62.53323
533.78        62.30912
534.22        62.10757
534.66        62.07157
535.09        62.21022
535.53        62.46509
535.97        62.76285
536.41        62.94079
536.85        62.94435
537.28        62.99018
537.72        63.03237
538.16        62.61116
538.60        61.94826
539.04        61.91026
539.47        62.39275
539.91        62.58948
540.35        62.46727
540.79        62.42254
541.22        62.39636
541.66         62.7053
542.10        62.39016
542.54        62.18394
542.97        61.93356
543.41        62.06365
543.85        62.48696
544.29        62.68783
544.72        62.61341
545.16         62.5971
545.60         62.6208
546.04        62.47639
546.47        62.20417
546.91        62.06091
547.35         62.0906
547.79         62.1109
548.22        62.07147
548.66        62.50034
549.10        62.49705
549.53        62.71706
549.97        62.85655
550.41        62.89127
550.84         62.8019
551.28        62.61049
551.72        62.36629
552.15        62.14672
552.59         62.0068
553.03        61.87303
553.46        61.76552
553.90        61.82316
554.34        62.00805
554.77        62.20185
555.21        62.37307
555.65        62.51447
556.08        62.59185
556.52        62.64963
556.96        62.66462
557.39        62.52389
557.83        62.32638
558.27        62.29269
558.70        62.41059
559.14        62.56086
559.57        62.66541
560.01         62.5915
560.45        62.39481
560.88         62.4278
561.32        62.66478
561.75        62.64951
562.19        62.46555
562.63        62.39194
563.06        62.45379
563.50        62.78194
563.93        63.20111
564.37        63.02377
564.80        62.39468
565.24        62.31944
565.68        62.70836
566.11        62.80257
566.55           62.63
566.98        62.32891
567.42        62.36283
567.85        62.64177
568.29        62.78962
568.72        62.83789
569.16        62.76923
569.60        62.80786
570.03        62.89787
570.47        63.13665
570.90        63.50759
571.34        62.90498
571.77        63.58588
572.21        63.35372
572.64        63.48596
573.08        63.39303
573.51        63.36612
573.95        63.20249
574.38        63.26464
574.82        62.60979
