SpectraSmart Spectrum 2.9.0.0
--------- Device Information -----------
Spectrum Name :  反射率_0
Saving Time :  2024/05/03 20:24:40
Spectro-Module Model Name : SE2030-DUVN
Spectro-Module Serial Number : OS361AC55029948
Wavelength Start : 200
Wavelength End : 1025
Wavelength Unit : Wavelength(nm)
Spectrum Unit : Reflectance(%)
-----------Spectrum Setting ------------
Integration Time : 20ms
Average : 10
Boxcar : 0
Background removal :  enabled
linearity correction :  enabled
SC :  disabled
Intensity correction :  disabled
DWT denoise :  enabled
savitzky-golay :  disabled
FFT :  disabled
Running average :  disabled
Kalman :  disabled
High pass :  disabled
---------------BEGIN--------------------
Wavelength(nm)             Reflectance(%)
200.29               0
200.75        25.99712
201.21        31.07895
201.67       -248.9275
202.13         8.00829
202.58        7.997324
203.04        5.755308
203.50        3.116665
203.96       0.6762463
204.42       -2.317116
204.88       -12.40053
205.34        306.3959
205.80        21.72062
206.26      -0.3628471
206.72        -8907.05
207.18        61.38779
207.64        50.59541
208.10        53.49966
208.55        75.31837
209.01        280.4006
209.47        346.6748
209.93        72.94249
210.39        46.25814
210.85        39.84882
211.31        39.51797
211.77        42.83338
212.23        52.75887
212.69        78.12338
213.14        92.55445
213.60        54.69655
214.06         32.4911
214.52        24.43705
214.98        22.38421
215.44        24.10573
215.90        35.44077
216.36       -156.8315
216.81       -33.97604
217.27       -51.69847
217.73       -125.4127
218.19       -553.1673
218.65       -11905.04
219.11       -851.9762
219.57       -205.9848
220.02        -99.9818
220.48       -159.9027
220.94        210.6597
221.40        77.97375
221.86        58.47741
222.32        51.47357
222.77        47.18847
223.23        43.57612
223.69        39.16288
224.15        34.39612
224.61        32.32015
225.06        32.37981
225.52        34.17268
225.98        37.65182
226.44        43.09398
226.90        51.14484
227.36        60.45796
227.81        64.96749
228.27        61.54839
228.73        53.78087
229.19        45.96624
229.65        41.32254
230.10        39.43125
230.56        39.08846
231.02        39.36023
231.48        39.50562
231.93         39.3593
232.39        39.32221
232.85        39.25565
233.31        38.96859
233.77        38.48153
234.22        37.74719
234.68         37.1891
235.14        37.54671
235.60        39.01451
236.05         41.5758
236.51        44.49025
236.97        46.21486
237.43        46.18129
237.88        44.97277
238.34        43.66425
238.80        43.57312
239.26        45.23139
239.71          51.041
240.17         59.2172
240.63        69.85902
241.08        75.89622
241.54        74.00071
242.00        68.54332
242.46        66.56052
242.91        70.09025
243.37        79.07555
243.83        96.00094
244.28        114.7967
244.74        116.5387
245.20        101.3095
245.66        80.22745
246.11        62.28815
246.57        49.36512
247.03        39.77639
247.48        32.23677
247.94        24.50122
248.40        16.20888
248.85        7.148359
249.31        1.161863
249.77        5.555897
250.22        18.76399
250.68        34.52974
251.14        48.46201
251.59        59.45794
252.05         69.4774
252.51        80.35033
252.96         93.2877
253.42        105.0317
253.88        109.5595
254.33        106.6079
254.79        98.20161
255.25         86.7258
255.70        76.09312
256.16        68.40746
256.62        64.32389
257.07        64.26223
257.53        67.16221
257.99        71.12531
258.44        74.09042
258.90        74.40702
259.35        71.91572
259.81        68.47591
260.27        64.88984
260.72        61.99538
261.18        60.25407
261.63        58.96984
262.09        58.15744
262.55         57.4391
263.00        56.61465
263.46        55.81362
263.91        54.97077
264.37        54.30999
264.83        53.75807
265.28        53.22189
265.74        52.54741
266.19        51.26443
266.65        49.51334
267.11          47.428
267.56        45.40548
268.02        44.08587
268.47        43.49932
268.93         43.4648
269.38        43.60027
269.84        43.26628
270.30        42.33822
270.75        41.03903
271.21        39.74963
271.66        38.90278
272.12        38.57852
272.57        38.54234
273.03         38.5665
273.48        38.33212
273.94        37.76403
274.39        36.99942
274.85        36.11646
275.31        35.11184
275.76        34.03942
276.22        32.97485
276.67         32.0585
277.13        31.59892
277.58        31.52925
278.04        31.76653
278.49        32.01003
278.95        31.84768
279.40           31.18
279.86        30.25644
280.31        29.26283
280.77         28.5561
281.22        28.11727
281.68        27.86781
282.13        27.68889
282.59        27.48644
283.04        27.20909
283.50        26.93429
283.95          26.648
284.41        26.35241
284.86        26.04376
285.32        25.74598
285.77        25.49364
286.22        25.40607
286.68         25.4972
287.13        25.68966
287.59         25.9206
288.04        26.04613
288.50        26.05824
288.95        25.97631
289.41        25.85563
289.86        25.73643
290.32        25.66979
290.77        25.63272
291.22        25.65867
291.68        25.78468
292.13        26.01535
292.59        26.38576
293.04        26.87561
293.50        27.45122
293.95        28.09285
294.40        28.80928
294.86        29.65103
295.31        30.70186
295.77        31.98165
296.22        33.44762
296.68        35.01176
297.13        36.50859
297.58        37.85543
298.04        39.10539
298.49        40.26935
298.95        41.44308
299.40        42.65405
299.85        43.89391
300.31        45.25272
300.76         46.8242
301.21        48.62786
301.67         50.6559
302.12        52.72245
302.58         54.5615
303.03        56.08571
303.48        57.37355
303.94        58.67711
304.39        60.30199
304.84        62.33719
305.30        64.65633
305.75         66.9903
306.20         68.9626
306.66        70.49683
307.11        71.68741
307.57        72.73354
308.02        73.80187
308.47        75.01145
308.93        76.31052
309.38        77.67769
309.83        79.17619
310.29        80.78671
310.74        82.46638
311.19        84.10059
311.65        85.47861
312.10        86.51439
312.55        87.24863
313.00        87.76469
313.46        88.22318
313.91         88.6664
314.36        89.11404
314.82        89.56997
315.27        90.00331
315.72        90.43401
316.18         90.8856
316.63        91.42667
317.08         92.1712
317.53        93.11806
317.99         94.1992
318.44        95.26712
318.89        96.02322
319.35        96.39075
319.80        96.45394
320.25        96.37664
320.70         96.4522
321.16           96.75
321.61        97.20588
322.06        97.71473
322.51        98.10285
322.97        98.30601
323.42        98.41779
323.87        98.46244
324.32        98.48601
324.78        98.50607
325.23        98.53702
325.68        98.60636
326.13        98.78416
326.59        99.05541
327.04        99.45799
327.49        99.91582
327.94        100.3318
328.39        100.6665
328.85        100.8944
329.30        101.1037
329.75        101.3102
330.20        101.5303
330.66        101.7318
331.11        101.9385
331.56        102.0746
332.01         102.148
332.46        102.1932
332.92        102.2652
333.37        102.5695
333.82        103.1047
334.27        103.8248
334.72        104.6272
335.17        105.3371
335.63        105.8536
336.08        106.2544
336.53        106.5484
336.98        106.8173
337.43        107.0939
337.88        107.3636
338.34        107.5964
338.79        107.7723
339.24        107.8995
339.69        108.0307
340.14        108.2431
340.59        108.6455
341.05        109.2489
341.50        110.0035
341.95        110.8426
342.40        111.6761
342.85        112.4474
343.30        113.1591
343.75        113.7374
344.20        114.0762
344.66         114.197
345.11        114.1327
345.56         114.027
346.01        114.0985
346.46        114.4064
346.91        114.8864
347.36        115.4802
347.81        116.0819
348.26        116.6383
348.72        117.1822
349.17        117.6358
349.62         117.905
350.07        117.9805
350.52        117.8753
350.97         117.704
351.42        117.6684
351.87        117.7976
352.32        118.0148
352.77        118.2025
353.22        118.1665
353.67        117.8706
354.13        117.4409
354.58        116.8885
355.03        116.2988
355.48        115.7331
355.93        115.1823
356.38        114.7629
356.83        114.6598
357.28        114.8683
357.73         115.296
358.18        115.7337
358.63        115.8386
359.08        115.5138
359.53         114.858
359.98        113.9714
360.43        113.0342
360.88        112.1236
361.33         111.186
361.78        110.2941
362.23        109.5484
362.68        108.9577
363.13        108.5343
363.58        108.1115
364.03        107.4101
364.48        106.3923
364.93        105.1362
365.38        103.9109
365.83        103.1324
366.28        102.8712
366.73        102.9948
367.18        103.1806
367.63        102.9087
368.08        102.0588
368.53        100.7959
368.98        99.44467
369.43        98.49197
369.88        98.05095
370.33        97.97755
370.78        98.00359
371.23         97.6876
371.68        96.91866
372.13         95.8502
372.58        94.75033
373.03        94.01118
373.48        93.70673
373.93        93.68663
374.38        93.70642
374.83        93.38294
375.28        92.61926
375.72        91.53158
376.17        90.38244
376.62        89.40498
377.07        88.66537
377.52        88.08619
377.97        87.58881
378.42         87.0688
378.87        86.50269
379.32        85.93368
379.77        85.42386
380.22        85.03585
380.67        84.76631
381.11        84.60906
381.56        84.41841
382.01        84.03858
382.46        83.45577
382.91        82.72847
383.36        82.04573
383.81        81.67986
384.26        81.65842
384.71        81.88374
385.15        82.12128
385.60        82.02531
386.05        81.50921
386.50        80.69436
386.95         79.7909
387.40        79.11519
387.85        78.75047
388.29        78.56908
388.74        78.50317
389.19        78.27666
389.64        77.83743
390.09        77.27008
390.54        76.72007
390.98        76.33662
391.43        76.17925
391.88        76.29662
392.33        76.52438
392.78        76.20135
393.23        75.48164
393.67        75.38908
394.12        75.81045
394.57        75.39441
395.02        74.30151
395.47        73.88033
395.91        74.14161
396.36        74.07252
396.81        73.68632
397.26         73.5694
397.71        73.60725
398.15        73.48168
398.60        73.28422
399.05        72.67785
399.50        71.94439
399.95        72.34495
400.39        73.56562
400.84        73.36302
401.29         71.8978
401.74         71.4156
402.18        71.93369
402.63        71.86504
403.08        71.29257
403.53         70.7155
403.97        71.15624
404.42        71.33636
404.87        71.46046
405.32        71.44961
405.76        71.25781
406.21         71.0823
406.66        70.88718
407.11        70.36728
407.55        69.72377
408.00        69.52764
408.45        69.77511
408.90        70.10657
409.34        70.27866
409.79        69.89797
410.24        69.15844
410.68         68.8357
411.13        68.98949
411.58        69.15486
412.03        69.18834
412.47        69.09661
412.92        68.82384
413.37        68.39095
413.81        67.94711
414.26        67.78712
414.71         67.9171
415.15        68.29816
415.60        68.69833
416.05        68.79602
416.49        68.50826
416.94        67.96754
417.39        67.39749
417.83        67.11015
418.28        67.18627
418.73         67.5158
419.17         67.9694
419.62        68.27899
420.07        68.34771
420.51        68.21849
420.96        67.99615
421.41         67.7038
421.85        67.34724
422.30        67.16615
422.74        67.04682
423.19        66.56481
423.64        65.86221
424.08        65.84753
424.53        66.48764
424.98        66.78389
425.42        66.98621
425.87        67.38361
426.31        67.98029
426.76        68.05206
427.21        67.71568
427.65        67.77881
428.10        68.13642
428.54        68.18851
428.99        67.86562
429.44        67.43772
429.88        67.03423
430.33        67.28455
430.77        67.87122
431.22        67.86401
431.66        67.28336
432.11        66.88884
432.56        66.80484
433.00        67.01681
433.45        67.31939
433.89         67.8532
434.34        65.67786
434.78        67.23562
435.23        67.61655
435.67        66.30507
436.12         66.1896
436.57        66.28187
437.01        67.53873
437.46        68.05582
437.90        67.78026
438.35        67.43665
438.79        67.48145
439.24        67.27728
439.68        66.96551
440.13        66.93633
440.57        67.16396
441.02        66.94196
441.46        66.37682
441.91        66.85154
442.35        67.91087
442.80         67.6023
443.24         66.2487
443.69        66.32782
444.13         67.6526
444.58        68.05157
445.02         67.4355
445.47        66.99341
445.91        66.88338
446.36        66.88542
446.80        67.01148
447.24        67.34468
447.69        67.73862
448.13        67.88783
448.58        67.78282
449.02        67.62259
449.47        67.48556
449.91        67.32412
450.36        67.18916
450.80        67.10773
451.25        67.08386
451.69        67.05193
452.13        67.00785
452.58        66.98252
453.02        66.94516
453.47        66.87177
453.91        66.74787
454.36        66.57403
454.80        66.36926
455.24        66.24447
455.69        66.23849
456.13        66.20172
456.58         66.0716
457.02         66.2812
457.46        65.86555
457.91        65.65488
458.35        65.38962
458.79        65.36259
459.24        65.49638
459.68        65.27854
460.13        64.79584
460.57        64.57086
461.01        64.69173
461.46        64.36861
461.90        64.17182
462.34        64.37031
462.79        63.69745
463.23         63.4563
463.68        63.29921
464.12        63.38495
464.56        63.59841
465.01         63.7936
465.45        63.91898
465.89        63.83185
466.34        63.51299
466.78        63.80276
467.22        64.06234
467.67        62.98338
468.11        63.33694
468.55        63.19432
468.99        63.36208
469.44        63.33166
469.88        63.11071
470.32        62.90375
470.77        62.72378
471.21        62.58828
471.65        62.49058
472.10        62.41933
472.54        62.37447
472.98        62.33996
473.42        62.29337
473.87        62.38329
474.31        62.47362
474.75        62.09657
475.20        61.39206
475.64        61.16237
476.08        61.45118
476.52         61.3841
476.97        60.85361
477.41        61.54095
477.85        61.50691
478.29        61.43837
478.74        61.75165
479.18        62.30682
479.62        61.67588
480.06        61.60783
480.50        61.54551
480.95        61.66428
481.39        61.96209
481.83        61.06242
482.27        61.00566
482.72        61.39488
483.16        60.80195
483.60        60.78014
484.04        61.06074
484.48        60.95099
484.93        60.49041
485.37        61.65247
485.81        62.89932
486.25        61.91322
486.69        64.79564
487.14        64.76024
487.58         61.3796
488.02        61.23929
488.46        61.94706
488.90        60.58082
489.34        60.85617
489.79        61.17305
490.23         61.0598
490.67        61.22753
491.11        61.17038
491.55        61.03486
491.99         60.8213
492.43        60.65309
492.88        60.57194
493.32        60.59348
493.76        60.68285
494.20        60.71993
494.64        60.67107
495.08        60.69987
495.52        60.80949
495.96        60.63396
496.41        60.29752
496.85        60.63922
497.29        61.43932
497.73        61.37942
498.17        60.54622
498.61        60.31856
499.05        60.70558
499.49        60.57724
499.93        59.99001
500.37        59.92418
500.82        60.34241
501.26        60.37647
501.70        59.93799
502.14        60.36426
502.58        59.94913
503.02        60.04861
503.46        60.14877
503.90        60.29646
504.34        60.42406
504.78        60.44014
505.22        60.30593
505.66        60.13465
506.10        60.00176
506.54        59.74295
506.98        59.32196
507.42        60.10412
507.86        59.25627
508.30        59.87693
508.74        59.44828
509.18        59.42096
509.62        59.33175
510.06        59.34216
510.50         59.4802
510.94        59.69216
511.38        59.91044
511.82        59.97755
512.26        59.86461
512.70        59.62411
513.14        59.33849
513.58        59.13806
514.02        59.05769
514.46        59.05297
514.90        59.09267
515.34        59.12235
515.78        59.12447
516.22        59.13519
516.66        59.13256
517.10        59.07604
517.54        58.96975
517.98        58.81486
518.42        58.69905
518.86        58.76856
519.30        59.03585
519.74         59.4452
520.18        59.85238
520.62        60.02124
521.06         59.8969
521.50        59.55755
521.93        59.12532
522.37        58.81214
522.81        58.67578
523.25         58.6549
523.69        58.70485
524.13        58.75007
524.57        58.76529
525.01        58.79356
525.45        58.81783
525.89        58.80326
526.32        58.74509
526.76         58.6423
527.20        58.56224
527.64        58.62581
528.08        58.84366
528.52        59.17606
528.96        59.49356
529.40        59.58972
529.83        59.41758
530.27        59.05949
530.71        58.65698
531.15        58.43791
531.59        58.45677
532.03        58.64833
532.46        58.89521
532.90        59.00762
533.34        58.94294
533.78        58.77884
534.22        58.60169
534.66        58.53346
535.09        58.59007
535.53        58.72192
535.97        58.88837
536.41        58.98867
536.85         58.9859
537.28        59.06808
537.72         59.1824
538.16        58.87455
538.60         58.3354
539.04        58.39003
539.47        58.92967
539.91        59.11808
540.35         58.9104
540.79        58.79788
541.22        58.78592
541.66          58.746
542.10        58.70116
542.54        58.53136
542.97        58.27335
543.41          58.609
543.85        58.80236
544.29        58.90019
544.72        58.71233
545.16        58.66383
545.60        58.74501
546.04        58.73638
546.47        58.64246
546.91        58.57149
547.35        58.53447
547.79         58.5218
548.22        58.53299
548.66        58.57769
549.10        58.65992
549.53        58.85365
549.97        59.13605
550.41        59.25311
550.84        59.17871
551.28        59.04274
551.72        58.89203
552.15        58.61809
552.59        58.51227
553.03        58.37772
553.46        58.25729
553.90        58.23972
554.34        58.29456
554.77        58.29762
555.21        58.27277
555.65        58.42836
556.08        58.69508
556.52        58.76931
556.96        58.65419
557.39        58.62885
557.83        58.71907
558.27        58.69585
558.70         58.5753
559.14        58.59322
559.57        58.68848
560.01        58.60789
560.45        58.39747
560.88        58.29512
561.32        58.33395
561.75        58.44711
562.19        58.61908
562.63        58.51762
563.06        58.22796
563.50         58.5185
563.93        59.19374
564.37        59.05228
564.80        58.24722
565.24        58.12541
565.68         58.6105
566.11        58.74231
566.55        58.52532
566.98        58.38026
567.42        58.36385
567.85        58.64851
568.29        58.77747
568.72        58.82094
569.16        58.79469
569.60         58.8564
570.03        58.95148
570.47          59.313
570.90        59.97832
571.34          59.043
571.77         60.2459
572.21        59.72081
572.64        60.13322
573.08        59.34781
573.51        59.80304
573.95        59.76502
574.38        59.98803
574.82        59.56412
