SpectraSmart Spectrum 2.9.0.0
--------- Device Information -----------
Spectrum Name :  反射率_0
Saving Time :  2024/05/03 20:09:50
Spectro-Module Model Name : SE2030-DUVN
Spectro-Module Serial Number : OS361AC55029948
Wavelength Start : 200
Wavelength End : 1025
Wavelength Unit : Wavelength(nm)
Spectrum Unit : Reflectance(%)
-----------Spectrum Setting ------------
Integration Time : 20ms
Average : 10
Boxcar : 0
Background removal :  enabled
linearity correction :  enabled
SC :  disabled
Intensity correction :  disabled
DWT denoise :  enabled
savitzky-golay :  disabled
FFT :  disabled
Running average :  disabled
Kalman :  disabled
High pass :  disabled
---------------BEGIN--------------------
Wavelength(nm)             Reflectance(%)
200.29               0
200.75       -20.40413
201.21        -56.1516
201.67         2304.46
202.13        94.45136
202.58        58.58928
203.04        45.13845
203.50        40.04619
203.96        43.94011
204.42        61.39657
204.88         131.728
205.34       -2410.016
205.80       -220.6615
206.26       -229.1281
206.72       -47082.82
207.18        140.2056
207.64        75.88219
208.10        64.22115
208.55        82.08108
209.01        333.2997
209.47         506.304
209.93        114.1933
210.39        72.38611
210.85        62.83376
211.31        65.30161
211.77        77.43429
212.23        109.8796
212.69        192.8177
213.14        246.8596
213.60        135.3182
214.06        63.04582
214.52        36.02169
214.98         30.8924
215.44        41.39185
215.90        97.42213
216.36       -719.9922
216.81       -146.7714
217.27       -140.3286
217.73       -218.0128
218.19       -701.4481
218.65       -12500.25
219.11       -794.3948
219.57        -173.443
220.02       -74.22051
220.48       -107.6639
220.94        145.5051
221.40        57.68785
221.86         46.4303
222.32        44.56556
222.77        46.23472
223.23        51.66873
223.69        60.18427
224.15        63.01754
224.61        55.57869
225.06        45.01621
225.52        38.38168
225.98        37.92411
226.44        42.67813
226.90        52.01667
227.36        63.87743
227.81        69.84648
228.27        65.53437
228.73        55.96524
229.19        46.16673
229.65        39.71826
230.10        36.39835
230.56        34.86346
231.02        34.43716
231.48         34.7373
231.93        35.43447
232.39        36.61634
232.85        37.85206
233.31        38.50644
233.77          38.508
234.22        38.00545
234.68        37.43179
235.14        37.54262
235.60          38.614
236.05        40.59134
236.51         43.1244
236.97        45.43806
237.43        47.04334
237.88        48.12928
238.34        49.16605
238.80        50.97015
239.26        54.21621
239.71        61.52006
240.17        71.81049
240.63        84.33021
241.08        91.06287
241.54        87.58215
242.00         80.0683
242.46        77.81409
242.91        83.42915
243.37        98.13334
243.83        125.3169
244.28        151.8424
244.74        146.9944
245.20        115.0548
245.66        80.44218
246.11         62.1022
246.57        58.78493
247.03        61.99356
247.48        67.05582
247.94        69.89204
248.40        69.93008
248.85        69.45187
249.31        67.54897
249.77        62.23495
250.22        55.46473
250.68        49.06121
251.14        46.12915
251.59        50.02391
252.05        62.03035
252.51        84.91371
252.96        119.0169
253.42        147.3812
253.88        151.3027
254.33         135.039
254.79        113.9812
255.25        100.4286
255.70        94.10596
256.16        91.57865
256.62        90.36621
257.07         89.1007
257.53        87.97195
257.99        86.66045
258.44        84.86614
258.90        82.98895
259.35        80.67129
259.81        78.60715
260.27        76.46073
260.72        73.98669
261.18        71.76762
261.63        69.58134
262.09        67.96442
262.55         66.9435
263.00        66.28983
263.46        65.94455
263.91         65.5284
264.37        64.91136
264.83        63.98849
265.28         62.8335
265.74        61.59498
266.19        60.14158
266.65        58.63651
267.11        57.02035
267.56         55.4365
268.02        54.20035
268.47        53.26898
268.93        52.59435
269.38        51.92741
269.84        50.86967
270.30        49.41502
270.75         47.7338
271.21          46.202
271.66        45.22088
272.12        44.83964
272.57        44.82421
273.03        44.90271
273.48        44.67012
273.94        44.02681
274.39        43.11893
274.85        42.03642
275.31        40.79216
275.76        39.46093
276.22        38.13865
276.67        36.99865
277.13        36.40807
277.58        36.29428
278.04         36.5605
278.49         36.8665
278.95        36.74252
279.40        36.06128
279.86        35.08762
280.31        34.01924
280.77         33.2494
281.22        32.75493
281.68        32.45985
282.13        32.21345
282.59        31.89084
283.04        31.44038
283.50        30.96252
283.95        30.50253
284.41        30.15138
284.86         29.9167
285.32        29.80889
285.77        29.77477
286.22        29.80822
286.68        29.89976
287.13        29.98986
287.59        30.13294
288.04        30.34999
288.50        30.64894
288.95        30.98652
289.41        31.24932
289.86        31.20784
290.32        30.88724
290.77        30.37967
291.22        29.93203
291.68        29.88078
292.13        30.28931
292.59        31.09785
293.04        32.14949
293.50         33.1798
293.95        34.09142
294.40        34.96461
294.86        35.91875
295.31        37.13836
295.77        38.67651
296.22        40.44189
296.68        42.32288
297.13        44.12287
297.58        45.73584
298.04         47.2338
298.49        48.61258
298.95        49.95335
299.40        51.28645
299.85        52.61567
300.31        54.06498
300.76         55.7779
301.21        57.78091
301.67        60.04171
302.12        62.33993
302.58        64.36601
303.03        66.00706
303.48        67.35936
303.94        68.67818
304.39        70.25381
304.84        72.19933
305.30        74.41231
305.75        76.65356
306.20        78.60378
306.66        80.19855
307.11        81.49075
307.57         82.6851
308.02        83.93846
308.47        85.34982
308.93         86.8605
309.38         88.3577
309.83        89.77892
310.29        91.09675
310.74        92.31653
311.19        93.45627
311.65        94.51723
312.10        95.47206
312.55        96.31183
313.00         97.0211
313.46        97.60213
313.91        98.04615
314.36        98.41176
314.82        98.77007
315.27        99.19315
315.72         99.7201
316.18        100.3346
316.63        101.0122
317.08        101.7304
317.53        102.4666
317.99        103.2014
318.44        103.9136
318.89        104.5045
319.35        104.9455
319.80        105.2554
320.25        105.4775
320.70        105.7143
321.16        105.9792
321.61        106.2669
322.06        106.5412
322.51        106.7454
322.97         106.858
323.42        106.9403
323.87        106.9899
324.32        107.0131
324.78        107.0161
325.23         107.041
325.68         107.132
326.13        107.3798
326.59        107.7697
327.04        108.3255
327.49        108.9535
327.94        109.5366
328.39        110.0207
328.85         110.374
329.30        110.6758
329.75         110.918
330.20        111.1126
330.66        111.2282
331.11         111.318
331.56        111.3448
332.01        111.3351
332.46         111.329
332.92        111.3622
333.37        111.6128
333.82        112.0708
334.27         112.697
334.72        113.4345
335.17        114.1825
335.63        114.8481
336.08        115.4885
336.53        116.0198
336.98        116.3779
337.43        116.5631
337.88        116.6009
338.34         116.567
338.79        116.6191
339.24        116.8086
339.69        117.1354
340.14        117.5838
340.59        118.1084
341.05        118.6812
341.50        119.3118
341.95        119.9975
342.40        120.7509
342.85        121.5447
343.30        122.3344
343.75        123.0259
344.20         123.487
344.66        123.7158
345.11        123.7499
345.56        123.6916
346.01        123.6918
346.46        123.8101
346.91        124.0144
347.36        124.3157
347.81        124.7208
348.26        125.2084
348.72        125.7809
349.17          126.33
349.62        126.7081
350.07        126.8794
350.52        126.8692
350.97        126.7706
351.42        126.7524
351.87        126.8392
352.32        126.9528
352.77        127.0068
353.22        126.8681
353.67        126.5077
354.13        126.0261
354.58        125.4035
355.03        124.6778
355.48         123.905
355.93        123.1165
356.38        122.4269
356.83        122.0125
357.28        121.8874
357.73        121.9642
358.18        122.1266
358.63        122.1798
359.08        122.0403
359.53        121.7496
359.98        121.2523
360.43        120.4847
360.88        119.4641
361.33        118.2016
361.78        116.8966
362.23        115.8533
362.68        115.1366
363.13        114.7024
363.58        114.3015
364.03        113.5211
364.48        112.2978
364.93        110.7712
365.38        109.2899
365.83        108.3837
366.28        108.1451
366.73        108.3883
367.18        108.7302
367.63        108.5578
368.08        107.7143
368.53         106.392
368.98         104.921
369.43        103.7965
369.88         103.144
370.33        102.8154
370.78        102.5813
371.23        102.0739
371.68         101.203
372.13        100.1102
372.58        99.02131
373.03         98.2508
373.48        97.85593
373.93        97.71598
374.38        97.61172
374.83        97.20724
375.28        96.41795
375.72        95.32598
376.17        94.20518
376.62        93.30474
377.07        92.68201
377.52        92.26195
377.97        91.88956
378.42        91.33369
378.87        90.56404
379.32        89.67551
379.77        88.86361
380.22        88.38416
380.67        88.26236
381.11        88.42587
381.56        88.60564
382.01        88.43276
382.46        87.82253
382.91        86.89694
383.36        85.92651
383.81        85.30132
384.26        85.09268
384.71        85.18181
385.15        85.31246
385.60         85.1085
386.05        84.48096
386.50        83.56605
386.95        82.62566
387.40        82.04437
387.85        81.89606
388.29        82.00798
388.74        82.20796
389.19         82.0715
389.64        81.52315
390.09        80.69136
390.54        79.82914
390.98        79.25973
391.43         79.0898
391.88        79.32139
392.33        79.69672
392.78         79.4095
393.23        78.60197
393.67        78.35476
394.12        78.62479
394.57        78.20033
395.02        77.23044
395.47        76.88824
395.91        77.16756
396.36        77.16071
396.81        76.86182
397.26        76.77482
397.71        76.79641
398.15        76.62206
398.60        76.33884
399.05        75.72191
399.50        75.01891
399.95        75.14182
400.39         75.8912
400.84        75.78148
401.29        74.87067
401.74        74.41421
402.18        74.47069
402.63         74.3634
403.08        74.18274
403.53         73.7619
403.97        74.14757
404.42        74.35275
404.87        74.57325
405.32        74.58434
405.76         74.3397
406.21        74.01252
406.66        73.63042
407.11        73.13195
407.55        72.66987
408.00        72.46692
408.45        72.51387
408.90        72.73014
409.34        72.89701
409.79        72.49023
410.24        71.70375
410.68        71.35226
411.13        71.49683
411.58        71.67908
412.03        71.74523
412.47        71.66979
412.92        71.38927
413.37        70.93533
413.81        70.47708
414.26        70.33793
414.71        70.53085
415.15        71.01893
415.60        71.53648
416.05        71.70312
416.49        71.41899
416.94        70.82506
417.39        70.20789
417.83        69.97709
418.28         70.2241
418.73        70.80516
419.17        71.49277
419.62        71.84786
420.07        71.74154
420.51        71.28902
420.96        70.71138
421.41        70.19385
421.85        69.78144
422.30        69.66991
422.74        69.68729
423.19        69.32164
423.64        68.70322
424.08        68.79208
424.53        69.51819
424.98        69.95425
425.42        70.01679
425.87        70.33025
426.31        70.85204
426.76        70.85931
427.21        70.50749
427.65        70.74532
428.10        71.40446
428.54        71.53921
428.99        71.16861
429.44        70.66616
429.88        70.18417
430.33        70.15701
430.77        70.39289
431.22        70.26743
431.66        69.78893
432.11        69.59237
432.56        69.67454
433.00        69.89832
433.45        70.19717
433.89        70.89775
434.34        68.57965
434.78        71.61832
435.23        70.24449
435.67        68.75006
436.12        68.69951
436.57        68.94759
437.01        70.32999
437.46        70.86558
437.90        70.52593
438.35        69.98232
438.79        70.00375
439.24        69.83049
439.68        69.65435
440.13        69.86672
440.57        70.35359
441.02        70.07598
441.46        69.19595
441.91        69.65811
442.35         70.9446
442.80        70.45557
443.24        68.64855
443.69        68.81905
444.13        70.68565
444.58         71.2888
445.02        70.49168
445.47        69.89039
445.91        69.70773
446.36        69.66838
446.80        69.80499
447.24         70.1878
447.69        70.64014
448.13        70.85863
448.58        70.79968
449.02        70.57201
449.47        70.30006
449.91        70.09504
450.36        70.02383
450.80        70.03498
451.25        70.10474
451.69        70.13802
452.13        70.12506
452.58        70.13431
453.02        70.13113
453.47        70.06054
453.91        69.90581
454.36        69.68369
454.80        69.43807
455.24        69.28362
455.69         69.2588
456.13        69.30247
456.58        69.30697
457.02        69.43157
457.46        68.77438
457.91        68.73321
458.35        68.89474
458.79        69.03382
459.24        69.07366
459.68        68.55706
460.13        67.64913
460.57        67.86711
461.01        67.80807
461.46        67.46241
461.90        68.01201
462.34        67.72614
462.79        67.18111
463.23        66.81534
463.68         66.7292
464.12        66.72758
464.56        66.73655
465.01        66.73694
465.45        66.67836
465.89        66.71172
466.34        66.82179
466.78         66.9407
467.22        67.04166
467.67        66.81091
468.11        66.40311
468.55        66.39164
468.99        66.72239
469.44        66.76196
469.88        66.49145
470.32        66.27949
470.77        66.17777
471.21        66.11163
471.65        66.07217
472.10        66.07336
472.54        66.07836
472.98        66.01102
473.42        65.85011
473.87        65.77155
474.31        65.69228
474.75        65.24457
475.20        64.61486
475.64        64.48247
476.08        64.80805
476.52        64.92478
476.97         64.7826
477.41        64.80316
477.85        65.00644
478.29        65.09633
478.74        65.07241
479.18        65.40282
479.62        65.29089
480.06        65.25151
480.50        65.00433
480.95         64.8783
481.39        64.94321
481.83        64.17735
482.27        64.28032
482.72         64.5905
483.16         64.3655
483.60        64.47372
484.04        64.62089
484.48        64.36623
484.93         63.7684
485.37        64.78301
485.81        65.26452
486.25        65.12064
486.69        66.94369
487.14         67.0648
487.58        64.42658
488.02        63.84291
488.46         65.1955
488.90        63.67008
489.34        64.30852
489.79        64.66946
490.23        64.36098
490.67        64.60791
491.11        64.79939
491.55        64.72923
491.99        64.38544
492.43        64.16355
492.88         64.1152
493.32        64.11288
493.76        64.11578
494.20        64.07839
494.64        63.97314
495.08        63.90302
495.52        63.91481
495.96        63.79312
496.41        63.63102
496.85        64.08119
497.29        64.88265
497.73        64.80245
498.17        63.94938
498.61        63.62336
499.05        63.88955
499.49        63.88666
499.93        63.60443
500.37        63.50643
500.82        63.57478
501.26         63.5166
501.70          63.493
502.14        63.37459
502.58        63.25967
503.02        63.23453
503.46        63.31082
503.90         63.4445
504.34        63.56543
504.78        63.57469
505.22        63.44494
505.66        63.21926
506.10        62.96466
506.54        62.82676
506.98        62.84204
507.42         63.0577
507.86        62.81418
508.30        63.46117
508.74        62.97097
509.18        62.87846
509.62        62.71162
510.06        62.65162
510.50        62.71815
510.94         62.8757
511.38        63.05432
511.82        63.09129
512.26        62.95824
512.70        62.71367
513.14        62.43539
513.58        62.24263
514.02        62.16715
514.46        62.16409
514.90         62.2066
515.34           62.25
515.78        62.27607
516.22        62.31392
516.66        62.33228
517.10        62.27639
517.54        62.14702
517.98        61.95449
518.42        61.79218
518.86        61.80488
519.30        62.01094
519.74        62.38597
520.18        62.79729
520.62        62.95929
521.06        62.84974
521.50        62.68537
521.93        62.53212
522.37        62.38516
522.81        62.27589
523.25        62.24231
523.69        62.27129
524.13        62.30207
524.57        62.32246
525.01        62.36895
525.45        62.40697
525.89        62.37394
526.32        62.26263
526.76        62.09142
527.20        61.94453
527.64        61.96614
528.08        62.17524
528.52        62.52198
528.96        62.87757
529.40        63.03861
529.83        62.94721
530.27        62.67529
530.71        62.34102
531.15        62.13794
531.59        62.11513
532.03        62.22422
532.46        62.35863
532.90        62.34849
533.34        62.16994
533.78        61.90339
534.22        61.66354
534.66        61.61258
535.09        61.76389
535.53        62.04823
535.97        62.38108
536.41        62.58494
536.85        62.60009
537.28        62.64746
537.72        62.68734
538.16        62.27031
538.60        61.61856
539.04        61.59587
539.47        62.10814
539.91        62.31343
540.35        62.17155
540.79        62.16318
541.22        62.25303
541.66        62.28167
542.10        62.26754
542.54        61.82246
542.97         61.6745
543.41        61.69209
543.85        61.97477
544.29        61.99779
544.72        61.76836
545.16        61.69852
545.60        61.77215
546.04        61.81861
546.47        61.79811
546.91        61.66948
547.35        61.49751
547.79        61.48663
548.22        61.63023
548.66        61.83985
549.10        62.04132
549.53        62.16816
549.97        62.19398
550.41        62.18649
550.84        62.12353
551.28         61.9863
551.72        61.81166
552.15        61.54988
552.59        61.22571
553.03         61.4221
553.46        61.08187
553.90        61.13185
554.34        61.22095
554.77        61.32915
555.21         61.4547
555.65        61.47049
556.08        61.66945
556.52        61.77803
556.96        61.84975
557.39        61.84816
557.83        61.80748
558.27        61.70988
558.70        61.59235
559.14        61.62819
559.57        61.75716
560.01        61.72031
560.45        61.55741
560.88        61.54314
561.32        61.67532
561.75        61.77961
562.19         61.8539
562.63        61.64812
563.06        61.27838
563.50        61.54913
563.93        62.25083
564.37        62.08419
564.80        61.20978
565.24        61.08723
565.68        61.63114
566.11        61.77688
566.55        61.52711
566.98        61.38762
567.42        61.40567
567.85        61.65779
568.29        61.69076
568.72        61.73188
569.16        61.74243
569.60        61.77566
570.03        61.79388
570.47        62.02935
570.90        62.28301
571.34        61.80358
571.77        62.71804
572.21        62.22183
572.64        62.23786
573.08        62.08599
573.51        62.65497
573.95        62.46022
574.38        61.99156
574.82        61.35328
