SpectraSmart Spectrum 2.9.0.0
--------- Device Information -----------
Spectrum Name :  反射率_0
Saving Time :  2024/05/03 20:15:02
Spectro-Module Model Name : SE2030-DUVN
Spectro-Module Serial Number : OS361AC55029948
Wavelength Start : 200
Wavelength End : 1025
Wavelength Unit : Wavelength(nm)
Spectrum Unit : Reflectance(%)
-----------Spectrum Setting ------------
Integration Time : 20ms
Average : 10
Boxcar : 0
Background removal :  enabled
linearity correction :  enabled
SC :  disabled
Intensity correction :  disabled
DWT denoise :  enabled
savitzky-golay :  disabled
FFT :  disabled
Running average :  disabled
Kalman :  disabled
High pass :  disabled
---------------BEGIN--------------------
Wavelength(nm)             Reflectance(%)
200.29               0
200.75       -12.86865
201.21       -4.293589
201.67       -414.4745
202.13       -19.25539
202.58       -5.332831
203.04        4.784334
203.50         12.8333
203.96        18.28141
204.42        22.41419
204.88        30.75367
205.34       -203.7611
205.80         3.33913
206.26        13.08161
206.72        2788.817
207.18       -6.334164
207.64       -5.772353
208.10       -12.59863
208.55       -34.21113
209.01       -230.2753
209.47       -244.6727
209.93       -12.07302
210.39        7.254204
210.85        13.15556
211.31        18.77893
211.77        27.88818
212.23        48.66329
212.69        99.64103
213.14        131.3456
213.60        61.24038
214.06        16.43566
214.52      -0.5477413
214.98       -4.761982
215.44       -1.031734
215.90        23.31127
216.36       -344.1939
216.81        -88.2991
217.27       -89.14578
217.73       -136.0747
218.19       -423.7939
218.65       -7731.183
219.11       -549.0463
219.57       -148.6767
220.02       -88.21374
220.48       -150.2255
220.94        170.1751
221.40        52.85946
221.86        35.69484
222.32        31.01593
222.77        30.24718
223.23        31.98177
223.69        35.20679
224.15        34.80974
224.61        29.44345
225.06        23.85601
225.52        20.87182
225.98        21.09682
226.44        24.07573
226.90        29.30111
227.36         36.8569
227.81        44.36436
228.27        48.45654
228.73        49.64792
229.19        47.60561
229.65        42.23561
230.10        35.12603
230.56        27.84421
231.02        22.26307
231.48        20.50328
231.93        22.09802
232.39        25.70493
232.85        29.97434
233.31         33.0518
233.77         34.4931
234.22        34.91577
234.68        34.71352
235.14        34.49531
235.60        34.58107
236.05        34.78789
236.51        35.22347
236.97         36.2854
237.43        37.90131
237.88        39.99969
238.34        42.42198
238.80        45.13424
239.26        48.62951
239.71        55.84407
240.17         65.2962
240.63        76.54527
241.08        82.11787
241.54        78.04222
242.00        70.79067
242.46        69.91023
242.91        78.26031
243.37        97.81682
243.83        134.1024
244.28        174.1148
244.74        179.2776
245.20        150.2935
245.66        109.2334
246.11        75.77152
246.57          53.135
247.03        36.17206
247.48        26.71677
247.94        26.36034
248.40        33.77569
248.85        48.40781
249.31        65.75135
249.77        72.83733
250.22        67.38007
250.68         56.4542
251.14        47.54005
251.59         47.1163
252.05        56.41434
252.51        76.38866
252.96        107.4631
253.42        134.8511
253.88        140.9234
254.33        128.9993
254.79        110.9534
255.25        96.70826
255.70        87.83275
256.16        82.64986
256.62        79.51639
257.07        77.51171
257.53        76.44836
257.99        75.59346
258.44        74.46725
258.90         73.2142
259.35        71.42456
259.81        69.79062
260.27        67.95103
260.72        65.60577
261.18        63.35596
261.63        61.10363
262.09        59.40493
262.55        58.39379
263.00        57.83229
263.46        57.54603
263.91        57.20427
264.37        56.69355
264.83        55.89085
265.28        54.89481
265.74        53.65589
266.19        51.80668
266.65        49.54948
267.11        46.98885
267.56        44.60136
268.02        43.14482
268.47        42.64329
268.93        42.86987
269.38        43.31019
269.84        43.09233
270.30        42.02559
270.75         40.3982
271.21        38.69363
271.66        37.49239
272.12        36.91447
272.57        36.69231
273.03        36.56379
273.48        36.15956
273.94        35.40182
274.39        34.46086
274.85        33.46757
275.31        32.48824
275.76        31.56876
276.22        30.73144
276.67         30.0352
277.13        29.68084
277.58        29.59001
278.04        29.71074
278.49        29.80346
278.95         29.5563
279.40        28.89795
279.86        28.03958
280.31        27.12562
280.77        26.45046
281.22         25.9934
281.68         25.7004
282.13        25.48423
282.59        25.28961
283.04        25.07378
283.50        24.89116
283.95        24.71361
284.41        24.51842
284.86        24.29981
285.32        24.09579
285.77        23.93514
286.22        23.92567
286.68        24.08039
287.13         24.3157
287.59        24.60438
288.04        24.86226
288.50        25.07941
288.95        25.25463
289.41        25.36483
289.86        25.32669
290.32         25.1779
290.77        24.95154
291.22        24.78075
291.68        24.84291
292.13        25.17923
292.59        25.78989
293.04         26.5957
293.50        27.46131
293.95        28.32732
294.40        29.21813
294.86        30.23048
295.31         31.5221
295.77        33.12664
296.22        34.97911
296.68        36.90947
297.13        38.61808
297.58        40.00259
298.04        41.17402
298.49        42.27377
298.95        43.59134
299.40        45.19298
299.85        47.01106
300.31         49.0204
300.76         51.1331
301.21        53.31721
301.67        55.60927
302.12        57.89931
302.58        60.04543
303.03        61.97333
303.48        63.70775
303.94        65.42302
304.39        67.30991
304.84        69.45839
305.30        71.80893
305.75         74.1734
306.20        76.29646
306.66        78.13539
307.11        79.73388
307.57         81.2603
308.02        82.82444
308.47        84.51974
308.93        86.29836
309.38        88.10899
309.83         89.9829
310.29        91.89316
310.74        93.79771
311.19        95.59807
311.65        97.11225
312.10        98.26885
312.55        99.11488
313.00         99.7405
313.46        100.3161
313.91        100.8826
314.36        101.4569
314.82        102.0573
315.27        102.6684
315.72        103.3048
316.18        103.9832
316.63        104.7157
317.08        105.5323
317.53        106.4206
317.99        107.3365
318.44        108.2182
318.89         108.902
319.35        109.3464
319.80        109.5988
320.25        109.7435
320.70        109.9488
321.16        110.2444
321.61        110.5984
322.06         110.964
322.51        111.2641
322.97        111.4649
323.42        111.6456
323.87        111.7619
324.32        111.7536
324.78          111.62
325.23        111.4132
325.68        111.2793
326.13        111.4816
326.59        112.0395
327.04        112.9377
327.49        113.9281
327.94        114.6303
328.39        114.9254
328.85        114.8524
329.30        114.6729
329.75        114.6878
330.20        114.9968
330.66        115.4751
331.11        116.0118
331.56        116.2922
332.01         116.257
332.46        116.0268
332.92        115.7472
333.37        115.7861
333.82        116.1963
334.27        116.8806
334.72        117.7132
335.17        118.4831
335.63        119.0629
336.08        119.5566
336.53        119.9369
336.98        120.2254
337.43        120.4429
337.88        120.5789
338.34         120.654
338.79        120.7435
339.24         120.876
339.69        121.0798
340.14        121.3747
340.59        121.7736
341.05        122.2639
341.50        122.8278
341.95        123.4559
342.40        124.1495
342.85        124.8765
343.30        125.6137
343.75        126.2333
344.20        126.5448
344.66        126.5486
345.11        126.2973
345.56        125.9919
346.01        125.9372
346.46        126.2072
346.91        126.7105
347.36        127.3163
347.81         127.807
348.26        128.1121
348.72        128.3078
349.17        128.4069
349.62        128.4587
350.07        128.4872
350.52        128.4605
350.97        128.4103
351.42        128.4077
351.87        128.4441
352.32        128.4771
352.77        128.4447
353.22         128.244
353.67        127.8587
354.13        127.3787
354.58        126.7628
355.03        126.0248
355.48        125.2132
355.93        124.3549
356.38        123.6029
356.83        123.1953
357.28        123.1435
357.73        123.3321
358.18        123.5532
358.63        123.4675
359.08        122.9727
359.53        122.1748
359.98        121.1367
360.43        119.9727
360.88        118.7603
361.33        117.4769
361.78        116.2622
362.23        115.3228
362.68        114.6842
363.13        114.3097
363.58        113.9831
364.03        113.3477
364.48        112.3283
364.93        111.0197
365.38         109.669
365.83        108.6581
366.28        108.0676
366.73         107.786
367.18        107.5568
367.63        106.9763
368.08        105.9588
368.53         104.638
368.98        103.3051
369.43        102.3843
369.88        101.9593
370.33        101.9026
370.78        101.9112
371.23        101.4887
371.68        100.5211
372.13        99.17242
372.58        97.78667
373.03        96.87702
373.48        96.54147
373.93        96.60059
374.38        96.73097
374.83        96.41253
375.28        95.51424
375.72        94.19535
376.17        92.79836
376.62        91.66755
377.07        90.89125
377.52        90.35394
377.97        89.91237
378.42        89.36755
378.87        88.68697
379.32        87.91852
379.77        87.17575
380.22        86.69928
380.67        86.51982
381.11        86.14819
381.56        86.16917
382.01        85.73301
382.46        85.03833
382.91        84.15622
383.36        83.30477
383.81        82.77657
384.26        82.60986
384.71        82.71693
385.15        82.87758
385.60        82.77089
386.05        82.31065
386.50         81.5989
386.95        80.83297
387.40        80.31033
387.85        80.09096
388.29        80.03426
388.74        80.03613
389.19        79.77097
389.64        79.18513
390.09        78.38585
390.54        77.56968
390.98        76.97043
391.43         76.6858
391.88        76.75416
392.33         76.9906
392.78        76.71587
393.23        76.06973
393.67         76.0257
394.12        76.49131
394.57        76.24963
395.02        75.40671
395.47        75.06026
395.91        75.22201
396.36         75.1039
396.81        74.71857
397.26        74.50514
397.71        74.39865
398.15        74.15818
398.60        73.87373
399.05        73.36212
399.50        72.78985
399.95        72.85942
400.39        73.40744
400.84        73.17358
401.29        72.26707
401.74        71.92746
402.18         72.1504
402.63        72.04359
403.08        71.69424
403.53        71.18565
403.97        71.54237
404.42        71.65746
404.87        71.73295
405.32        71.67548
405.76        71.45222
406.21        71.14149
406.66        70.78837
407.11        70.45806
407.55        70.23333
408.00         70.1284
408.45        70.12224
408.90        70.20045
409.34        70.23727
409.79        69.93527
410.24        69.41361
410.68        69.13248
411.13        69.13644
411.58        69.18168
412.03        69.17227
412.47        69.07594
412.92        68.84848
413.37        68.51655
413.81        68.20347
414.26        68.16664
414.71        68.40472
415.15        68.89436
415.60        69.38647
416.05        69.52915
416.49        69.23625
416.94        68.64345
417.39        68.03117
417.83        67.80058
418.28        68.04485
418.73        68.62835
419.17        69.34274
419.62         69.7765
420.07        69.79559
420.51        69.49663
420.96        69.06622
421.41         68.6276
421.85        68.21452
422.30        68.08782
422.74        68.08888
423.19        67.61511
423.64        66.85756
424.08         67.0163
424.53         67.9757
424.98        68.48807
425.42        68.43662
425.87        68.63178
426.31        69.06449
426.76        68.98471
427.21        68.56126
427.65        68.75287
428.10        69.41776
428.54        69.62257
428.99        69.38809
429.44        69.12186
429.88        68.88408
430.33        68.92019
430.77        69.07887
431.22         68.7663
431.66        68.34505
432.11        68.21443
432.56        68.43744
433.00        68.77929
433.45        69.02505
433.89        69.36891
434.34        66.90839
434.78        69.13316
435.23        69.51154
435.67        68.55997
436.12        67.69581
436.57        67.67283
437.01        69.04272
437.46        69.78482
437.90        69.71546
438.35        68.36523
438.79        69.16263
439.24        68.88224
439.68        68.56952
440.13        68.42881
440.57        68.53534
441.02        68.64758
441.46        68.65387
441.91         69.1132
442.35        69.68571
442.80        69.21738
443.24         68.0534
443.69        68.25353
444.13        69.58612
444.58        69.98988
445.02        69.36051
445.47        68.89197
445.91         68.7815
446.36         68.7895
446.80        68.91859
447.24        69.55198
447.69        69.91972
448.13        70.19279
448.58        70.14001
449.02        69.83958
449.47        69.44773
449.91        69.18286
450.36        69.12909
450.80        69.18338
451.25         69.2918
451.69        69.32716
452.13        69.26875
452.58        69.19324
453.02         69.0951
453.47        68.97404
453.91        68.82447
454.36        68.64153
454.80        68.47829
455.24        68.40795
455.69        68.44678
456.13        68.63866
456.58        68.86903
457.02        68.72903
457.46        68.24359
457.91        67.99969
458.35        67.96503
458.79         67.9765
459.24        67.95024
459.68        67.64144
460.13        67.18433
460.57        66.96016
461.01        67.03508
461.46        67.07026
461.90        66.96094
462.34        67.15292
462.79         66.7625
463.23         66.5792
463.68        66.41167
464.12        66.32449
464.56        66.29034
465.01        66.37808
465.45        66.46521
465.89        66.29456
466.34        65.96752
466.78        65.99127
467.22         66.3271
467.67        66.21759
468.11        65.76222
468.55        65.69442
468.99        65.99824
469.44        66.08335
469.88        65.93423
470.32        65.85246
470.77        65.85127
471.21        65.83805
471.65        65.79705
472.10        65.74838
472.54        65.67873
472.98        65.57457
473.42        65.43246
473.87        65.35039
474.31        65.26082
474.75        64.95537
475.20         64.5399
475.64        64.39188
476.08        64.51254
476.52         64.5332
476.97         64.4254
477.41        64.55994
477.85        64.59029
478.29        64.79125
478.74        64.81741
479.18        64.91965
479.62        65.08187
480.06        65.03911
480.50        64.70933
480.95        64.75412
481.39        65.32816
481.83        63.88192
482.27        64.44286
482.72        65.10196
483.16         64.6623
483.60        64.82254
484.04         64.9977
484.48        64.56718
484.93        63.63648
485.37        64.85268
485.81        65.62473
486.25         65.0423
486.69        66.93755
487.14        66.64748
487.58        64.30032
488.02         64.0087
488.46        65.17034
488.90        63.67382
489.34        64.35833
489.79        64.19773
490.23        64.72414
490.67        64.94417
491.11        64.88425
491.55        64.78572
491.99          64.647
492.43        64.50623
492.88        64.37583
493.32        64.30002
493.76        64.27576
494.20        64.22403
494.64        64.11613
495.08        64.17258
495.52        64.35952
495.96        64.05634
496.41        63.47355
496.85         63.9262
497.29        65.11071
497.73        65.18073
498.17        64.24867
498.61         63.8856
499.05        64.20675
499.49        64.30668
499.93        64.13636
500.37         64.0891
500.82        64.10802
501.26        63.89737
501.70        63.53473
502.14        63.41285
502.58        63.53603
503.02        63.57198
503.46        63.54951
503.90        63.63741
504.34        63.79977
504.78        63.84551
505.22        63.74899
505.66        63.57378
506.10        63.35718
506.54        63.23391
506.98         63.2421
507.42        63.34835
507.86        62.98122
508.30         63.7302
508.74        63.20864
509.18        63.24323
509.62         63.1969
510.06        63.18055
510.50        63.19485
510.94        63.23648
511.38        63.29012
511.82        63.27243
512.26         63.1782
512.70        63.03419
513.14        62.87585
513.58        62.78187
514.02        62.76917
514.46        62.76299
514.90        62.73288
515.34        62.86936
515.78        62.77998
516.22        62.79591
516.66        62.78066
517.10          62.705
517.54        62.57284
517.98        62.39762
518.42        62.26826
518.86        62.31855
519.30        62.56307
519.74        62.94884
520.18        63.34866
520.62        63.55417
521.06        63.51107
521.50        63.28339
521.93         62.9635
522.37        62.71817
522.81        62.59555
523.25        62.55172
523.69        62.55976
524.13        62.57452
524.57        62.58054
525.01        62.60612
525.45        62.64368
525.89        62.67287
526.32         62.6855
526.76        62.68173
527.20        62.68622
527.64        62.75029
528.08        62.87894
528.52        63.05693
528.96        63.22301
529.40        63.28263
529.83        63.20657
530.27        63.03157
530.71        62.83398
531.15        62.74113
531.59        62.77972
532.03        62.92289
532.46        63.06652
532.90        63.04479
533.34        62.83828
533.78        62.51889
534.22        62.22074
534.66        62.13771
535.09        62.28924
535.53        62.60589
535.97        62.97121
536.41        63.15276
536.85        63.08191
537.28        62.99468
537.72        62.90784
538.16        62.46145
538.60        61.89121
539.04        62.03428
539.47        62.72256
539.91        62.98363
540.35        62.74588
540.79        62.56401
541.22        62.49171
541.66         62.4216
542.10        62.38223
542.54        62.30563
542.97         62.2115
543.41        62.37578
543.85        62.68328
544.29        62.65966
544.72         62.3376
545.16        62.19571
545.60        62.24322
546.04        62.24103
546.47        62.17069
546.91        62.11213
547.35        62.08132
547.79        62.09739
548.22        62.15962
548.66        62.29963
549.10        62.47736
549.53        62.64986
549.97        62.77022
550.41        62.81083
550.84        62.75068
551.28        62.61088
551.72        62.42347
552.15        62.20004
552.59        61.98659
553.03        61.95201
553.46        61.78096
553.90        61.82132
554.34        61.93829
554.77        62.13492
555.21        62.23755
555.65        62.38383
556.08         62.5033
556.52        62.57905
556.96        62.59127
557.39        62.55427
557.83        62.50718
558.27        62.40083
558.70        62.26437
559.14        62.29121
559.57        62.42199
560.01        62.33607
560.45        62.09891
560.88        62.15021
561.32        62.44773
561.75        62.53253
562.19        62.43285
562.63        62.26686
563.06         62.1273
563.50        62.38583
563.93        62.89489
564.37        62.90553
564.80        62.47224
565.24        62.41904
565.68        62.69574
566.11        62.76199
566.55         62.6322
566.98        62.48691
567.42        62.37394
567.85        62.55803
568.29        62.57431
568.72        62.52331
569.16        62.38597
569.60        62.37699
570.03        62.44646
570.47        62.64404
570.90        62.96244
571.34        62.58185
571.77        63.34936
572.21        63.02074
572.64        63.18199
573.08        62.63523
573.51        63.22884
573.95        63.01381
574.38        62.72786
574.82        62.32391
