SpectraSmart Spectrum 2.9.0.0
--------- Device Information -----------
Spectrum Name :  反射率_0
Saving Time :  2024/05/03 20:13:07
Spectro-Module Model Name : SE2030-DUVN
Spectro-Module Serial Number : OS361AC55029948
Wavelength Start : 200
Wavelength End : 1025
Wavelength Unit : Wavelength(nm)
Spectrum Unit : Reflectance(%)
-----------Spectrum Setting ------------
Integration Time : 20ms
Average : 10
Boxcar : 0
Background removal :  enabled
linearity correction :  enabled
SC :  disabled
Intensity correction :  disabled
DWT denoise :  enabled
savitzky-golay :  disabled
FFT :  disabled
Running average :  disabled
Kalman :  disabled
High pass :  disabled
---------------BEGIN--------------------
Wavelength(nm)             Reflectance(%)
200.29               0
200.75       -50.35803
201.21       -96.66226
201.67        3147.268
202.13        118.0282
202.58        73.31004
203.04        59.80252
203.50        56.43509
203.96        61.43797
204.42         78.9597
204.88        148.9654
205.34       -2353.877
205.80        -191.303
206.26       -184.9488
206.72       -36997.39
207.18        112.8578
207.64        66.28641
208.10        65.14346
208.55        105.3848
209.01        571.3196
209.47        915.6087
209.93        179.5638
210.39        100.1579
210.85        78.26242
211.31        72.67702
211.77          74.681
212.23         86.0766
212.69        115.5799
213.14        123.6399
213.60        71.46404
214.06        44.56074
214.52        37.04504
214.98        39.36767
215.44        52.67809
215.90        109.9664
216.36       -704.8991
216.81       -134.9135
217.27       -131.9423
217.73       -216.6735
218.19       -756.8187
218.65       -15238.52
219.11       -1159.258
219.57       -338.8205
220.02       -217.1395
220.48       -374.3764
220.94        406.0148
221.40        117.4101
221.86        75.56355
222.32        66.77554
222.77        70.65867
223.23        85.83266
223.69        111.9439
224.15        127.0195
224.61        114.7293
225.06        91.98672
225.52        76.82867
225.98         75.9508
226.44        87.69037
226.90        110.4105
227.36        139.4512
227.81        155.4435
228.27        147.5018
228.73        126.6109
229.19        105.0429
229.65        91.77004
230.10        86.02629
230.56        84.46416
231.02        84.43166
231.48        83.79484
231.93        82.25716
232.39        80.99152
232.85        80.40271
233.31        81.15165
233.77        83.31482
234.22        86.32658
234.68        90.03559
235.14        94.29918
235.60        98.93502
236.05        104.2885
236.51        109.0797
236.97        111.0812
237.43        109.8052
237.88        105.9927
238.34        102.2799
238.80        102.2596
239.26        107.4572
239.71         120.167
240.17        143.7263
240.63        170.8239
241.08        185.5346
241.54        178.8508
242.00        163.2797
242.46        157.8375
242.91        167.5677
243.37        193.0003
243.83        240.7914
244.28        292.2804
244.74        293.7988
245.20        249.9337
245.66        193.1959
246.11        149.8358
246.57        122.4655
247.03        103.0119
247.48        90.80457
247.94        84.97611
248.40        83.63728
248.85        86.82178
249.31         91.8648
249.77        92.19656
250.22        87.54717
250.68         81.7108
251.14        78.88057
251.59        83.72831
252.05        98.19265
252.51        124.8371
252.96        165.9104
253.42        205.8209
253.88        222.2646
254.33         215.279
254.79        196.0372
255.25        175.9022
255.70        160.0914
256.16        149.6163
256.62        143.4871
257.07        141.2035
257.53        142.1405
257.99        144.2137
258.44        145.8824
258.90        146.5245
259.35        145.2719
259.81        143.8162
260.27        141.6751
260.72        138.4483
261.18         135.331
261.63        131.8622
262.09        129.3432
262.55        128.1273
263.00        127.7609
263.46        128.0472
263.91        128.0086
264.37        127.0141
264.83        124.8815
265.28        122.0132
265.74        118.9515
266.19        115.7474
266.65        112.8027
267.11        109.9049
267.56        107.3197
268.02        105.6578
268.47        104.7865
268.93        104.5817
269.38        104.4213
269.84        103.2782
270.30        101.0227
270.75         98.0251
271.21        95.05727
271.66        92.99542
272.12        92.01328
272.57        91.66724
273.03        91.55299
273.48        91.03606
273.94        89.97133
274.39        88.58886
274.85        86.98625
275.31        85.07059
275.76        82.91364
276.22        80.70119
276.67        78.71222
277.13        77.62989
277.58        77.30313
278.04         77.5545
278.49        77.77727
278.95        77.15662
279.40        75.50891
279.86        73.37151
280.31        71.09381
280.77        69.38529
281.22        68.19109
281.68         67.3899
282.13        66.75762
282.59        66.16949
283.04        65.50423
283.50        64.89352
283.95        64.27582
284.41        63.66342
284.86        63.01815
285.32        62.41618
285.77        61.84078
286.22         61.4058
286.68        61.14751
287.13        60.93411
287.59        60.84109
288.04        60.84172
288.50        60.94724
288.95        61.10479
289.41         61.1619
289.86        60.79121
290.32        60.03919
290.77        59.01216
291.22        58.06928
291.68         57.6915
292.13        57.94814
292.59        58.75085
293.04        59.85077
293.50        60.84354
293.95        61.59156
294.40        62.21583
294.86        62.93227
295.31        64.03978
295.77        65.61526
296.22        67.51544
296.68        69.52684
297.13        71.29759
297.58         72.6834
298.04        73.83172
298.49        74.82249
298.95        75.89619
299.40        77.09512
299.85        78.37261
300.31        79.80241
300.76        81.43447
301.21        83.27184
301.67        85.32003
302.12        87.33942
302.58         89.0218
303.03        90.25368
303.48        91.14095
303.94        92.01214
304.39        93.22303
304.84        94.90159
305.30        96.91885
305.75        98.94917
306.20        100.5587
306.66         101.684
307.11        102.4263
307.57        103.0785
308.02        103.8839
308.47        104.9759
308.93        106.2578
309.38        107.5974
309.83        108.9266
310.29        110.1951
310.74        111.3989
311.19        112.4905
311.65         113.367
312.10        113.9825
312.55        114.3595
313.00        114.5739
313.46        114.7726
313.91        114.9775
314.36          115.22
314.82        115.5037
315.27         115.783
315.72        116.0764
316.18        116.4105
316.63        116.8273
317.08        117.4119
317.53        118.1574
317.99        118.9873
318.44        119.8202
318.89        120.4539
319.35        120.8246
319.80        120.9901
320.25        120.9998
320.70         120.969
321.16        120.9288
321.61        120.8736
322.06        120.8335
322.51         120.865
322.97        120.9662
323.42        121.1746
323.87        121.3881
324.32        121.4458
324.78        121.3098
325.23        121.0731
325.68        120.8627
326.13        120.9167
326.59        121.2595
327.04        121.8718
327.49        122.6047
327.94        123.2533
328.39        123.7338
328.85        124.0487
329.30        124.2967
329.75        124.4755
330.20        124.6124
330.66        124.6633
331.11        124.7286
331.56        124.8411
332.01        125.0317
332.46        125.3097
332.92        125.6302
333.37        126.0496
333.82        126.5122
334.27        127.0114
334.72        127.5282
335.17        128.0371
335.63        128.4787
336.08        128.9001
336.53        129.2384
336.98        129.4676
337.43         129.591
337.88        129.6348
338.34        129.6182
338.79        129.6028
339.24        129.6157
339.69        129.6797
340.14        129.8429
340.59         130.168
341.05        130.6563
341.50        131.2923
341.95        132.0149
342.40        132.7411
342.85        133.4238
343.30        134.0531
343.75        134.5976
344.20        135.0244
344.66        135.3489
345.11        135.5573
345.56         135.689
346.01        135.8021
346.46        135.9263
346.91        136.0583
347.36        136.2255
347.81        136.4603
348.26        136.7615
348.72        137.1293
349.17        137.4796
349.62        137.7079
350.07        137.7855
350.52         137.727
350.97        137.6023
351.42        137.5366
351.87        137.5406
352.32        137.5502
352.77        137.4775
353.22         137.189
353.67        136.6652
354.13        136.0106
354.58        135.2337
355.03        134.4229
355.48        133.6401
355.93        132.9003
356.38         132.277
356.83         131.881
357.28        131.7066
357.73        131.6783
358.18        131.7055
358.63        131.6405
359.08        131.4108
359.53        131.0407
359.98        130.4501
360.43        129.5377
360.88        128.3167
361.33        126.8222
361.78        125.2794
362.23        124.0263
362.68        123.1415
363.13        122.5737
363.58        122.0682
364.03        121.2085
364.48        119.9172
364.93        118.3159
365.38        116.7519
365.83        115.7495
366.28        115.4002
366.73        115.5401
367.18        115.7335
367.63        115.2877
368.08        114.0532
368.53        112.2481
368.98        110.3683
369.43         109.161
369.88        108.7842
370.33        109.0166
370.78        109.3828
371.23          109.09
371.68        107.9426
372.13        106.2098
372.58        104.3863
373.03        103.2073
373.48        102.8334
373.93        103.0156
374.38        103.3424
374.83        103.1505
375.28        102.2629
375.72        100.8852
376.17        99.42605
376.62        98.31429
377.07        97.65227
377.52        97.28284
377.97        97.00563
378.42        96.52982
378.87        95.79006
379.32         94.9046
379.77        94.04426
380.22        93.41817
380.67        93.05373
381.11        92.89672
381.56        92.73442
382.01        92.30868
382.46        91.57925
382.91        90.65059
383.36        89.75889
383.81        89.23578
384.26        89.12733
384.71        89.31864
385.15        89.55755
385.60        89.47516
386.05        88.97337
386.50        88.17366
386.95        87.29901
387.40        86.68418
387.85        86.40646
388.29        86.31963
388.74        86.32254
389.19        86.07832
389.64        85.52971
390.09        84.78403
390.54        84.04222
390.98        83.53461
391.43        83.34677
391.88        83.51864
392.33        83.83904
392.78        83.53339
393.23        82.76003
393.67        82.65923
394.12        83.13344
394.57        82.73577
395.02        81.65058
395.47        81.35045
395.91        81.80499
396.36        81.82716
396.81        81.39927
397.26        81.17941
397.71        81.10225
398.15        80.84421
398.60        80.50813
399.05        79.90392
399.50        79.24104
399.95           79.32
400.39        79.96805
400.84        79.83022
401.29        78.97643
401.74        78.62313
402.18        78.78368
402.63        78.64869
403.08        78.34997
403.53        77.90249
403.97        78.42211
404.42        78.74466
404.87        79.03458
405.32        79.04833
405.76        78.73447
406.21        78.27977
406.66        77.75397
407.11        77.19137
407.55        76.76469
408.00        76.59428
408.45        76.67603
408.90        77.08833
409.34        77.53284
409.79        77.16638
410.24        76.22028
410.68        75.82195
411.13        76.04617
411.58        76.25867
412.03        76.28043
412.47        76.13091
412.92        75.74913
413.37        75.17006
413.81        74.58756
414.26         74.3587
414.71        74.49697
415.15        74.95495
415.60         75.4593
416.05        75.61854
416.49        75.32812
416.94        74.74235
417.39         74.1226
417.83        73.83879
418.28        73.98225
418.73         74.4155
419.17        74.98085
419.62        75.35735
420.07        75.43407
420.51        75.27711
420.96        75.00003
421.41        74.63283
421.85        74.19141
422.30        73.91137
422.74        73.70855
423.19        73.24864
423.64        72.66862
424.08        72.79638
424.53        73.53281
424.98        73.98015
425.42         74.0343
425.87        74.36364
426.31        74.76274
426.76        74.72842
427.21        74.36253
427.65         74.5399
428.10        75.09911
428.54        75.20103
428.99        74.88598
429.44        74.40527
429.88         73.9417
430.33        74.16785
430.77         74.7889
431.22        74.75027
431.66        74.20229
432.11         74.0213
432.56        74.22912
433.00        74.47985
433.45        74.65255
433.89        75.08355
434.34        72.41833
434.78        75.42661
435.23         74.9304
435.67        73.65096
436.12        73.58769
436.57        73.61785
437.01        74.72512
437.46        75.35312
437.90        75.12336
438.35        74.20923
438.79         74.5808
439.24        74.24496
439.68         73.8247
440.13        73.68439
440.57        73.85616
441.02        73.69945
441.46         73.2719
441.91        73.90321
442.35        75.06911
442.80        74.71728
443.24        73.22464
443.69        73.30453
444.13        74.76914
444.58        75.27279
445.02        74.69203
445.47        74.24825
445.91        74.14164
446.36        74.15707
446.80        74.29137
447.24        74.75574
447.69        75.42094
448.13        75.10721
448.58        75.32876
449.02        74.96237
449.47        74.62152
449.91        74.41515
450.36         74.4257
450.80         74.5742
451.25        74.77692
451.69        74.88859
452.13        74.87309
452.58        74.79039
453.02        74.65772
453.47        74.52561
453.91        74.39391
454.36        74.26003
454.80        74.16418
455.24        74.02574
455.69        73.83437
456.13        73.90546
456.58        74.28064
457.02         73.4481
457.46        73.70387
457.91        73.51258
458.35        73.47269
458.79        73.51595
459.24        73.55867
459.68        73.15777
460.13        72.44072
460.57        72.14111
461.01        72.38496
461.46         72.1652
461.90        71.83372
462.34        72.73547
462.79        71.70055
463.23         71.6289
463.68        71.58652
464.12        71.55788
464.56        71.51911
465.01        71.64345
465.45        71.81901
465.89        71.85918
466.34        71.78371
466.78        71.68438
467.22        71.61877
467.67        71.51844
468.11        71.44318
468.55         71.3958
468.99         71.3727
469.44        71.32337
469.88        71.25317
470.32        71.18587
470.77        71.11989
471.21         71.0659
471.65        71.00012
472.10        70.91109
472.54        70.81255
472.98        70.68872
473.42        70.52918
473.87        70.56435
474.31        70.64546
474.75        70.13968
475.20        69.27518
475.64        69.15086
476.08        69.72556
476.52        69.82226
476.97        69.34283
477.41        69.64955
477.85        69.77472
478.29        69.53803
478.74        69.50779
479.18        69.82759
479.62        70.22521
480.06        70.34531
480.50        70.00639
480.95        69.80474
481.39        69.85673
481.83        68.96168
482.27        69.35882
482.72          69.355
483.16        69.47211
483.60         69.5241
484.04        69.71893
484.48        69.39285
484.93        68.69941
485.37        69.82273
485.81        70.47861
486.25        69.96031
486.69        71.86694
487.14        71.47436
487.58        69.00202
488.02        68.78928
488.46        70.08025
488.90        68.48702
489.34        69.24019
489.79        69.14566
490.23        69.43935
490.67        69.62211
491.11        69.57404
491.55         69.3703
491.99        69.05299
492.43        68.88142
492.88        68.89291
493.32        69.03624
493.76        69.21837
494.20        69.28266
494.64        69.17994
495.08        69.05853
495.52        68.98454
495.96        68.73927
496.41        68.45671
496.85         68.8688
497.29        69.70777
497.73         69.6612
498.17        68.81857
498.61        68.50568
499.05        68.78793
499.49        68.78647
499.93        68.51054
500.37        68.47281
500.82        68.61416
501.26        68.61847
501.70        68.45356
502.14        68.21828
502.58        67.98571
503.02        67.86578
503.46        67.88489
503.90        67.99357
504.34        68.13187
504.78        68.21337
505.22        68.20975
505.66        68.13385
506.10         67.9956
506.54        67.92802
506.98        67.96939
507.42        67.87684
507.86         67.5845
508.30        68.11098
508.74        67.62082
509.18        67.60183
509.62        67.54193
510.06        67.54016
510.50        67.59139
510.94        67.69538
511.38        67.81019
511.82        67.81805
512.26        67.70469
512.70        67.50694
513.14        67.29352
513.58        67.17342
514.02        67.16898
514.46        67.23788
514.90        67.33556
515.34        67.38735
515.78        67.37211
516.22        67.32917
516.66        67.25475
517.10        67.14022
517.54        66.99947
517.98        66.82901
518.42        66.70681
518.86        66.76007
519.30         66.9994
519.74        67.38143
520.18        67.77158
520.62         67.9475
521.06         67.8575
521.50        67.56963
521.93        67.20619
522.37        66.98332
522.81        66.95244
523.25        67.04841
523.69        67.20081
524.13         67.2957
524.57        67.30126
525.01        67.26967
525.45        67.22079
525.89        67.17912
526.32        67.15436
526.76        67.13531
527.20         67.1489
527.64        67.25091
528.08        67.44048
528.52        67.69876
528.96        67.94575
529.40        68.05414
529.83        67.98615
530.27        67.78961
530.71        67.54815
531.15        67.40446
531.59        67.39267
532.03        67.48032
532.46        67.58028
532.90        67.55297
533.34        67.38233
533.78        67.13735
534.22        66.91445
534.66        66.85032
535.09        66.95359
535.53        67.16676
535.97        67.42651
536.41        67.58463
536.85        67.58982
537.28        67.66736
537.72        67.75564
538.16        67.33907
538.60        66.64585
539.04        66.61745
539.47        67.16238
539.91        67.37816
540.35         67.2183
540.79        67.23445
541.22        67.38406
541.66        67.39068
542.10        67.25056
542.54        66.94302
542.97         66.6044
543.41        66.70467
543.85        67.15519
544.29        67.38737
544.72        67.31684
545.16        67.28522
545.60        67.26495
546.04        67.04433
546.47        66.70431
546.91        66.51936
547.35        66.53491
547.79        66.65603
548.22        66.82566
548.66        67.04442
549.10        67.23486
549.53        67.37668
549.97        67.46888
550.41        67.46449
550.84        67.33639
551.28        67.52988
551.72        67.22179
552.15        67.04209
552.59        66.79281
553.03         66.5183
553.46        66.30299
553.90        66.21046
554.34         66.2891
554.77        66.68758
555.21        66.96326
555.65        66.93678
556.08        67.20326
556.52        67.15646
556.96        67.06114
557.39        67.02753
557.83        67.10896
558.27        67.16804
558.70        67.16576
559.14        67.25063
559.57        67.34134
560.01        67.11909
560.45        66.70502
560.88        66.66116
561.32        66.95929
561.75        67.04569
562.19        66.95943
562.63        66.86979
563.06        66.82877
563.50        67.20015
563.93        67.77831
564.37        67.58286
564.80        66.78605
565.24        66.68222
565.68        67.16738
566.11        67.27625
566.55        67.02168
566.98        66.72218
567.42        66.56834
567.85         66.9401
568.29        67.27453
568.72        67.27171
569.16        66.92899
569.60        66.87089
570.03        67.06979
570.47        67.27132
570.90        67.43758
571.34        67.17574
571.77        67.75146
572.21        67.44389
572.64        67.33457
573.08        67.03892
573.51        67.43738
573.95        67.39079
574.38         67.3524
574.82        66.70747
