SpectraSmart Spectrum 2.9.0.0
--------- Device Information -----------
Spectrum Name :  反射率_0
Saving Time :  2024/04/26 22:08:45
Spectro-Module Model Name : SE2030-DUVN
Spectro-Module Serial Number : OS361AC55029948
Wavelength Start : 200
Wavelength End : 1025
Wavelength Unit : Wavelength(nm)
Spectrum Unit : Reflectance(%)
-----------Spectrum Setting ------------
Integration Time : 20ms
Average : 10
Boxcar : 0
Background removal :  enabled
linearity correction :  enabled
SC :  disabled
Intensity correction :  disabled
DWT denoise :  enabled
savitzky-golay :  disabled
FFT :  disabled
Running average :  disabled
Kalman :  disabled
High pass :  disabled
---------------BEGIN--------------------
Wavelength(nm)             Reflectance(%)
200.29               0
200.75           32.82
201.21        31.65847
201.67        30.96455
202.13        30.60154
202.58        30.44481
203.04        31.18525
203.50        32.65011
203.96        33.81101
204.42        34.10336
204.88        33.13583
205.34        32.88507
205.80        36.98576
206.26        44.86005
206.72        53.67083
207.18        60.03557
207.64        61.46337
208.10        57.98898
208.55         49.9758
209.01        37.06896
209.47        27.17002
209.93        27.06482
210.39        32.72881
210.85        38.98499
211.31        43.80851
211.77        48.40191
212.23        55.67521
212.69        73.19774
213.14        110.4408
213.60        122.2125
214.06        106.1449
214.52        89.86362
214.98        77.75896
215.44        66.72858
215.90        54.33158
216.36        43.11619
216.81        37.86716
217.27        40.58447
217.73        52.23711
218.19        71.00385
218.65        80.51256
219.11        73.17442
219.57        59.42717
220.02        49.75092
220.48        49.51765
220.94        58.08203
221.40        75.89519
221.86        102.4756
222.32        120.9163
222.77        115.8149
223.23        98.25723
223.69        80.65312
224.15        70.09867
224.61        65.46324
225.06        63.30809
225.52         62.7593
225.98        62.77984
226.44         63.0522
226.90        64.07237
227.36        65.27901
227.81        65.53475
228.27         64.8539
228.73        63.36709
229.19        62.25645
229.65        63.01504
230.10        65.60151
230.56        69.55064
231.02        73.27203
231.48        74.23643
231.93        72.11895
232.39        68.35999
232.85         64.6819
233.31        63.35205
233.77        64.55022
234.22        67.38829
234.68        70.69789
235.14        72.73473
235.60        72.90672
236.05         71.7867
236.51        69.55596
236.97        66.85903
237.43        64.21086
237.88         61.5477
238.34        59.26418
238.80        58.18787
239.26        58.55401
239.71        60.87333
240.17        64.65349
240.63        68.38721
241.08        71.06089
241.54        72.15015
242.00         72.5882
242.46        74.90915
242.91        81.13248
243.37        91.52325
243.83        106.9398
244.28        122.1452
244.74        126.8058
245.20        119.5723
245.66        106.7179
246.11        94.21288
246.57        83.31228
247.03        72.30083
247.48        61.69366
247.94        54.31109
248.40        51.30237
248.85        51.06167
249.31        51.65505
249.77        50.98483
250.22        48.45627
250.68        43.97927
251.14        38.08487
251.59        34.02171
252.05        34.42827
252.51        38.34925
252.96        42.45221
253.42        43.78768
253.88        42.63579
254.33        40.07205
254.79        38.91631
255.25        41.52116
255.70         47.5024
256.16         55.7005
256.62        62.67172
257.07        63.25951
257.53        58.88211
257.99         52.9459
258.44        48.12254
258.90        46.70803
259.35        47.68705
259.81        50.02378
260.27        52.35139
260.72         53.0448
261.18        52.20844
261.63        50.42072
262.09        48.68402
262.55        47.58485
263.00        47.07838
263.46        47.00082
263.91        46.85122
264.37        46.27761
264.83        45.25829
265.28        43.98453
265.74        42.95733
266.19        42.52814
266.65        42.76838
267.11        43.41034
267.56        44.12956
268.02        44.41013
268.47        44.11332
268.93        43.44571
269.38        42.54747
269.84         41.6979
270.30         40.9782
270.75        40.27596
271.21         39.6895
271.66        39.31644
272.12        39.14977
272.57        39.16103
273.03         39.1157
273.48        38.61095
273.94          37.652
274.39        36.35959
274.85        35.11958
275.31        34.33251
275.76        34.03702
276.22        34.11453
276.67        34.29068
277.13        34.26627
277.58        33.91678
278.04        33.36746
278.49        32.71135
278.95        32.20189
279.40        31.83116
279.86        31.58032
280.31        31.26361
280.77        30.73463
281.22        29.95511
281.68        29.07782
282.13        28.24612
282.59        27.72949
283.04        27.52564
283.50        27.55555
283.95        27.65568
284.41        27.58547
284.86        27.27832
285.32        26.83607
285.77        26.34892
286.22        25.99955
286.68         25.8201
287.13        25.71537
287.59        25.62617
288.04        25.42406
288.50         25.1112
288.95        24.72312
289.41        24.32912
289.86         23.9629
290.32        23.67168
290.77        23.42175
291.22        23.23811
291.68        23.14686
292.13        23.13396
292.59        23.20584
293.04        23.31554
293.50        23.40763
293.95        23.46003
294.40        23.48836
294.86        23.53574
295.31        23.66478
295.77        23.89628
296.22        24.20774
296.68        24.55724
297.13        24.86592
297.58        25.12329
298.04        25.35224
298.49        25.60571
298.95        25.98202
299.40        26.48285
299.85         27.0647
300.31        27.64413
300.76        28.08945
301.21        28.37545
301.67        28.56126
302.12        28.68912
302.58        28.87557
303.03        29.12765
303.48        29.42323
303.94        29.75252
304.39        30.07417
304.84        30.38175
305.30        30.69787
305.75        30.97935
306.20        31.20699
306.66        31.38452
307.11        31.50013
307.57        31.59486
308.02         31.6937
308.47        31.81199
308.93        31.94757
309.38         32.0655
309.83        32.15498
310.29        32.21293
310.74        32.24221
311.19        32.24839
311.65        32.23389
312.10        32.19687
312.55        32.13378
313.00        32.06025
313.46        31.99979
313.91        31.94401
314.36        31.89567
314.82        31.82764
315.27        31.70498
315.72         31.5221
316.18        31.30359
316.63        31.07622
317.08        30.89566
317.53        30.77283
317.99        30.68353
318.44        30.61207
318.89        30.52122
319.35        30.39684
319.80        30.24932
320.25        30.07553
320.70        29.87087
321.16        29.63931
321.61        29.39593
322.06        29.15644
322.51        28.95084
322.97        28.78516
323.42        28.65436
323.87        28.56223
324.32        28.51849
324.78        28.50401
325.23        28.52506
325.68        28.51483
326.13        28.37291
326.59        28.08146
327.04        27.68275
327.49        27.25805
327.94        26.93936
328.39        26.75748
328.85        26.66729
329.30        26.63751
329.75        26.55602
330.20        26.39038
330.66        26.17133
331.11        25.94668
331.56        25.76861
332.01         25.6532
332.46        25.57505
332.92        25.49965
333.37        25.41624
333.82        25.30292
334.27        25.17529
334.72        25.04776
335.17        24.93793
335.63        24.85378
336.08        24.80824
336.53        24.79373
336.98        24.80841
337.43        24.84566
337.88        24.88861
338.34        24.94689
338.79        25.06326
339.24        25.22174
339.69        25.40915
340.14        25.53294
340.59        25.45062
341.05        25.15613
341.50        24.70138
341.95         24.2368
342.40        23.99029
342.85        24.01268
343.30        24.23771
343.75        24.54086
344.20        24.71321
344.66         24.6967
345.11        24.55266
345.56        24.36094
346.01        24.24899
346.46         24.2558
346.91        24.33582
347.36        24.44388
347.81        24.51918
348.26        24.54104
348.72        24.52986
349.17        24.50942
349.62        24.52456
350.07        24.58233
350.52        24.66799
350.97        24.72951
351.42        24.68796
351.87        24.53531
352.32         24.3044
352.77         24.0752
353.22        23.96293
353.67        23.98796
354.13        24.11443
354.58        24.26609
355.03        24.31837
355.48        24.23633
355.93        24.05939
356.38        23.84959
356.83        23.69986
357.28        23.63177
357.73        23.61196
358.18        23.59994
358.63        23.53344
359.08        23.39795
359.53         23.2214
359.98        23.03168
360.43        22.86531
360.88        22.72992
361.33        22.60754
361.78        22.49013
362.23        22.36787
362.68        22.23883
363.13        22.11573
363.58        21.98732
364.03        21.83195
364.48        21.65051
364.93        21.44785
365.38        21.26602
365.83        21.17513
366.28        21.18443
366.73        21.26744
367.18        21.36046
367.63        21.36389
368.08        21.25364
368.53        21.05877
368.98        20.82836
369.43        20.64236
369.88        20.52465
370.33        20.45198
370.78        20.39722
371.23        20.31642
371.68        20.19672
372.13        20.05605
372.58        19.91328
373.03        19.79418
373.48        19.70407
373.93        19.63005
374.38         19.5567
374.83         19.4627
375.28        19.34338
375.72        19.20425
376.17        19.06768
376.62        18.94091
377.07        18.83078
377.52        18.73698
377.97        18.66171
378.42        18.61127
378.87        18.58211
379.32        18.56248
379.77        18.55147
380.22        18.54769
380.67        18.54464
381.11        18.54897
381.56         18.5167
382.01        18.39693
382.46        18.19517
382.91        17.94352
383.36        17.71354
383.81         17.6026
384.26        17.62128
384.71        17.73272
385.15        17.88028
385.60        17.96941
386.05        17.96641
386.50        17.90155
386.95        17.78797
387.40        17.64986
387.85         17.5061
388.29         17.3406
388.74        17.20435
389.19        17.12854
389.64         17.1131
390.09        17.14641
390.54        17.18686
390.98        17.15862
391.43        17.05781
391.88        16.90764
392.33        16.74853
392.78         16.6391
393.23        16.58903
393.67        16.56668
394.12        16.56511
394.57        16.54145
395.02        16.48499
395.47        16.40679
395.91        16.31696
396.36        16.22215
396.81        16.14183
397.26         16.0773
397.71        16.03134
398.15        16.01848
398.60        16.05349
399.05        16.05805
399.50          16.042
399.95        16.13926
400.39        16.29453
400.84        16.22062
401.29        15.93965
401.74         15.7436
402.18        15.66072
402.63        15.52725
403.08        15.37927
403.53        15.33999
403.97        15.41506
404.42        15.57021
404.87        15.73883
405.32        15.80946
405.76        15.75386
406.21        15.61261
406.66        15.44713
407.11        15.35735
407.55        15.37272
408.00        15.45493
408.45        15.56138
408.90        15.60877
409.34         15.5699
409.79         15.4774
410.24        15.36769
410.68        15.28395
411.13        15.24291
411.58        15.22845
412.03        15.22292
412.47        15.20148
412.92        15.15308
413.37        15.09353
413.81        15.03988
414.26        15.02693
414.71        15.05406
415.15        15.11425
415.60        15.17759
416.05        15.20551
416.49        15.18787
416.94        15.13491
417.39        15.07297
417.83        15.04176
418.28        15.05019
418.73        15.08376
419.17        15.12699
419.62        15.15508
420.07        15.16004
420.51        15.14706
420.96        15.12236
421.41        15.09208
421.85        15.05338
422.30        14.99776
422.74        14.92525
423.19        14.90432
423.64         14.9136
424.08         14.8641
424.53        14.75621
424.98        14.70627
425.42        14.73128
425.87        14.73061
426.31        14.71337
426.76        14.80174
427.21        14.95007
427.65        14.94264
428.10        14.81193
428.54        14.76621
428.99        14.82216
429.44        14.91628
429.88        14.99679
430.33        14.92682
430.77        14.75105
431.22        14.75082
431.66        14.91711
432.11        14.97731
432.56        14.92814
433.00        14.97719
433.45        15.05467
433.89        14.93134
434.34         14.7145
434.78        14.33903
435.23        14.63156
435.67        14.67079
436.12        14.66275
436.57        14.63941
437.01        14.60911
437.46        14.59217
437.90        14.58152
438.35        14.53316
438.79        14.45587
439.24        14.41178
439.68        14.40769
440.13         14.4242
440.57        14.45367
441.02        14.49825
441.46        14.54958
441.91        14.56759
442.35        14.54979
442.80        14.63855
443.24          14.771
443.69        14.69721
444.13        14.46543
444.58        14.38385
445.02        14.46902
445.47        14.56502
445.91           14.63
446.36        14.66912
446.80        14.66702
447.24        14.62764
447.69        14.57729
448.13        14.55065
448.58        14.55974
449.02        14.58813
449.47        14.62533
449.91        14.64761
450.36        14.65238
450.80        14.64836
451.25        14.63856
451.69        14.61691
452.13        14.58802
452.58        14.54944
453.02        14.51842
453.47        14.52634
453.91        14.57541
454.36        14.65627
454.80        14.73249
455.24        14.74385
455.69        14.68445
456.13        14.56653
456.58        14.44288
457.02        14.36915
457.46        14.36573
457.91        14.41263
458.35        14.47168
458.79        14.48504
459.24        14.45239
459.68        14.38625
460.13        14.32924
460.57        14.30746
461.01         14.3395
461.46         14.3972
461.90        14.47717
462.34        14.56257
462.79        14.63722
463.23        14.71085
463.68        14.75104
464.12        14.71499
464.56        14.60203
465.01        14.45224
465.45        14.29731
465.89        14.21913
466.34        14.22873
466.78        14.29942
467.22        14.40755
467.67        14.49452
468.11        14.54742
468.55        14.57686
468.99        14.58856
469.44         14.5913
469.88         14.5911
470.32        14.57843
470.77        14.56726
471.21         14.5861
471.65        14.63637
472.10        14.71484
472.54        14.78849
472.98        14.80937
473.42        14.76995
473.87         14.6912
474.31        14.60208
474.75         14.5617
475.20        14.58568
475.64        14.64991
476.08        14.72881
476.52        14.77452
476.97        14.77603
477.41         14.7568
477.85        14.74103
478.29         14.7453
478.74        14.78984
479.18        14.89905
479.62        15.04221
480.06        15.14643
480.50        15.20289
480.95        15.22523
481.39        15.21528
481.83        15.32696
482.27        15.33501
482.72        15.40395
483.16        15.47898
483.60        15.53318
484.04        15.54628
484.48        15.69535
484.93         15.9677
485.37        15.80075
485.81        15.69264
486.25        16.04457
486.69        15.38873
487.14         15.7903
487.58         16.8531
488.02        16.71226
488.46        16.37341
488.90        16.45298
489.34        16.42145
489.79        16.62813
490.23        16.72209
490.67        16.94829
491.11        17.21464
491.55        17.28601
491.99        17.20026
492.43        17.20633
492.88        17.32341
493.32        17.38883
493.76        17.40837
494.20        17.48874
494.64        17.64137
495.08        17.80018
495.52        17.94498
495.96        18.16151
496.41        18.40006
496.85        18.39262
497.29        18.20307
497.73        18.35549
498.17        18.59102
498.61        18.77831
499.05        18.80939
499.49         18.8637
499.93        18.90591
500.37          19.039
500.82        19.23184
501.26        19.37988
501.70        19.47173
502.14        19.57569
502.58        19.70742
503.02         19.8531
503.46         20.0107
503.90        20.18061
504.34        20.33116
504.78        20.41008
505.22        20.40928
505.66        20.34872
506.10        20.26814
506.54        20.23087
506.98        20.25672
507.42        20.33015
507.86        20.43542
508.30        20.54407
508.74        20.64251
509.18        20.73672
509.62        20.82313
510.06        20.89585
510.50        20.95371
510.94        20.99514
511.38        21.02246
511.82         21.0424
512.26        21.05987
512.70        21.07717
513.14        21.10056
513.58        21.13871
514.02        21.19209
514.46        21.25547
514.90        21.32298
515.34        21.38493
515.78        21.43506
516.22        21.47342
516.66        21.49179
517.10        21.47851
517.54        21.43476
517.98         21.3671
518.42        21.29186
518.86        21.23548
519.30        21.20547
519.74        21.19499
520.18        21.19765
520.62        21.20046
521.06         21.1995
521.50        21.20255
521.93         21.2051
522.37        21.19157
522.81        21.16463
523.25        21.12388
523.69        21.09074
524.13        21.10091
524.57        21.15506
525.01        21.23622
525.45        21.30802
525.89        21.31194
526.32        21.23361
526.76         21.1015
527.20         20.9422
527.64        20.79896
528.08         20.6896
528.52        20.60382
528.96        20.54711
529.40        20.52695
529.83        20.53785
530.27         20.5772
530.71        20.61969
531.15        20.62486
531.59        20.58316
532.03        20.50426
532.46        20.40338
532.90        20.32179
533.34        20.26845
533.78        20.22332
534.22        20.18334
534.66         20.1682
535.09        20.16009
535.53        20.11379
535.97        20.03871
536.41        20.00054
536.85        20.00436
537.28        20.01471
537.72        20.02756
538.16         20.0521
538.60        20.08578
539.04        20.12547
539.47        20.16746
539.91        20.21912
540.35        20.27677
540.79        20.34079
541.22        20.40664
541.66        20.47415
542.10        20.54131
542.54        20.61004
542.97        20.68393
543.41        20.77724
543.85        20.88935
544.29        21.01763
544.72        21.15087
545.16        21.28729
545.60         21.4205
546.04         21.5533
546.47        21.69196
546.91        21.84226
547.35         22.0011
547.79        22.16561
548.22        22.32338
548.66        22.45109
549.10        22.57411
549.53        22.69191
549.97        22.81695
550.41        22.91658
550.84         23.0184
551.28        23.17892
551.72        23.37589
552.15        23.59249
552.59        23.84771
553.03         23.7924
553.46        24.13054
553.90        24.22363
554.34        24.28075
554.77        24.30878
555.21        24.34018
555.65        24.40602
556.08          24.506
556.52        24.62123
556.96        24.72915
557.39        24.86008
557.83        24.98919
558.27        24.98286
558.70        24.88372
559.14        24.91004
559.57        25.05427
560.01        25.17404
560.45        25.25126
560.88        25.32282
561.32        25.39272
561.75        25.47636
562.19         25.5621
562.63        25.51424
563.06        25.38748
563.50        25.44383
563.93        25.64638
564.37        25.78777
564.80        25.86647
565.24        25.94973
565.68        25.98069
566.11        26.37251
566.55        26.17603
566.98        26.20104
567.42         26.2205
567.85        26.29146
568.29        26.43264
568.72        26.63976
569.16         26.9073
569.60        27.10147
570.03        27.31188
570.47        27.47969
570.90        27.62303
571.34        27.76009
571.77        27.85532
572.21        28.05026
572.64        28.25475
573.08        28.37106
573.51        28.44543
573.95        28.41388
574.38        28.34399
574.82        28.86822
