SpectraSmart Spectrum 2.9.0.0
--------- Device Information -----------
Spectrum Name :  反射率_0
Saving Time :  2024/04/26 21:30:07
Spectro-Module Model Name : SE2030-DUVN
Spectro-Module Serial Number : OS361AC55029948
Wavelength Start : 200
Wavelength End : 1025
Wavelength Unit : Wavelength(nm)
Spectrum Unit : Reflectance(%)
-----------Spectrum Setting ------------
Integration Time : 20ms
Average : 10
Boxcar : 0
Background removal :  enabled
linearity correction :  enabled
SC :  disabled
Intensity correction :  disabled
DWT denoise :  enabled
savitzky-golay :  disabled
FFT :  disabled
Running average :  disabled
Kalman :  disabled
High pass :  disabled
---------------BEGIN--------------------
Wavelength(nm)             Reflectance(%)
200.29               0
200.75        17.87679
201.21        21.23104
201.67        23.41453
202.13        23.33178
202.58        20.88512
203.04         16.3683
203.50         10.2698
203.96        5.280194
204.42        3.763115
204.88         5.66057
205.34        10.38198
205.80        15.64842
206.26        19.71848
206.72        22.48521
207.18        23.73244
207.64        23.46956
208.10        21.81804
208.55        18.55093
209.01        12.68794
209.47        6.185495
209.93         2.60533
210.39        1.909665
210.85        2.647647
211.31         3.64173
211.77        5.012349
212.23        8.328512
212.69        16.95794
213.14        33.20914
213.60        34.39088
214.06        23.69353
214.52         16.6765
214.98        15.20905
215.44        16.69902
215.90        19.40453
216.36        21.87811
216.81        21.60378
217.27        17.93146
217.73         11.0825
218.19           1.036
218.65       -6.578102
219.11       -6.725152
219.57       -2.705906
220.02        2.451742
220.48        8.188161
220.94        15.69089
221.40        27.15655
221.86        43.01875
222.32        54.69209
222.77        53.59299
223.23        44.90721
223.69        35.48152
224.15        29.69037
224.61        27.09312
225.06        25.79806
225.52         25.6738
225.98        26.66205
226.44        28.48305
226.90        31.26714
227.36         33.8345
227.81        34.05124
228.27        31.86731
228.73         28.1417
229.19         24.7558
229.65        23.87091
230.10        25.53756
230.56        28.95521
231.02        32.55211
231.48        33.79886
231.93        32.25959
232.39        29.21139
232.85        26.09605
233.31        24.74405
233.77        25.35848
234.22        27.27709
234.68        29.57598
235.14         30.9698
235.60        31.04266
236.05        30.17583
236.51        28.80296
236.97        27.77239
237.43        27.50259
237.88         27.7789
238.34        28.34328
238.80        28.94236
239.26        29.51468
239.71        30.44164
240.17        31.71166
240.63        33.37159
241.08        35.39063
241.54        37.20804
242.00        39.19037
242.46        42.52933
242.91        48.31681
243.37        57.38992
243.83        69.05031
244.28        74.98569
244.74        66.63144
245.20        47.59118
245.66        29.64262
246.11        20.97959
246.57        21.22699
247.03        27.05823
247.48         36.4729
247.94        44.38599
248.40        48.28303
248.85         49.6876
249.31        49.74465
249.77        48.83555
250.22        46.84129
250.68        42.99148
251.14         37.3008
251.59        31.99088
252.05        29.58606
252.51        30.34785
252.96        31.80205
253.42        31.23529
253.88        28.87044
254.33        25.71937
254.79        24.19922
255.25        26.33635
255.70        31.75153
256.16        39.33007
256.62        46.02178
257.07        47.19863
257.53        43.90663
257.99        39.11625
258.44        35.24527
258.90        34.35009
259.35        35.60825
259.81         38.0883
260.27        40.54461
260.72        41.46235
261.18        40.90778
261.63        39.44868
262.09        38.03202
262.55         37.2926
263.00        37.17002
263.46        37.42113
263.91        37.52977
264.37        37.05146
264.83        35.97728
265.28        34.56635
265.74        33.29024
266.19        32.50083
266.65        32.27668
267.11        32.37091
267.56        32.58046
268.02        32.58218
268.47        32.27783
268.93        31.81178
269.38        31.17621
269.84        30.39729
270.30        29.51657
270.75        28.52007
271.21        27.62758
271.66         27.1361
272.12        27.08148
272.57        27.36009
273.03        27.67813
273.48        27.55208
273.94        26.92082
274.39        25.92182
274.85        24.88609
275.31        24.17128
275.76        23.82636
276.22        23.73843
276.67        23.70763
277.13        23.50972
277.58        23.06817
278.04        22.50383
278.49        21.89105
278.95        21.41838
279.40        21.08647
279.86        20.87393
280.31        20.67995
280.77        20.44069
281.22         20.1158
281.68        19.77774
282.13        19.45193
282.59          19.225
283.04        19.08443
283.50        19.00191
283.95         18.9372
284.41        18.83618
284.86         18.6848
285.32         18.5264
285.77        18.35768
286.22        18.20995
286.68        18.09905
287.13        17.99839
287.59        17.94087
288.04        17.94742
288.50        18.02364
288.95        18.12409
289.41        18.22242
289.86        18.23431
290.32        18.16899
290.77        18.05223
291.22        17.90996
291.68        17.77003
292.13          17.652
292.59        17.56977
293.04         17.5776
293.50         17.7753
293.95        18.16257
294.40        18.70212
294.86        19.30394
295.31        19.82003
295.77        20.21027
296.22        20.50222
296.68         20.7432
297.13        21.00296
297.58        21.31342
298.04        21.65891
298.49        22.02538
298.95        22.40665
299.40        22.78846
299.85        23.16865
300.31        23.55515
300.76        23.95261
301.21        24.34947
301.67        24.74482
302.12        25.06837
302.58        25.26325
303.03        25.30961
303.48        25.25403
303.94        25.17882
304.39        25.18436
304.84        25.29996
305.30        25.50029
305.75        25.71649
306.20        25.88334
306.66        25.98548
307.11        26.03787
307.57        26.06044
308.02        26.04939
308.47        26.01829
308.93        25.96583
309.38        25.90627
309.83        25.90142
310.29        25.95642
310.74        26.05082
311.19        26.12711
311.65        26.08653
312.10        25.90747
312.55        25.62248
313.00         25.3097
313.46        25.08381
313.91        24.96271
314.36        24.92431
314.82        24.90156
315.27        24.79221
315.72        24.57287
316.18        24.28523
316.63        23.99897
317.08        23.83012
317.53        23.79913
317.99        23.86133
318.44        23.94119
318.89        23.90865
319.35        23.73114
319.80        23.44771
320.25        23.12821
320.70        22.88539
321.16        22.74685
321.61        22.68267
322.06        22.63836
322.51        22.52716
322.97        22.32302
323.42        22.06306
323.87        21.79117
324.32        21.57824
324.78         21.4373
325.23        21.35517
325.68        21.28772
326.13        21.17068
326.59        20.98629
327.04        20.76487
327.49          20.541
327.94         20.3692
328.39        20.25934
328.85        20.18281
329.30        20.12606
329.75        20.03086
330.20        19.88389
330.66        19.70209
331.11        19.52006
331.56        19.37453
332.01        19.27742
332.46        19.21499
332.92         19.1633
333.37        19.11487
333.82        19.05157
334.27         18.9808
334.72        18.90907
335.17        18.84474
335.63        18.78991
336.08        18.75263
336.53        18.72332
336.98        18.69536
337.43        18.66494
337.88        18.62443
338.34        18.58856
338.79        18.60155
339.24        18.65816
339.69        18.74673
340.14        18.80438
340.59        18.73135
341.05        18.52305
341.50        18.21794
341.95        17.90674
342.40        17.72731
342.85         17.7108
343.30        17.80984
343.75        17.96385
344.20        18.07295
344.66        18.10336
345.11        18.08362
345.56        18.02053
346.01        17.92497
346.46        17.81559
346.91        17.69385
347.36        17.58906
347.81        17.55375
348.26        17.59285
348.72        17.68279
349.17        17.80047
349.62         17.9152
350.07        18.00896
350.52        18.09503
350.97        18.12553
351.42        18.02753
351.87        17.80497
352.32        17.48688
352.77        17.18778
353.22        17.07771
353.67        17.18436
354.13        17.46075
354.58        17.78053
355.03        17.93286
355.48        17.86074
355.93        17.62718
356.38         17.3436
356.83        17.18133
357.28        17.17759
357.73        17.27018
358.18        17.37861
358.63        17.37511
359.08        17.22891
359.53        16.99758
359.98        16.73528
360.43        16.51483
360.88        16.35905
361.33        16.23911
361.78        16.15267
362.23        16.09968
362.68        16.07229
363.13         16.0751
363.58        16.07265
364.03        16.00625
364.48        15.86511
364.93        15.65968
365.38        15.44274
365.83        15.30486
366.28        15.26757
366.73        15.30751
367.18        15.36175
367.63        15.33021
368.08        15.19166
368.53        14.97661
368.98         14.7521
369.43        14.62394
369.88        14.61522
370.33        14.69149
370.78        14.78307
371.23        14.77577
371.68        14.64101
372.13        14.41786
372.58        14.17362
373.03        14.01324
373.48        13.96546
373.93        13.99669
374.38        14.05928
374.83         14.0788
375.28        14.03117
375.72        13.93382
376.17         13.8249
376.62        13.74166
377.07        13.69408
377.52         13.6684
377.97        13.63751
378.42        13.56327
378.87        13.44013
379.32        13.28207
379.77        13.12833
380.22        13.03316
380.67        13.00237
381.11        13.02171
381.56        13.03622
382.01        12.96617
382.46        12.80175
382.91        12.58434
383.36        12.37083
383.81        12.23621
384.26        12.19496
384.71        12.21928
385.15        12.28786
385.60        12.36957
386.05        12.44319
386.50        12.51554
386.95        12.56668
387.40        12.56759
387.85        12.51782
388.29        12.41719
388.74        12.31332
389.19        12.24818
389.64        12.22723
390.09        12.23392
390.54        12.24105
390.98        12.19929
391.43        12.10845
391.88        11.99081
392.33        11.86537
392.78        11.75667
393.23        11.67281
393.67         11.5982
394.12        11.55024
394.57        11.53172
395.02        11.53831
395.47        11.56453
395.91        11.58949
396.36        11.56881
396.81        11.50263
397.26        11.40735
397.71        11.30736
398.15        11.24574
398.60        11.24444
399.05        11.24148
399.50        11.23584
399.95        11.31033
400.39        11.42314
400.84        11.37454
401.29        11.18925
401.74        11.08579
402.18        11.08244
402.63        11.05552
403.08        11.00366
403.53        10.97598
403.97        10.97138
404.42         10.9794
404.87        10.98286
405.32        10.95097
405.76        10.87785
406.21         10.7795
406.66        10.68279
407.11        10.63159
407.55        10.63755
408.00        10.68167
408.45        10.73773
408.90        10.75286
409.34        10.71207
409.79        10.63598
410.24        10.54934
410.68        10.48265
411.13        10.44719
411.58        10.42931
412.03        10.42256
412.47        10.41885
412.92        10.40962
413.37        10.40228
413.81        10.38989
414.26        10.36873
414.71        10.33534
415.15        10.29186
415.60        10.24555
416.05        10.21798
416.49        10.21724
416.94        10.23923
417.39        10.27086
417.83        10.29072
418.28        10.29133
418.73        10.27341
419.17        10.25517
419.62        10.26624
420.07        10.30974
420.51        10.37306
420.96        10.42171
421.41        10.40199
421.85        10.30519
422.30        10.15142
422.74        9.985188
423.19        9.916661
423.64        9.943022
424.08        9.983036
424.53        10.00254
424.98        10.02351
425.42        10.03794
425.87         9.99462
426.31        9.915401
426.76        9.907318
427.21        9.950978
427.65        9.898458
428.10        9.776656
428.54        9.731202
428.99        9.772141
429.44        9.852658
429.88        9.936521
430.33        9.928657
430.77        9.852552
431.22        9.895208
431.66        10.03499
432.11        10.05976
432.56        9.964779
433.00        9.894943
433.45        9.837883
433.89         9.70953
434.34        9.599539
434.78        9.440235
435.23        9.736083
435.67        9.821525
436.12        9.818295
436.57        9.766738
437.01        9.693626
437.46        9.648458
437.90         9.63882
438.35         9.62149
438.79        9.594637
439.24        9.588803
439.68        9.604061
440.13        9.631665
440.57        9.662041
441.02         9.68795
441.46        9.702502
441.91        9.679642
442.35        9.627356
442.80        9.651012
443.24        9.711351
443.69        9.645204
444.13        9.475946
444.58        9.392772
445.02        9.405508
445.47        9.417877
445.91        9.422867
446.36         9.45408
446.80        9.503769
447.24        9.560603
447.69        9.613476
448.13        9.640126
448.58        9.638631
449.02        9.614735
449.47        9.580115
449.91        9.550146
450.36        9.533633
450.80        9.525846
451.25        9.529879
451.69        9.545262
452.13        9.569919
452.58        9.600831
453.02        9.629691
453.47        9.644446
453.91        9.640884
454.36        9.622699
454.80        9.588592
455.24        9.536133
455.69        9.472827
456.13        9.396927
456.58        9.331721
457.02        9.294575
457.46        9.293693
457.91         9.32235
458.35        9.358435
458.79        9.366367
459.24        9.346318
459.68        9.300495
460.13        9.258951
460.57        9.241824
461.01        9.261457
461.46        9.299302
461.90        9.344929
462.34         9.37123
462.79        9.367482
463.23        9.348369
463.68         9.31274
464.12        9.265459
464.56        9.211608
465.01        9.162258
465.45        9.119288
465.89        9.112093
466.34        9.140896
466.78        9.194159
467.22        9.256003
467.67        9.288137
468.11        9.284777
468.55        9.253719
468.99        9.206854
469.44        9.163381
469.88        9.131519
470.32         9.10487
470.77        9.090541
471.21        9.101871
471.65        9.136796
472.10        9.194198
472.54        9.250056
472.98        9.269753
473.42        9.247867
473.87        9.198943
474.31        9.142235
474.75        9.118131
475.20        9.137445
475.64        9.182451
476.08        9.240405
476.52        9.286449
476.97        9.312894
477.41        9.332357
477.85        9.349208
478.29        9.355881
478.74        9.362492
479.18        9.390879
479.62        9.435434
480.06        9.473523
480.50        9.504012
480.95        9.525979
481.39        9.533131
481.83         9.60995
482.27        9.614134
482.72        9.659044
483.16        9.705566
483.60         9.73439
484.04        9.731494
484.48        9.798577
484.93         9.97016
485.37        9.934999
485.81        9.945071
486.25        10.36597
486.69        9.858891
487.14        9.980342
487.58         10.8364
488.02        10.76033
488.46        10.50515
488.90        10.42759
489.34        10.24499
489.79        10.41225
490.23        10.67031
490.67        10.88552
491.11        10.98576
491.55        10.98361
491.99        10.92824
492.43        10.94342
492.88        11.04755
493.32        11.14511
493.76        11.22099
494.20        11.31398
494.64        11.42478
495.08        11.51664
495.52        11.59438
495.96        11.74438
496.41        11.94097
496.85        11.99864
497.29        11.93787
497.73        12.07396
498.17        12.23123
498.61        12.33208
499.05         12.3215
499.49        12.34295
499.93        12.38078
500.37        12.49498
500.82        12.65353
501.26        12.76874
501.70        12.82803
502.14        12.88264
502.58        12.95364
503.02        13.04799
503.46        13.16862
503.90         13.3116
504.34        13.44435
504.78        13.51364
505.22        13.50992
505.66        13.45162
506.10        13.38056
506.54        13.36325
506.98        13.41659
507.42         13.5209
507.86        13.64639
508.30        13.74279
508.74        13.79389
509.18         13.8153
509.62        13.82081
510.06        13.83255
510.50         13.8584
510.94        13.88903
511.38        13.92165
511.82        13.95379
512.26        13.98377
512.70        14.01484
513.14        14.04521
513.58        14.06998
514.02        14.08852
514.46        14.10151
514.90        14.11274
515.34        14.12882
515.78        14.15143
516.22        14.17893
516.66        14.20666
517.10        14.22745
517.54        14.23859
517.98        14.23993
518.42         14.2364
518.86         14.2362
519.30        14.24014
519.74         14.2459
520.18        14.24336
520.62        14.21622
521.06         14.1638
521.50         14.0943
521.93        14.02542
522.37         13.9802
522.81        13.96717
523.25        13.97678
523.69        13.99771
524.13        14.01222
524.57        14.01245
525.01        14.00181
525.45        13.97754
525.89         13.9357
526.32        13.87699
526.76        13.80712
527.20        13.73352
527.64        13.67007
528.08        13.62053
528.52        13.58066
528.96        13.55006
529.40         13.5267
529.83        13.50743
530.27         13.4936
530.71        13.47351
531.15        13.42962
531.59         13.3611
532.03        13.27392
532.46        13.18527
532.90         13.1325
533.34        13.11988
533.78        13.12857
534.22        13.14203
534.66        13.14998
535.09        13.13682
535.53        13.08257
535.97        13.00154
536.41        12.95004
536.85         12.9373
537.28        12.93497
537.72        12.94942
538.16        13.00041
538.60        13.08435
539.04        13.19343
539.47         13.3001
539.91        13.37033
540.35        13.39536
540.79        13.38742
541.22        13.36983
541.66        13.38614
542.10        13.44585
542.54        13.53662
542.97        13.64297
543.41        13.74502
543.85        13.83486
544.29        13.92288
544.72         14.0096
545.16        14.10524
545.60        14.21042
546.04        14.32231
546.47        14.44776
546.91        14.59557
547.35        14.76131
547.79        14.93914
548.22        15.11066
548.66        15.24561
549.10        15.35693
549.53        15.44567
549.97        15.52545
550.41         15.5834
550.84        15.64153
551.28        15.73766
551.72        15.85399
552.15        15.97387
552.59        16.11296
553.03        16.04408
553.46        16.25073
553.90        16.31296
554.34         16.3746
554.77        16.43473
555.21        16.51417
555.65        16.63234
556.08        16.78135
556.52        16.94131
556.96        17.08244
557.39        17.20722
557.83        17.29504
558.27        17.25975
558.70        17.14134
559.14        17.10766
559.57         17.1654
560.01         17.2187
560.45        17.25988
560.88        17.32997
561.32        17.43307
561.75        17.54077
562.19         17.6453
562.63        17.72968
563.06        17.78727
563.50        17.82399
563.93        17.84251
564.37        17.89466
564.80        17.99384
565.24        18.08325
565.68        18.11266
566.11        18.39828
566.55         18.2764
566.98        18.30649
567.42        18.34153
567.85        18.43716
568.29        18.60664
568.72        18.84018
569.16        19.11467
569.60         19.3083
570.03         19.4815
570.47        19.59377
570.90        19.67296
571.34        19.78427
571.77         19.8932
572.21        20.02635
572.64        20.14276
573.08        20.26523
573.51        20.31976
573.95        20.43474
574.38        20.58341
574.82        20.76024
