SpectraSmart Spectrum 2.9.0.0
--------- Device Information -----------
Spectrum Name :  反射率_0
Saving Time :  2024/04/26 21:30:59
Spectro-Module Model Name : SE2030-DUVN
Spectro-Module Serial Number : OS361AC55029948
Wavelength Start : 200
Wavelength End : 1025
Wavelength Unit : Wavelength(nm)
Spectrum Unit : Reflectance(%)
-----------Spectrum Setting ------------
Integration Time : 20ms
Average : 10
Boxcar : 0
Background removal :  enabled
linearity correction :  enabled
SC :  disabled
Intensity correction :  disabled
DWT denoise :  enabled
savitzky-golay :  disabled
FFT :  disabled
Running average :  disabled
Kalman :  disabled
High pass :  disabled
---------------BEGIN--------------------
Wavelength(nm)             Reflectance(%)
200.29               0
200.75        12.42372
201.21        17.39728
201.67        22.46364
202.13        26.17557
202.58        28.60043
203.04        31.00479
203.50        33.63025
203.96        36.10068
204.42        37.93207
204.88        38.30083
205.34        38.00767
205.80        39.22792
206.26        41.97985
206.72        45.12801
207.18        47.06196
207.64        46.20903
208.10        42.34248
208.55        35.36664
209.01        25.10457
209.47        18.10457
209.93        19.18594
210.39        24.57358
210.85        29.85912
211.31        33.27337
211.77        35.57596
212.23        38.19772
212.69        43.43503
213.14        55.53951
213.60        59.14202
214.06        53.36513
214.52        47.52227
214.98        42.98111
215.44        38.55808
215.90        33.67263
216.36        28.69671
216.81        24.23097
217.27        20.73964
217.73         17.6637
218.19        15.49434
218.65        16.32989
219.11        20.06537
219.57        24.45918
220.02        28.28291
220.48        32.34612
220.94        37.64043
221.40        45.23875
221.86        55.48877
222.32        63.30186
222.77        62.85891
223.23        57.37809
223.69        50.74586
224.15        45.29585
224.61        41.17059
225.06        37.75678
225.52        35.42198
225.98        34.34084
226.44        34.35287
226.90        35.34766
227.36        36.73939
227.81        37.49769
228.27           37.45
228.73        36.72807
229.19        36.14698
229.65        36.70498
230.10        38.42145
230.56        41.02618
231.02        43.34138
231.48        43.53342
231.93        41.44058
232.39        38.09056
232.85         35.0603
233.31         34.3989
233.77        36.22572
234.22        39.83592
234.68         43.7762
235.14        45.83054
235.60        45.36159
236.05          42.926
236.51        39.53239
236.97        37.41275
237.43        37.51704
237.88        39.28509
238.34        41.77975
238.80        43.60936
239.26         44.2827
239.71        44.46609
240.17        44.12535
240.63         43.7638
241.08        43.93201
241.54         44.0913
242.00        45.10791
242.46        48.89188
242.91        57.14317
243.37        71.71484
243.83        93.54871
244.28        113.7556
244.74        118.1067
245.20        105.1428
245.66        86.10358
246.11        72.14079
246.57        64.35136
247.03        59.22009
247.48        55.76844
247.94        53.12479
248.40        51.31494
248.85        50.73796
249.31        50.30154
249.77        48.25223
250.22        43.98427
250.68        36.85329
251.14        27.87106
251.59        22.61414
252.05        24.68472
252.51        31.88697
252.96        38.87093
253.42        40.72201
253.88        38.13158
254.33        33.48322
254.79        30.25683
255.25        31.35039
255.70        36.48444
256.16         44.1216
256.62        51.38282
257.07        53.75252
257.53        51.81739
257.99        48.22952
258.44        44.96206
258.90        43.84888
259.35        44.21799
259.81        45.44861
260.27        46.66154
260.72         46.8701
261.18        46.18806
261.63        44.89015
262.09        43.70509
262.55        42.99397
263.00        42.68427
263.46        42.69654
263.91        42.55679
264.37        41.90624
264.83        40.74774
265.28        39.27258
265.74        38.01867
266.19        37.41341
266.65        37.52785
267.11        38.09197
267.56        38.73531
268.02        38.86078
268.47        38.33192
268.93        37.39387
269.38        36.27536
269.84        35.37587
270.30        34.79759
270.75        34.38208
271.21        34.13589
271.66        34.02987
272.12          34.015
272.57        34.08891
273.03         34.0629
273.48        33.61459
273.94        32.75978
274.39        31.59291
274.85        30.43752
275.31        29.62818
275.76        29.20235
276.22        29.06512
276.67        29.02701
277.13         28.8869
277.58        28.54769
278.04        28.11179
278.49        27.58832
278.95        27.08975
279.40         26.6079
279.86        26.17186
280.31         25.7354
280.77        25.33115
281.22        24.92982
281.68        24.57588
282.13        24.27067
282.59        24.08306
283.04        23.98157
283.50        23.95317
283.95        23.91963
284.41        23.77152
284.86        23.48953
285.32        23.13603
285.77        22.77151
286.22        22.53116
286.68        22.43794
287.13        22.42202
287.59        22.44555
288.04        22.40969
288.50        22.31088
288.95        22.16348
289.41         21.9989
289.86        21.80697
290.32         21.6238
290.77        21.43328
291.22        21.28441
291.68        21.24069
292.13        21.30232
292.59        21.46848
293.04        21.68384
293.50         21.8766
293.95        22.02098
294.40        22.13842
294.86        22.28131
295.31        22.52621
295.77         22.8918
296.22        23.34382
296.68        23.82199
297.13        24.22279
297.58        24.52908
298.04        24.77172
298.49        25.01257
298.95        25.36446
299.40        25.83658
299.85         26.3833
300.31        26.92587
300.76        27.33949
301.21        27.59906
301.67        27.76245
302.12        27.86441
302.58        28.00757
303.03         28.1963
303.48        28.41092
303.94        28.64638
304.39        28.87105
304.84        29.07912
305.30        29.28903
305.75        29.45699
306.20        29.56038
306.66         29.6061
307.11        29.59359
307.57        29.56249
308.02        29.53703
308.47        29.53461
308.93        29.54997
309.38        29.56931
309.83        29.61137
310.29        29.67019
310.74        29.73435
311.19        29.76489
311.65        29.69388
312.10        29.50942
312.55        29.23742
313.00         28.9405
313.46        28.71094
313.91        28.56064
314.36        28.47225
314.82        28.40272
315.27        28.28951
315.72        28.11244
316.18        27.89868
316.63        27.67107
317.08        27.47647
317.53        27.32318
317.99        27.18852
318.44        27.05143
318.89        26.87061
319.35        26.63915
319.80        26.37508
320.25        26.10251
320.70        25.85807
321.16        25.65116
321.61        25.47829
322.06        25.32575
322.51        25.17389
322.97         25.0096
323.42         24.8379
323.87        24.66502
324.32        24.50591
324.78        24.35232
325.23         24.2113
325.68        24.04197
326.13        23.78834
326.59        23.45031
327.04        23.06572
327.49        22.70008
327.94        22.45412
328.39        22.34535
328.85        22.33162
329.30         22.3788
329.75        22.37994
330.20         22.2976
330.66        22.15539
331.11        21.97842
331.56        21.79222
332.01        21.61092
332.46        21.41861
332.92        21.22321
333.37        21.08005
333.82        20.98845
334.27        20.94755
334.72        20.92622
335.17        20.86387
335.63         20.7455
336.08        20.60089
336.53         20.4595
336.98        20.38057
337.43        20.37625
337.88        20.41425
338.34        20.47356
338.79        20.54098
339.24        20.59196
339.69        20.63596
340.14        20.62705
340.59        20.49353
341.05        20.24371
341.50        19.90519
341.95        19.58014
342.40        19.42356
342.85        19.46819
343.30        19.66923
343.75        19.93327
344.20        20.10448
344.66        20.13562
345.11        20.06071
345.56        19.93889
346.01        19.86814
346.46        19.87639
346.91        19.93346
347.36        19.98763
347.81        19.96436
348.26        19.85249
348.72        19.68467
349.17        19.52442
349.62        19.47804
350.07        19.56349
350.52        19.74217
350.97        19.92934
351.42        19.99057
351.87        19.89369
352.32        19.68299
352.77        19.43331
353.22        19.25421
353.67          19.174
354.13        19.16343
354.58        19.17634
355.03        19.14269
355.48        19.04666
355.93        18.91957
356.38         18.8038
356.83        18.75774
357.28        18.79078
357.73        18.87483
358.18        18.97083
358.63        19.01952
359.08        18.99935
359.53        18.92402
359.98        18.81159
360.43        18.68963
360.88        18.56611
361.33        18.43237
361.78         18.2818
362.23         18.1064
362.68        17.91135
363.13        17.71176
363.58        17.52171
364.03        17.35606
364.48        17.22021
364.93        17.11047
365.38        17.02716
365.83        16.97088
366.28         16.9355
366.73        16.91269
367.18        16.88732
367.63        16.83866
368.08        16.75785
368.53        16.64672
368.98        16.50797
369.43        16.34676
369.88        16.17163
370.33        15.99207
370.78        15.81726
371.23        15.66122
371.68         15.5343
372.13          15.436
372.58        15.38337
373.03        15.39968
373.48        15.47711
373.93        15.59605
374.38        15.70665
374.83        15.73239
375.28        15.65423
375.72        15.49043
376.17         15.2875
376.62        15.09843
377.07        14.94428
377.52        14.81401
377.97        14.70731
378.42        14.62399
378.87        14.56097
379.32        14.51921
379.77        14.49128
380.22        14.46115
380.67        14.42185
381.11        14.37881
381.56        14.31548
382.01        14.22507
382.46        14.11383
382.91        13.98946
383.36        13.87833
383.81        13.81511
384.26        13.80264
384.71        13.83095
385.15        13.87231
385.60        13.88342
386.05        13.85131
386.50        13.78964
386.95        13.72035
387.40        13.67889
387.85        13.67182
388.29        13.67472
388.74        13.68808
389.19        13.68355
389.64        13.65417
390.09        13.60584
390.54        13.54023
390.98        13.45752
391.43        13.37038
391.88        13.27755
392.33        13.18444
392.78        13.09807
393.23        13.01988
393.67        12.94442
394.12        12.88121
394.57        12.81535
395.02        12.74502
395.47         12.6712
395.91        12.60421
396.36        12.55332
396.81         12.5303
397.26         12.5321
397.71        12.54668
398.15        12.56451
398.60        12.59414
399.05        12.58076
399.50        12.54306
399.95        12.60176
400.39        12.71887
400.84        12.66679
401.29        12.45975
401.74        12.32055
402.18        12.26736
402.63        12.17084
403.08        12.06028
403.53        12.03461
403.97        12.09661
404.42        12.21729
404.87         12.3325
405.32         12.3364
405.76        12.20851
406.21        11.99298
406.66         11.7603
407.11        11.62157
407.55        11.60736
408.00        11.67724
408.45        11.78875
408.90        11.85778
409.34        11.85321
409.79        11.80602
410.24        11.73514
410.68        11.66107
411.13        11.59703
411.58        11.53005
412.03        11.46995
412.47        11.44125
412.92         11.4446
413.37        11.47899
413.81        11.52155
414.26        11.54639
414.71         11.5428
415.15        11.51741
415.60        11.48125
416.05        11.46401
416.49        11.47508
416.94        11.50619
417.39        11.53605
417.83        11.53172
418.28         11.4859
418.73        11.40592
419.17        11.32625
419.62        11.30166
420.07        11.34102
420.51        11.42304
420.96        11.49956
421.41        11.49475
421.85        11.39343
422.30        11.22283
422.74        11.03262
423.19        10.94451
423.64        10.95761
424.08        10.98243
424.53        10.98897
424.98        11.01395
425.42        11.05191
425.87        11.04338
426.31         11.0045
426.76        11.04133
427.21        11.12693
427.65        11.09474
428.10        10.97518
428.54        10.93471
428.99        10.98516
429.44        11.07406
429.88         11.1551
430.33        11.11304
430.77        10.97778
431.22        10.96498
431.66        11.06348
432.11        11.06191
432.56        10.96022
433.00        10.91047
433.45        10.88737
433.89        10.77354
434.34        10.65776
434.78        10.47393
435.23        10.78305
435.67        10.84897
436.12        10.81002
436.57        10.70816
437.01        10.58772
437.46          10.529
437.90        10.54458
438.35        10.58066
438.79        10.60864
439.24         10.6221
439.68        10.61402
440.13        10.58631
440.57        10.55674
441.02        10.56566
441.46        10.61619
441.91        10.66158
442.35        10.68079
442.80        10.75294
443.24        10.82759
443.69        10.73397
444.13         10.5177
444.58        10.41893
445.02        10.45536
445.47        10.50899
445.91        10.55299
446.36        10.59667
446.80        10.62586
447.24        10.63909
447.69        10.64192
448.13        10.63679
448.58        10.62857
449.02         10.6145
449.47        10.59522
449.91        10.56864
450.36        10.53873
450.80        10.50602
451.25        10.48081
451.69        10.47212
452.13        10.48098
452.58        10.50184
453.02        10.52112
453.47        10.51874
453.91        10.49016
454.36        10.44353
454.80        10.38606
455.24        10.32857
455.69        10.27962
456.13        10.22876
456.58        10.19144
457.02        10.17251
457.46        10.17695
457.91        10.20394
458.35         10.2277
458.79        10.20763
459.24        10.14854
459.68        10.05594
460.13        9.978381
460.57        9.961512
461.01        10.02088
461.46        10.12885
461.90        10.25411
462.34        10.33295
462.79        10.34223
463.23        10.30534
463.68        10.23388
464.12        10.15661
464.56        10.08724
465.01        10.03154
465.45        9.985167
465.89        9.970968
466.34        9.988456
466.78        10.03088
467.22        10.08698
467.67        10.12446
468.11        10.13834
468.55        10.13019
468.99        10.10911
469.44        10.09048
469.88        10.08021
470.32        10.07448
470.77        10.07143
471.21        10.07054
471.65        10.07061
472.10        10.07586
472.54        10.08555
472.98        10.10231
473.42        10.12483
473.87        10.15249
474.31        10.17575
474.75        10.19119
475.20        10.20021
475.64        10.20131
476.08        10.19806
476.52        10.19012
476.97        10.18003
477.41         10.1739
477.85        10.18107
478.29        10.20111
478.74        10.24266
479.18        10.32644
479.62         10.4303
480.06        10.50265
480.50        10.53529
480.95        10.53344
481.39        10.50189
481.83        10.55211
482.27        10.53496
482.72         10.5726
483.16        10.61641
483.60         10.6428
484.04        10.64641
484.48         10.6998
484.93        10.83418
485.37        10.84783
485.81        11.04002
486.25        11.29005
486.69        10.86726
487.14          11.072
487.58        11.86823
488.02        11.76906
488.46        11.52394
488.90        11.44697
489.34        11.21031
489.79         11.3716
490.23        11.64323
490.67        11.83901
491.11        11.88002
491.55        11.78226
491.99        11.63272
492.43        11.63019
492.88        11.80438
493.32        12.02714
493.76        12.23009
494.20        12.37463
494.64        12.44299
495.08        12.42037
495.52        12.35985
495.96        12.43201
496.41        12.63199
496.85        12.73939
497.29        12.74446
497.73        12.93683
498.17        13.11628
498.61        13.21703
499.05        13.19006
499.49        13.20409
499.93        13.24704
500.37        13.37124
500.82        13.54554
501.26        13.68431
501.70        13.77259
502.14        13.86584
502.58        13.96657
503.02         14.0486
503.46        14.11143
503.90        14.16134
504.34         14.1984
504.78        14.22417
505.22        14.24156
505.66        14.25214
506.10        14.26355
506.54        14.28699
506.98        14.32567
507.42        14.37868
507.86        14.43963
508.30         14.4966
508.74         14.5459
509.18         14.5893
509.62        14.63255
510.06        14.68612
510.50        14.75099
510.94        14.82166
511.38        14.88909
511.82        14.93933
512.26        14.96938
512.70        14.98471
513.14        14.99203
513.58        15.00252
514.02        15.01958
514.46        15.03825
514.90        15.05903
515.34        15.08236
515.78        15.10704
516.22        15.13534
516.66        15.15669
517.10        15.15382
517.54        15.12499
517.98        15.07422
518.42        15.02333
518.86         15.0075
519.30        15.03273
519.74        15.08838
520.18        15.14561
520.62        15.15847
521.06        15.11782
521.50        15.03873
521.93        14.95178
522.37        14.90152
522.81        14.90233
523.25        14.93764
523.69        14.98393
524.13        15.00548
524.57         14.9912
525.01        14.95122
525.45        14.89677
525.89        14.84579
526.32        14.80295
526.76        14.76582
527.20        14.72678
527.64        14.67656
528.08        14.61446
528.52        14.54607
528.96        14.48217
529.40        14.43745
529.83        14.41463
530.27        14.40973
530.71        14.40941
531.15        14.39425
531.59         14.3591
532.03        14.30741
532.46        14.25031
532.90        14.21585
533.34        14.20651
533.78        14.20769
534.22        14.20212
534.66          14.181
535.09        14.13093
535.53         14.0291
535.97        13.90785
536.41        13.85275
536.85        13.87634
537.28        13.94284
537.72        14.02733
538.16        14.09902
538.60        14.14469
539.04         14.1714
539.47        14.19101
539.91        14.23181
540.35        14.29605
540.79         14.3743
541.22        14.45069
541.66        14.50668
542.10        14.53778
542.54        14.55537
542.97        14.57386
543.41           14.62
543.85        14.69931
544.29        14.80497
544.72        14.92614
545.16         15.0574
545.60        15.19121
546.04        15.33039
546.47        15.47469
546.91        15.61985
547.35        15.76082
547.79        15.89552
548.22        16.01954
548.66        16.12485
549.10        16.23147
549.53        16.33601
549.97        16.44352
550.41        16.52321
550.84        16.59399
551.28        16.70154
551.72        16.83347
552.15         16.9826
552.59        17.16561
553.03        17.13065
553.46        17.38726
553.90        17.47937
554.34        17.55714
554.77        17.62347
555.21        17.69551
555.65        17.78548
556.08        17.88888
556.52        17.99193
556.96        18.08196
557.39        18.18934
557.83          18.297
558.27        18.30383
558.70        18.23717
559.14        18.25065
559.57        18.34271
560.01        18.41797
560.45          18.467
560.88        18.53305
561.32        18.62352
561.75        18.70722
562.19        18.78893
562.63        18.87242
563.06        18.95312
563.50        19.02998
563.93        19.08849
564.37        19.15581
564.80        19.23998
565.24        19.29054
565.68        19.26711
566.11        19.52499
566.55        19.36702
566.98         19.3834
567.42        19.41569
567.85        19.51946
568.29        19.70563
568.72        19.96365
569.16        20.27533
569.60        20.50482
570.03         20.7125
570.47        20.88264
570.90        21.03702
571.34        21.09756
571.77        21.25121
572.21         21.3452
572.64        21.43096
573.08        21.55951
573.51        21.75023
573.95        21.89146
574.38        21.98997
574.82          22.196
