SpectraSmart Spectrum 2.9.0.0
--------- Device Information -----------
Spectrum Name :  反射率_0
Saving Time :  2024/04/26 22:12:11
Spectro-Module Model Name : SE2030-DUVN
Spectro-Module Serial Number : OS361AC55029948
Wavelength Start : 200
Wavelength End : 1025
Wavelength Unit : Wavelength(nm)
Spectrum Unit : Reflectance(%)
-----------Spectrum Setting ------------
Integration Time : 20ms
Average : 10
Boxcar : 0
Background removal :  enabled
linearity correction :  enabled
SC :  disabled
Intensity correction :  disabled
DWT denoise :  enabled
savitzky-golay :  disabled
FFT :  disabled
Running average :  disabled
Kalman :  disabled
High pass :  disabled
---------------BEGIN--------------------
Wavelength(nm)             Reflectance(%)
200.29               0
200.75        27.00444
201.21        24.70439
201.67        22.84987
202.13        22.25314
202.58        22.91622
203.04        25.25685
203.50        28.98134
203.96        32.29948
204.42        33.82816
204.88        33.22361
205.34        32.24072
205.80        34.50933
206.26        40.01495
206.72        46.40004
207.18        50.87253
207.64        51.23691
208.10        47.35083
208.55        39.25478
209.01        26.90526
209.47        18.43593
209.93        19.78758
210.39        26.38971
210.85        32.69221
211.31        36.25552
211.77        37.80269
212.23        38.42308
212.69        39.55111
213.14        49.87681
213.60        63.04296
214.06        65.83244
214.52        63.59799
214.98        60.74456
215.44        57.43123
215.90        53.02787
216.36        48.36852
216.81        44.68113
217.27        42.63638
217.73        42.44114
218.19        43.29254
218.65        42.26327
219.11        39.45826
219.57        36.89988
220.02        36.74886
220.48         41.0161
220.94        50.25541
221.40        66.21764
221.86        88.77968
222.32        104.0999
222.77         99.6832
223.23        84.71532
223.69        69.70403
224.15        60.79959
224.61        57.02166
225.06        55.35025
225.52        55.36843
225.98        56.55873
226.44         58.5509
226.90        61.65039
227.36        64.51675
227.81        64.72158
228.27        62.20762
228.73        57.79809
229.19        53.79849
229.65        52.87358
230.10        55.05418
230.56        59.49689
231.02        63.93225
231.48        64.76904
231.93        61.55438
232.39        56.14431
232.85        50.99314
233.31        49.24559
233.77        51.12114
234.22         55.3915
234.68        60.18399
235.14        62.64196
235.60        61.87761
236.05        58.70062
236.51        54.01832
236.97        49.99361
237.43        47.75647
237.88        46.86851
238.34        46.93744
238.80        47.39211
239.26        47.99456
239.71        49.51495
240.17        51.80015
240.63        54.38364
241.08        57.00775
241.54        58.92223
242.00        60.98877
242.46        65.75865
242.91        75.39008
243.37        91.18626
243.83        113.7255
244.28        133.2761
244.74         134.653
245.20        117.6449
245.66        94.82716
246.11        77.12556
246.57        65.56599
247.03        57.09463
247.48        51.41225
247.94        48.97264
248.40        49.35805
248.85        51.41797
249.31        53.82735
249.77        55.36991
250.22        55.89044
250.68        55.27419
251.14         53.6995
251.59        52.33401
252.05        52.09074
252.51          52.891
252.96        52.48103
253.42        48.98716
253.88        43.12184
254.33        36.19657
254.79        31.33674
255.25        30.87345
255.70        34.36217
256.16         40.6536
256.62        46.58738
257.07        47.45485
257.53         44.2246
257.99        39.66806
258.44        36.25089
258.90        36.15604
259.35        38.41367
259.81        41.92518
260.27        45.08527
260.72        45.91107
261.18        44.57551
261.63        41.98696
262.09        39.44063
262.55        37.87318
263.00        37.25782
263.46        37.24498
263.91        37.25257
264.37        36.76474
264.83        35.73348
265.28        34.41506
265.74        33.29041
266.19        32.71732
266.65        32.77466
267.11        33.22957
267.56        33.78808
268.02        33.98651
268.47        33.71043
268.93        33.12774
269.38        32.43176
269.84         31.9676
270.30        31.78915
270.75        31.73637
271.21        31.71629
271.66        31.55594
272.12        31.20836
272.57         30.7436
273.03         30.1351
273.48        29.32782
273.94        28.40596
274.39        27.38532
274.85        26.49287
275.31        25.93048
275.76        25.68837
276.22        25.70476
276.67        25.77497
277.13        25.66173
277.58        25.28155
278.04        24.74313
278.49        24.11281
278.95        23.58918
279.40        23.17747
279.86         22.8618
280.31        22.56439
280.77        22.25867
281.22        21.90334
281.68        21.56323
282.13        21.22887
282.59        20.93991
283.04        20.67762
283.50        20.43634
283.95        20.20479
284.41        19.98134
284.86        19.76446
285.32        19.57265
285.77        19.38892
286.22        19.22874
286.68        19.09272
287.13        18.95491
287.59        18.82372
288.04        18.67899
288.50        18.53589
288.95        18.38136
289.41        18.22979
289.86        18.05614
290.32         17.8834
290.77        17.70899
291.22        17.56283
291.68        17.47915
292.13         17.4578
292.59        17.50038
293.04        17.58801
293.50        17.70641
293.95        17.84275
294.40        18.00532
294.86        18.20106
295.31        18.43456
295.77        18.71354
296.22        19.03437
296.68        19.39364
297.13        19.77726
297.58         20.1869
298.04        20.62433
298.49        21.10387
298.95        21.65961
299.40        22.28078
299.85        22.94649
300.31        23.60509
300.76         24.1785
301.21        24.64835
301.67        25.04366
302.12        25.38784
302.58        25.76586
303.03         26.1747
303.48        26.60551
303.94        27.03394
304.39        27.39908
304.84        27.70183
305.30        27.97671
305.75        28.23077
306.20        28.51882
306.66        28.85223
307.11        29.19094
307.57        29.52216
308.02        29.79078
308.47        29.99081
308.93        30.14573
309.38        30.24528
309.83        30.31628
310.29        30.36878
310.74        30.38971
311.19        30.38953
311.65        30.38137
312.10        30.36083
312.55        30.32474
313.00        30.26527
313.46        30.16495
313.91        30.01428
314.36        29.83569
314.82        29.63334
315.27        29.42493
315.72        29.22037
316.18        29.02175
316.63        28.84806
317.08        28.74232
317.53        28.69983
317.99        28.69542
318.44        28.67685
318.89        28.54771
319.35        28.28913
319.80        27.93652
320.25        27.53795
320.70        27.17236
321.16        26.86902
321.61        26.61804
322.06         26.4198
322.51        26.27515
322.97        26.16887
323.42        26.09836
323.87        26.03788
324.32        25.94826
324.78        25.80457
325.23        25.62591
325.68         25.3842
326.13        25.05352
326.59        24.64794
327.04        24.19628
327.49        23.77305
327.94        23.49236
328.39        23.37054
328.85        23.36544
329.30        23.42074
329.75        23.38366
330.20        23.20893
330.66        22.93733
331.11        22.62609
331.56        22.35201
332.01        22.14285
332.46        21.96417
332.92        21.81054
333.37        21.71468
333.82        21.65889
334.27        21.64423
334.72        21.62017
335.17        21.49498
335.63        21.25235
336.08        20.93633
336.53        20.60701
336.98        20.37507
337.43         20.2748
337.88        20.26893
338.34        20.33665
338.79        20.45879
339.24        20.59951
339.69        20.76024
340.14        20.87528
340.59        20.84176
341.05        20.65312
341.50        20.33721
341.95        19.98706
342.40        19.75081
342.85        19.66549
343.30        19.68906
343.75        19.76372
344.20        19.79166
344.66        19.74322
345.11        19.64791
345.56        19.52324
346.01        19.39527
346.46         19.2797
346.91        19.16851
347.36        19.06657
347.81        18.98765
348.26         18.9323
348.72        18.89672
349.17        18.87792
349.62        18.87766
350.07        18.89178
350.52        18.92265
350.97        18.93539
351.42        18.87735
351.87         18.7433
352.32         18.5463
352.77        18.35377
353.22        18.26596
353.67        18.29691
354.13        18.42018
354.58        18.54545
355.03         18.5274
355.48        18.33685
355.93        18.02494
356.38        17.69509
356.83        17.50231
357.28        17.47483
357.73        17.55463
358.18        17.65757
358.63        17.64794
359.08        17.48885
359.53        17.23324
359.98        16.92878
360.43        16.64047
360.88        16.39475
361.33         16.1736
361.78        15.98518
362.23        15.84684
362.68        15.75781
363.13        15.71437
363.58        15.69384
364.03        15.65544
364.48        15.58386
364.93        15.48306
365.38        15.35592
365.83        15.21345
366.28         15.0627
366.73        14.90131
367.18        14.73589
367.63        14.57782
368.08        14.42919
368.53        14.28864
368.98        14.15374
369.43        14.01652
369.88        13.87525
370.33        13.73628
370.78        13.59533
371.23        13.44568
371.68        13.29175
372.13        13.13781
372.58        13.00658
373.03        12.93372
373.48        12.92034
373.93        12.94738
374.38        12.98177
374.83        12.97173
375.28        12.90102
375.72        12.78135
376.17        12.63287
376.62        12.46937
377.07        12.30341
377.52        12.13541
377.97        11.98282
378.42        11.87649
378.87          11.821
379.32        11.80367
379.77        11.80811
380.22        11.80648
380.67        11.78673
381.11        11.75915
381.56        11.70237
382.01        11.59677
382.46        11.45058
382.91        11.27827
383.36        11.12316
383.81        11.04456
384.26        11.04811
384.71        11.11327
385.15        11.20095
385.60        11.24871
386.05         11.2344
386.50        11.17794
386.95        11.09575
387.40        11.01574
387.85        10.95001
388.29        10.88282
388.74        10.83301
389.19        10.80394
389.64         10.7935
390.09        10.80068
390.54        10.80983
390.98         10.7898
391.43        10.74351
391.88        10.68052
392.33        10.61931
392.78         10.5871
393.23        10.58784
393.67         10.6046
394.12         10.6384
394.57        10.66949
395.02        10.69275
395.47        10.71231
395.91        10.72733
396.36        10.72719
396.81        10.71899
397.26        10.70499
397.71        10.69293
398.15         10.7027
398.60        10.74652
399.05        10.76834
399.50        10.77036
399.95        10.83605
400.39        10.92872
400.84         10.8608
401.29        10.65266
401.74        10.50742
402.18        10.44646
402.63        10.35812
403.08        10.26909
403.53        10.26576
403.97        10.35062
404.42        10.49885
404.87        10.65198
405.32        10.71284
405.76        10.65927
406.21        10.52609
406.66         10.3747
407.11        10.30416
407.55        10.34148
408.00        10.45179
408.45        10.58839
408.90        10.66092
409.34        10.64032
409.79        10.55996
410.24        10.45969
410.68        10.39029
411.13        10.37002
411.58        10.38102
412.03        10.40763
412.47        10.42575
412.92        10.42381
413.37        10.41573
413.81        10.41168
414.26        10.43313
414.71        10.48017
415.15        10.54546
415.60        10.61376
416.05          10.666
416.49        10.69487
416.94        10.70538
417.39        10.70246
417.83        10.69416
418.28        10.68383
418.73        10.66732
419.17        10.65441
419.62        10.66073
420.07        10.68804
420.51        10.73088
420.96        10.77049
421.41        10.77501
421.85        10.73589
422.30        10.66129
422.74        10.57368
423.19        10.55518
423.64        10.59772
424.08        10.62774
424.53        10.62652
424.98        10.64769
425.42        10.69253
425.87         10.6944
426.31        10.67203
426.76        10.73476
427.21        10.85551
427.65        10.87277
428.10        10.79633
428.54        10.75823
428.99        10.76888
429.44        10.78934
429.88        10.80344
430.33        10.74499
430.77        10.64953
431.22        10.70786
431.66        10.88953
432.11        10.95301
432.56        10.88677
433.00        10.85521
433.45        10.83407
433.89        10.70858
434.34        10.57329
434.78        10.36001
435.23        10.64609
435.67         10.7381
436.12        10.77574
436.57        10.79196
437.01        10.79209
437.46         10.7886
437.90        10.77809
438.35         10.7265
438.79        10.65269
439.24        10.62196
439.68        10.64293
440.13         10.6969
440.57        10.76338
441.02        10.81706
441.46         10.8457
441.91         10.8287
442.35        10.78051
442.80        10.82726
443.24        10.92639
443.69        10.88671
444.13        10.73284
444.58        10.67781
445.02        10.72915
445.47        10.77631
445.91        10.79764
446.36        10.81054
446.80        10.80691
447.24        10.78592
447.69        10.75776
448.13        10.73287
448.58        10.71875
449.02        10.71045
449.47        10.71227
449.91        10.72595
450.36        10.75198
450.80        10.78717
451.25        10.82383
451.69        10.84391
452.13        10.84453
452.58         10.8279
453.02        10.80223
453.47        10.78384
453.91        10.77658
454.36        10.77711
454.80        10.77425
455.24        10.74835
455.69        10.70051
456.13        10.63216
456.58        10.56888
457.02        10.53011
457.46        10.52487
457.91        10.54394
458.35        10.56423
458.79        10.55002
459.24         10.5055
459.68        10.43834
460.13        10.38086
460.57        10.35279
461.01        10.36844
461.46        10.40669
461.90        10.46791
462.34        10.54218
462.79        10.61698
463.23        10.69819
463.68        10.75316
464.12        10.73701
464.56        10.64626
465.01        10.51361
465.45        10.37368
465.89         10.3022
466.34        10.30944
466.78        10.37214
467.22          10.461
467.67        10.51288
468.11        10.51402
468.55        10.47888
468.99        10.42993
469.44        10.40173
469.88        10.40508
470.32        10.42644
470.77        10.45593
471.21        10.48217
471.65        10.49863
472.10        10.51255
472.54        10.52156
472.98        10.52552
473.42        10.52512
473.87        10.52246
474.31        10.51468
474.75        10.50909
475.20        10.51011
475.64        10.51347
476.08        10.52059
476.52        10.52692
476.97        10.53236
477.41        10.54352
477.85        10.56607
478.29          10.593
478.74        10.63233
479.18        10.70764
479.62        10.80104
480.06        10.86739
480.50        10.90158
480.95        10.90732
481.39        10.88724
481.83        10.95514
482.27        10.95227
482.72        10.99994
483.16         11.0524
483.60        11.08871
484.04        11.09981
484.48        11.19009
484.93        11.37773
485.37         11.3635
485.81        11.45952
486.25        11.79242
486.69         11.2149
487.14        11.49676
487.58        12.61343
488.02        12.44809
488.46        11.80792
488.90        11.67145
489.34        11.71896
489.79        12.04565
490.23        12.29096
490.67        12.47021
491.11        12.52875
491.55        12.50723
491.99        12.47792
492.43        12.53026
492.88         12.6866
493.32        12.89812
493.76        13.11324
494.20        13.27745
494.64        13.37726
495.08        13.40399
495.52        13.39392
495.96        13.49407
496.41        13.69189
496.85         13.7601
497.29        13.71226
497.73        13.89577
498.17        14.10238
498.61        14.24871
499.05          14.265
499.49        14.30555
499.93        14.34971
500.37        14.46629
500.82         14.6277
501.26        14.75077
501.70        14.82538
502.14        14.90719
502.58        15.00916
503.02        15.12033
503.46        15.24045
503.90        15.37093
504.34        15.48935
504.78        15.55897
505.22        15.57374
505.66        15.54625
506.10        15.50678
506.54        15.50384
506.98        15.55095
507.42        15.63579
507.86        15.73909
508.30        15.82732
508.74        15.88954
509.18        15.93573
509.62        15.97553
510.06        16.02448
510.50        16.08661
510.94         16.1539
511.38        16.21992
511.82        16.27635
512.26        16.32044
512.70          16.356
513.14        16.38594
513.58        16.41406
514.02        16.44216
514.46        16.46881
514.90        16.49386
515.34        16.51763
515.78        16.53917
516.22        16.55735
516.66        16.57109
517.10         16.5784
517.54         16.5787
517.98        16.57351
518.42        16.56094
518.86        16.53792
519.30        16.50606
519.74        16.46792
520.18        16.43213
520.62        16.41135
521.06        16.40802
521.50        16.41849
521.93        16.43489
522.37        16.43759
522.81        16.42332
523.25        16.39474
523.69        16.35837
524.13         16.3249
524.57        16.29612
525.01        16.26783
525.45        16.23288
525.89        16.18048
526.32        16.10854
526.76        16.02731
527.20        15.94522
527.64        15.87582
528.08        15.82265
528.52        15.78063
528.96        15.74658
529.40         15.7153
529.83        15.68302
530.27         15.6513
530.71        15.61323
531.15        15.55973
531.59        15.49052
532.03        15.40794
532.46        15.32068
532.90         15.2538
533.34        15.20989
533.78        15.17572
534.22        15.14192
534.66        15.11145
535.09        15.07077
535.53        14.99101
535.97        14.88972
536.41        14.83328
536.85        14.82918
537.28        14.84388
537.72        14.87175
538.16        14.91405
538.60        14.96516
539.04        15.02616
539.47        15.08284
539.91        15.12302
540.35        15.14383
540.79        15.15046
541.22        15.16437
541.66        15.22589
542.10        15.33948
542.54        15.49251
542.97        15.65666
543.41        15.79311
543.85        15.89038
544.29        15.96309
544.72        16.02721
545.16        16.11967
545.60        16.24639
546.04        16.39725
546.47        16.56516
546.91        16.73513
547.35        16.89697
547.79        17.05418
548.22        17.20064
548.66         17.3231
549.10        17.44259
549.53        17.55546
549.97        17.66909
550.41        17.75532
550.84        17.83606
551.28        17.95921
551.72        18.11193
552.15         18.2868
552.59        18.50144
553.03        18.48447
553.46        18.78293
553.90        18.90067
554.34        18.99912
554.77        19.08204
555.21        19.17107
555.65        19.28486
556.08        19.41851
556.52        19.55372
556.96        19.67261
557.39        19.80209
557.83        19.92277
558.27         19.9283
558.70        19.84896
559.14        19.85306
559.57         19.9402
560.01        20.00478
560.45        20.04435
560.88        20.11768
561.32        20.23262
561.75        20.35172
562.19        20.46364
562.63        20.54594
563.06        20.59111
563.50        20.60972
563.93        20.60745
564.37        20.64709
564.80        20.74524
565.24        20.83548
565.68        20.86077
566.11        21.18617
566.55        21.04698
566.98        21.08713
567.42        21.13224
567.85         21.2396
568.29         21.4208
568.72        21.66563
569.16        21.96526
569.60        22.16966
570.03        22.34573
570.47        22.51721
570.90        22.71247
571.34        22.66417
571.77        22.88975
572.21        22.96059
572.64        23.02114
573.08        23.18397
573.51        23.46346
573.95        23.56859
574.38        23.52073
574.82          23.901
