SpectraSmart Spectrum 2.9.0.0
--------- Device Information -----------
Spectrum Name :  反射率_0
Saving Time :  2024/04/26 21:30:42
Spectro-Module Model Name : SE2030-DUVN
Spectro-Module Serial Number : OS361AC55029948
Wavelength Start : 200
Wavelength End : 1025
Wavelength Unit : Wavelength(nm)
Spectrum Unit : Reflectance(%)
-----------Spectrum Setting ------------
Integration Time : 20ms
Average : 10
Boxcar : 0
Background removal :  enabled
linearity correction :  enabled
SC :  disabled
Intensity correction :  disabled
DWT denoise :  enabled
savitzky-golay :  disabled
FFT :  disabled
Running average :  disabled
Kalman :  disabled
High pass :  disabled
---------------BEGIN--------------------
Wavelength(nm)             Reflectance(%)
200.29               0
200.75        32.23667
201.21        33.32366
201.67        33.96778
202.13        32.48756
202.58        28.49708
203.04        22.40134
203.50        14.84377
203.96        9.158403
204.42        8.220918
204.88        11.71371
205.34        18.71408
205.80        26.19905
206.26        31.88843
206.72        35.72061
207.18        37.23454
207.64        36.25804
208.10        32.91344
208.55        26.60365
209.01        16.98803
209.47         9.92948
209.93        10.22611
210.39         15.0061
210.85        20.14203
211.31        23.94152
211.77        27.42509
212.23        32.82855
212.69        46.20863
213.14        77.23756
213.60        90.78857
214.06        80.01904
214.52        67.70509
214.98        58.91569
215.44        51.32139
215.90         42.7371
216.36        34.70431
216.81        30.11504
217.27        30.18949
217.73        35.45729
218.19        44.41291
218.65          47.338
219.11        41.12096
219.57        32.46447
220.02        27.17159
220.48        28.14615
220.94        35.07319
221.40        48.38296
221.86        68.04568
222.32        82.41919
222.77        79.96169
223.23        68.18465
223.69        55.02041
224.15        44.94846
224.61        38.02234
225.06        32.73972
225.52         29.5135
225.98        28.81178
226.44        30.22333
226.90        33.36053
227.36        37.10878
227.81        39.37585
228.27        39.68993
228.73        38.60223
229.19        37.18204
229.65         36.7281
230.10        37.38471
230.56        38.75082
231.02        40.05839
231.48        40.15435
231.93        38.88095
232.39        36.97534
232.85        35.29033
233.31        34.93655
233.77        35.96945
234.22        37.99916
234.68        40.21072
235.14        41.43842
235.60        41.35611
236.05          40.305
236.51        38.78704
236.97        37.88968
237.43        38.09809
237.88        39.12941
238.34        40.67822
238.80         42.4721
239.26        44.45541
239.71        47.18305
240.17        50.28703
240.63        52.85013
241.08         54.2557
241.54        53.83601
242.00        52.85765
242.46        54.33544
242.91        60.41143
243.37        72.38433
243.83        90.81881
244.28        106.9567
244.74        108.1717
245.20        94.78078
245.66        77.78886
246.11        67.23362
246.57        63.78942
247.03        63.79908
247.48        65.26593
247.94        65.05917
248.40        62.93721
248.85        60.62909
249.31        58.42637
249.77        55.37123
250.22        50.81148
250.68        43.90298
251.14        35.30996
251.59        29.63689
252.05        30.34805
252.51        35.99738
252.96        42.04601
253.42         44.2939
253.88        42.94556
254.33        39.50673
254.79        37.12452
255.25        38.35889
255.70        42.93022
256.16        49.73187
256.62          55.463
257.07        55.35643
257.53        50.82803
257.99        45.00678
258.44        40.59226
258.90        39.86432
259.35        41.75308
259.81        45.14257
260.27        48.30683
260.72        49.11721
261.18        47.77061
261.63         45.1968
262.09          42.819
262.55        41.71347
263.00        41.77282
263.46        42.50864
263.91        43.15862
264.37        43.00124
264.83        41.96868
265.28         40.4446
265.74         38.9732
266.19        37.95194
266.65        37.49998
267.11        37.34275
267.56        37.33192
268.02        37.25028
268.47        37.00863
268.93        36.71754
269.38        36.28528
269.84        35.60807
270.30        34.69044
270.75        33.55397
271.21        32.45459
271.66        31.74225
272.12        31.47586
272.57        31.53144
273.03        31.63457
273.48        31.33187
273.94        30.57596
274.39        29.50852
274.85        28.43163
275.31        27.64338
275.76        27.18549
276.22        26.96536
276.67         26.8258
277.13        26.61769
277.58        26.26007
278.04        25.83687
278.49        25.35829
278.95        24.92924
279.40        24.53347
279.86        24.19529
280.31         23.8436
280.77        23.46834
281.22        23.04144
281.68        22.62019
282.13        22.24099
282.59         22.0152
283.04        21.92263
283.50        21.93617
283.95        21.95905
284.41        21.84847
284.86        21.57699
285.32        21.21637
285.77        20.84543
286.22        20.62025
286.68        20.56848
287.13        20.61561
287.59        20.70488
288.04        20.71336
288.50        20.63038
288.95        20.47609
289.41        20.30784
289.86        20.15612
290.32        20.06064
290.77        19.99759
291.22        19.97129
291.68        19.98006
292.13        20.01784
292.59        20.10381
293.04        20.24952
293.50        20.48649
293.95        20.80724
294.40        21.19969
294.86        21.63275
295.31        22.05263
295.77        22.45119
296.22         22.8362
296.68        23.22942
297.13        23.65681
297.58        24.12822
298.04        24.62725
298.49        25.14756
298.95        25.69407
299.40        26.25011
299.85        26.81432
300.31        27.34635
300.76         27.7795
301.21        28.10593
301.67        28.35326
302.12        28.56281
302.58        28.85014
303.03        29.21111
303.48        29.62882
303.94        30.04151
304.39        30.32838
304.84        30.47969
305.30        30.54378
305.75        30.57033
306.20        30.68297
306.66        30.90987
307.11        31.19568
307.57        31.47663
308.02        31.61789
308.47        31.60231
308.93        31.47673
309.38        31.30655
309.83        31.23215
310.29        31.28053
310.74        31.40535
311.19        31.51504
311.65         31.4587
312.10        31.20521
312.55        30.81223
313.00         30.3975
313.46          30.131
313.91        30.03766
314.36        30.07221
314.82        30.13239
315.27        30.06151
315.72        29.81868
316.18        29.46589
316.63        29.08588
317.08        28.81748
317.53        28.69163
317.99        28.65495
318.44        28.64533
318.89        28.55463
319.35        28.35254
319.80        28.07552
320.25        27.76663
320.70        27.49241
321.16        27.27119
321.61        27.08784
322.06        26.91607
322.51        26.71922
322.97         26.4821
323.42        26.22132
323.87        25.96019
324.32        25.73729
324.78        25.55104
325.23        25.40362
325.68        25.24163
326.13        24.98777
326.59        24.63354
327.04        24.21984
327.49        23.82028
327.94        23.54913
328.39        23.42524
328.85        23.40039
329.30        23.42717
329.75        23.37481
330.20        23.20421
330.66        22.95185
331.11        22.66611
331.56        22.40683
332.01         22.1962
332.46        22.00541
332.92        21.83127
333.37        21.70959
333.82        21.62786
334.27        21.59049
334.72        21.55187
335.17        21.42845
335.63        21.20604
336.08        20.92394
336.53        20.64686
336.98        20.49225
337.43        20.49052
337.88         20.5997
338.34        20.77013
338.79        20.93636
339.24        21.05167
339.69        21.12902
340.14        21.14262
340.59        21.05551
341.05        20.88102
341.50        20.63449
341.95        20.37314
342.40         20.1884
342.85        20.10383
343.30        20.09052
343.75        20.13116
344.20         20.1933
344.66        20.25687
345.11        20.32714
345.56        20.35858
346.01        20.28002
346.46        20.09267
346.91        19.82729
347.36        19.56002
347.81        19.41477
348.26        19.41703
348.72        19.52256
349.17        19.68016
349.62        19.81637
350.07        19.89835
350.52        19.94951
350.97        19.94057
351.42        19.82661
351.87        19.61651
352.32        19.32868
352.77         19.0463
353.22        18.89546
353.67        18.89617
354.13        19.01157
354.58        19.16254
355.03        19.21687
355.48        19.13594
355.93        18.96328
356.38        18.74647
356.83        18.55674
357.28        18.41591
357.73        18.29687
358.18        18.19303
358.63        18.09973
359.08        18.01068
359.53        17.93071
359.98        17.84579
360.43        17.72777
360.88        17.57144
361.33        17.38563
361.78        17.18397
362.23        16.99192
362.68        16.82327
363.13        16.67644
363.58        16.55387
364.03        16.45741
364.48        16.38164
364.93         16.3192
365.38        16.26576
365.83        16.21392
366.28        16.15746
366.73        16.09804
367.18        16.01398
367.63         15.8732
368.08        15.67707
368.53        15.43939
368.98         15.2072
369.43        15.05548
369.88         14.9982
370.33        15.00997
370.78        15.04432
371.23        15.02195
371.68         14.9185
372.13        14.75938
372.58        14.56729
373.03        14.37877
373.48         14.2112
373.93        14.05469
374.38        13.92011
374.83        13.82661
375.28         13.7738
375.72        13.75227
376.17        13.74952
376.62        13.72451
377.07         13.6691
377.52        13.59539
377.97        13.51197
378.42        13.43758
378.87        13.37813
379.32        13.31993
379.77        13.27281
380.22        13.25319
380.67        13.25486
381.11        13.27438
381.56        13.26277
382.01        13.15145
382.46        12.93832
382.91        12.66385
383.36        12.38831
383.81        12.18963
384.26        12.08402
384.71        12.04769
385.15        12.06355
385.60        12.10603
386.05         12.1559
386.50        12.21751
386.95        12.27021
387.40        12.28284
387.85        12.25288
388.29        12.18128
388.74        12.10701
389.19        12.06185
389.64        12.05133
390.09        12.06065
390.54         12.0792
390.98        12.08342
391.43        12.07472
391.88        12.06513
392.33         12.0456
392.78        12.00196
393.23         11.9374
393.67        11.84734
394.12        11.77859
394.57        11.77866
395.02          11.849
395.47        11.96647
395.91        12.07743
396.36        12.08154
396.81        11.96728
397.26        11.77739
397.71        11.56325
398.15        11.40621
398.60        11.34208
399.05        11.29683
399.50        11.27409
399.95        11.36307
400.39        11.51954
400.84        11.54395
401.29        11.43483
401.74        11.36964
402.18        11.35747
402.63        11.28077
403.08        11.17316
403.53        11.14302
403.97        11.20069
404.42        11.31605
404.87        11.43524
405.32        11.46892
405.76        11.39622
406.21        11.25251
406.66        11.09407
407.11        11.00897
407.55        11.02179
408.00        11.10165
408.45        11.20299
408.90         11.2389
409.34        11.18459
409.79        11.07312
410.24        10.95155
410.68        10.88091
411.13        10.87835
411.58        10.92073
412.03        10.97881
412.47        11.00436
412.92        10.97887
413.37        10.92499
413.81        10.86295
414.26        10.82817
414.71        10.82547
415.15        10.84483
415.60        10.87406
416.05        10.90067
416.49        10.91876
416.94        10.93151
417.39        10.93803
417.83        10.93624
418.28        10.92431
418.73        10.89751
419.17        10.86371
419.62        10.83708
420.07        10.82112
420.51        10.81356
420.96        10.79948
421.41         10.7527
421.85        10.66911
422.30         10.5581
422.74        10.44614
423.19        10.41985
423.64        10.46911
424.08        10.51569
424.53        10.53373
424.98        10.56389
425.42        10.60276
425.87        10.58918
426.31         10.5377
426.76        10.55028
427.21        10.60317
427.65        10.54246
428.10        10.40289
428.54        10.34892
428.99        10.39241
429.44        10.47916
429.88        10.56577
430.33         10.5433
430.77        10.43738
431.22        10.45382
431.66         10.5702
432.11        10.56406
432.56        10.43354
433.00        10.32887
433.45        10.25139
433.89        10.13976
434.34        10.08693
434.78        10.00646
435.23        10.40319
435.67        10.52946
436.12        10.50655
436.57        10.39001
437.01        10.23283
437.46        10.13082
437.90        10.10566
438.35        10.09935
438.79         10.0946
439.24        10.09952
439.68        10.10801
440.13        10.12162
440.57        10.13618
441.02         10.1522
441.46        10.16642
441.91        10.14697
442.35        10.10338
442.80        10.15056
443.24        10.24598
443.69        10.21397
444.13        10.07092
444.58         10.0045
445.02        10.02211
445.47        10.02585
445.91         10.0096
446.36        10.01209
446.80        10.02866
447.24        10.04725
447.69        10.06711
448.13        10.08143
448.58        10.09023
449.02        10.09538
449.47        10.09202
449.91        10.06846
450.36        10.02815
450.80        9.973621
451.25        9.925968
451.69         9.91302
452.13        9.938241
452.58          9.9888
453.02         10.0398
453.47        10.05247
453.91        10.01746
454.36        9.950592
454.80        9.863936
455.24        9.775717
455.69        9.700022
456.13        9.626178
456.58        9.575486
457.02        9.563072
457.46        9.592024
457.91        9.654399
458.35        9.715952
458.79        9.721195
459.24        9.670285
459.68        9.576441
460.13        9.483592
460.57        9.431517
461.01        9.438472
461.46        9.478394
461.90        9.544452
462.34        9.614789
462.79        9.673586
463.23        9.730848
463.68        9.759772
464.12        9.724198
464.56        9.623514
465.01        9.486259
465.45        9.343909
465.89        9.264813
466.34        9.258152
466.78        9.304103
467.22        9.376124
467.67        9.416965
468.11        9.414484
468.55        9.381007
468.99        9.339097
469.44         9.32397
469.88        9.344316
470.32        9.385043
470.77        9.430083
471.21        9.458204
471.65         9.46158
472.10        9.451427
472.54         9.43119
472.98        9.410314
473.42        9.392791
473.87        9.377201
474.31        9.363193
474.75        9.360111
475.20         9.37124
475.64        9.393533
476.08        9.418187
476.52        9.424947
476.97        9.411901
477.41        9.388944
477.85        9.378323
478.29        9.402521
478.74        9.473192
479.18        9.600911
479.62        9.747857
480.06        9.838573
480.50        9.860834
480.95        9.830813
481.39        9.767608
481.83        9.796908
482.27        9.782623
482.72        9.827228
483.16        9.884124
483.60        9.911668
484.04        9.886345
484.48        9.954606
484.93        10.14543
485.37        10.03923
485.81        9.940634
486.25        10.42128
486.69          10.048
487.14        10.18793
487.58        11.05663
488.02        10.88861
488.46        10.53442
488.90        10.49361
489.34        10.45691
489.79        10.62509
490.23        10.73315
490.67        10.88785
491.11        11.01966
491.55        11.00268
491.99         10.8957
492.43        10.90792
492.88        11.06139
493.32        11.23083
493.76        11.37935
494.20        11.51327
494.64        11.62398
495.08        11.68719
495.52        11.71925
495.96          11.825
496.41        11.98754
496.85        12.01759
497.29        11.94209
497.73        12.08415
498.17        12.26796
498.61        12.41504
499.05        12.45674
499.49        12.51428
499.93        12.56489
500.37          12.673
500.82        12.81655
501.26         12.9256
501.70        12.99229
502.14          13.063
502.58        13.14959
503.02        13.24399
503.46        13.34687
503.90        13.46146
504.34        13.56651
504.78        13.62596
505.22        13.63527
505.66        13.60728
506.10        13.57502
506.54        13.59169
506.98        13.66883
507.42        13.78825
507.86        13.92388
508.30        14.03162
508.74        14.09683
509.18        14.13402
509.62        14.14957
510.06        14.15448
510.50        14.15639
510.94        14.15048
511.38        14.15043
511.82        14.17958
512.26         14.2401
512.70        14.32583
513.14        14.41377
513.58         14.4646
514.02        14.46888
514.46        14.43816
514.90        14.39192
515.34        14.36282
515.78        14.36121
516.22        14.37789
516.66        14.40433
517.10        14.42636
517.54        14.43937
517.98        14.44967
518.42        14.45916
518.86        14.46942
519.30        14.48088
519.74        14.48989
520.18        14.49732
520.62        14.50637
521.06        14.51609
521.50        14.52465
521.93        14.52719
522.37        14.51001
522.81        14.47351
523.25        14.42211
523.69        14.36314
524.13        14.30739
524.57        14.25822
525.01        14.21315
525.45        14.17052
525.89        14.12746
526.32        14.08131
526.76        14.03631
527.20        13.99104
527.64         13.9439
528.08        13.89499
528.52        13.84499
528.96        13.79462
529.40        13.74547
529.83        13.69765
530.27         13.6503
530.71        13.60476
531.15         13.5642
531.59        13.52955
532.03        13.50115
532.46        13.47068
532.90        13.43468
533.34        13.39057
533.78        13.33262
534.22        13.27329
534.66        13.24795
535.09        13.24966
535.53        13.24114
535.97        13.21279
536.41        13.18456
536.85        13.15571
537.28        13.11081
537.72        13.06725
538.16        13.06238
538.60        13.10099
539.04        13.17053
539.47        13.24662
539.91        13.30028
540.35        13.32233
540.79        13.32513
541.22         13.3248
541.66        13.35156
542.10        13.41204
542.54        13.49752
542.97        13.59835
543.41        13.70475
543.85        13.81103
544.29        13.92257
544.72          14.037
545.16        14.16119
545.60        14.29297
546.04        14.42932
546.47        14.57355
546.91        14.72836
547.35        14.88914
547.79         15.0538
548.22        15.20806
548.66        15.32787
549.10        15.42966
549.53        15.51406
549.97        15.59926
550.41        15.67822
550.84         15.7729
551.28        15.91926
551.72        16.08923
552.15        16.25019
552.59        16.41278
553.03        16.34581
553.46        16.55141
553.90        16.61811
554.34        16.69489
554.77        16.77638
555.21        16.86917
555.65        16.96927
556.08        17.06796
556.52        17.15856
556.96        17.23311
557.39        17.32622
557.83        17.42384
558.27        17.42653
558.70        17.36209
559.14        17.38031
559.57         17.4788
560.01        17.56508
560.45        17.62397
560.88        17.68687
561.32        17.75988
561.75        17.81783
562.19        17.87124
562.63        17.93284
563.06        18.00203
563.50        18.07567
563.93        18.14024
564.37         18.2218
564.80        18.32566
565.24        18.40119
565.68        18.40518
566.11        18.67054
566.55        18.52862
566.98        18.54597
567.42        18.57062
567.85        18.65504
568.29        18.81376
568.72         19.0397
569.16        19.31964
569.60        19.54509
570.03        19.77545
570.47        19.96038
570.90        20.11303
571.34        20.27419
571.77        20.40565
572.21        20.55049
572.64        20.67398
573.08          20.783
573.51        20.91687
573.95        21.02444
574.38        21.11081
574.82        21.44472
