SpectraSmart Spectrum 2.9.0.0
--------- Device Information -----------
Spectrum Name :  反射率_0
Saving Time :  2024/04/26 22:11:53
Spectro-Module Model Name : SE2030-DUVN
Spectro-Module Serial Number : OS361AC55029948
Wavelength Start : 200
Wavelength End : 1025
Wavelength Unit : Wavelength(nm)
Spectrum Unit : Reflectance(%)
-----------Spectrum Setting ------------
Integration Time : 20ms
Average : 10
Boxcar : 0
Background removal :  enabled
linearity correction :  enabled
SC :  disabled
Intensity correction :  disabled
DWT denoise :  enabled
savitzky-golay :  disabled
FFT :  disabled
Running average :  disabled
Kalman :  disabled
High pass :  disabled
---------------BEGIN--------------------
Wavelength(nm)             Reflectance(%)
200.29               0
200.75        38.42376
201.21        34.93055
201.67         32.6944
202.13        32.38771
202.58        33.83052
203.04        37.50302
203.50        42.73946
203.96         46.3301
204.42        45.95233
204.88        41.44447
205.34         35.1782
205.80        32.45029
206.26        34.33866
206.72        38.58512
207.18        42.31054
207.64        42.89498
208.10        40.11378
208.55        34.57535
209.01        26.39402
209.47        21.47915
209.93        23.66971
210.39         28.9718
210.85         34.4147
211.31        39.84502
211.77        47.17695
212.23        61.49848
212.69        94.89688
213.14        147.4215
213.60        139.2224
214.06        97.58444
214.52        71.35751
214.98        61.08879
215.44        58.41502
215.90        58.35494
216.36        60.31141
216.81        63.97437
217.27        69.50713
217.73        79.51374
218.19        90.90958
218.65        88.99732
219.11        72.76373
219.57        53.88643
220.02        42.07151
220.48        41.05279
220.94        49.29526
221.40        67.44794
221.86        94.87998
222.32        113.3193
222.77        106.9094
223.23        87.85681
223.69        68.68622
224.15        56.41476
224.61        50.10872
225.06        46.36801
225.52        45.09419
225.98        46.34064
226.44        49.50425
226.90        54.48309
227.36        59.34693
227.81        60.56532
228.27        57.86152
228.73         52.6415
229.19        47.49364
229.65        45.38058
230.10        46.44396
230.56        49.62481
231.02        53.23165
231.48        54.57463
231.93         53.1511
232.39        50.42089
232.85        47.67849
233.31        46.58047
233.77        47.31779
234.22        49.18067
234.68         51.5571
235.14        53.67717
235.60        55.22953
236.05        56.59876
236.51        57.51159
236.97        57.42892
237.43        56.27188
237.88         54.0855
238.34        51.78733
238.80        51.24403
239.26        53.15267
239.71        58.01303
240.17        64.90881
240.63        70.67352
241.08        73.15705
241.54        71.82012
242.00        69.10215
242.46        70.72475
242.91        80.58264
243.37        100.4393
243.83        131.4091
244.28        160.2884
244.74        165.8324
245.20         146.723
245.66        119.4343
246.11        99.61841
246.57        88.57494
247.03         81.7229
247.48        76.08483
247.94        68.75808
248.40         61.2911
248.85        55.81699
249.31        52.66347
249.77        51.01112
250.22        50.19822
250.68        49.85131
251.14        50.21536
251.59        51.96175
252.05        55.07871
252.51        58.94064
252.96        61.54774
253.42        61.74215
253.88        60.00932
254.33        56.90363
254.79        54.95211
255.25        56.02398
255.70        59.76484
256.16           65.34
256.62        70.02868
257.07        69.83556
257.53        66.00078
257.99        61.03484
258.44         56.9188
258.90        55.55145
259.35        55.98394
259.81         57.5432
260.27        59.00345
260.72        58.95359
261.18        57.62372
261.63        55.47203
262.09        53.59206
262.55        52.64808
263.00        52.49987
263.46         52.8974
263.91         53.1255
264.37        52.58495
264.83        51.23991
265.28        49.40764
265.74        47.73245
266.19        46.71019
266.65        46.45082
267.11        46.62741
267.56        46.91843
268.02        46.82636
268.47          46.215
268.93        45.30946
269.38        44.20474
269.84        43.09491
270.30        42.05423
270.75        41.00458
271.21        40.10434
271.66        39.54439
272.12        39.32893
272.57        39.37793
273.03        39.42196
273.48        39.00294
273.94         38.0988
274.39        36.84961
274.85        35.59575
275.31        34.67757
275.76        34.13776
276.22        33.86841
276.67        33.70712
277.13        33.51816
277.58        33.19195
278.04        32.80596
278.49        32.29972
278.95        31.69282
279.40        30.96855
279.86         30.2199
280.31        29.45036
280.77        28.77503
281.22        28.18462
281.68        27.70145
282.13        27.33403
282.59        27.17078
283.04        27.16569
283.50        27.30503
283.95        27.43996
284.41        27.34904
284.86        26.99192
285.32        26.46347
285.77        25.91718
286.22        25.63232
286.68        25.64931
287.13        25.84365
287.59        26.07727
288.04        26.09379
288.50        25.86265
288.95        25.45323
289.41         24.9954
289.86        24.61215
290.32        24.37576
290.77        24.23141
291.22        24.16169
291.68         24.1296
292.13          24.117
292.59        24.16205
293.04        24.28484
293.50        24.52873
293.95        24.88731
294.40        25.33842
294.86        25.84383
295.31        26.34145
295.77        26.81727
296.22        27.27394
296.68        27.73186
297.13        28.21278
297.58        28.72698
298.04        29.26143
298.49        29.80306
298.95        30.35019
299.40         30.8866
299.85        31.41357
300.31        31.91604
300.76        32.36063
301.21         32.7452
301.67        33.09038
302.12        33.39613
302.58        33.72111
303.03        34.04983
303.48        34.38647
303.94        34.72096
304.39        35.00354
304.84        35.23766
305.30        35.44581
305.75        35.62177
306.20        35.81114
306.66        36.02638
307.11          36.235
307.57        36.42348
308.02         36.5236
308.47        36.53776
308.93        36.49665
309.38        36.42211
309.83        36.39551
310.29        36.43263
310.74        36.50309
311.19        36.56604
311.65        36.55012
312.10        36.43191
312.55        36.23352
313.00        36.00074
313.46        35.79853
313.91         35.6304
314.36         35.4888
314.82        35.33307
315.27        35.11084
315.72        34.81416
316.18        34.47712
316.63        34.14578
317.08        33.90312
317.53        33.76176
317.99        33.68582
318.44        33.62892
318.89        33.50474
319.35        33.28841
319.80         33.0056
320.25        32.68484
320.70        32.37296
321.16        32.08671
321.61        31.82475
322.06         31.5787
322.51        31.34054
322.97        31.10135
323.42         30.8647
323.87        30.64708
324.32         30.4765
324.78        30.34153
325.23         30.2519
325.68        30.12562
326.13        29.84046
326.59         29.3819
327.04        28.80162
327.49        28.22999
327.94        27.87136
328.39        27.76275
328.85        27.83508
329.30        27.97605
329.75         27.9261
330.20        27.61136
330.66        27.10403
331.11        26.54255
331.56        26.12652
332.01        25.91485
332.46        25.84244
332.92        25.82153
333.37        25.74685
333.82         25.5633
334.27         25.3189
334.72        25.05482
335.17        24.82881
335.63        24.66321
336.08        24.55309
336.53        24.48093
336.98        24.43307
337.43        24.39963
337.88        24.37356
338.34        24.36867
338.79        24.43193
339.24        24.54745
339.69        24.69236
340.14        24.77957
340.59        24.67651
341.05        24.37502
341.50        23.92736
341.95         23.4507
342.40        23.12161
342.85        22.98637
343.30        22.99348
343.75        23.08111
344.20         23.1446
344.66        23.14789
345.11        23.12164
345.56        23.07014
346.01        22.99842
346.46        22.91981
346.91        22.83217
347.36        22.75661
347.81        22.73511
348.26        22.77276
348.72        22.85152
349.17        22.95557
349.62        23.06996
350.07        23.17745
350.52          23.278
350.97        23.32595
351.42        23.25129
351.87        23.05343
352.32        22.76529
352.77        22.46679
353.22        22.27426
353.67        22.21411
354.13        22.25708
354.58        22.35139
355.03        22.40949
355.48        22.40129
355.93        22.35157
356.38        22.28526
356.83        22.24052
357.28        22.22494
357.73        22.21662
358.18        22.19747
358.63        22.14509
359.08        22.05377
359.53        21.93512
359.98        21.79848
360.43         21.6541
360.88        21.50458
361.33        21.34482
361.78        21.17828
362.23        21.01225
362.68        20.85106
363.13        20.70114
363.58        20.55291
364.03        20.38604
364.48        20.20203
364.93        20.01233
365.38        19.84644
365.83        19.75257
366.28        19.73785
366.73        19.77804
367.18        19.84133
367.63        19.88018
368.08        19.87307
368.53        19.82622
368.98        19.73539
369.43        19.59619
369.88        19.41472
370.33         19.1978
370.78        18.96531
371.23        18.75239
371.68        18.57752
372.13        18.44205
372.58          18.352
373.03        18.30914
373.48        18.30562
373.93        18.33266
374.38        18.36769
374.83        18.37641
375.28        18.34411
375.72        18.26802
376.17        18.16358
376.62        18.03448
377.07        17.89114
377.52        17.74215
377.97        17.59842
378.42        17.47954
378.87        17.39301
379.32        17.32976
379.77        17.30177
380.22        17.32428
380.67        17.38928
381.11        17.49423
381.56        17.57187
382.01        17.52708
382.46        17.34892
382.91         17.0798
383.36        16.80462
383.81        16.64146
384.26        16.61057
384.71        16.67269
385.15        16.77727
385.60        16.84114
386.05        16.83261
386.50         16.7781
386.95         16.6882
387.40        16.58025
387.85        16.46711
388.29        16.33345
388.74        16.21423
389.19        16.12195
389.64        16.05648
390.09        16.01215
390.54        15.97418
390.98        15.91194
391.43        15.83115
391.88        15.74243
392.33        15.65543
392.78        15.58352
393.23        15.52929
393.67        15.47656
394.12        15.44392
394.57        15.42898
395.02        15.42695
395.47        15.43174
395.91        15.42728
396.36        15.37691
396.81        15.28732
397.26        15.17727
397.71        15.06632
398.15        14.99211
398.60        14.97888
399.05        14.94787
399.50         14.9122
399.95        15.00206
400.39        15.16427
400.84        15.12961
401.29        14.90648
401.74        14.74621
402.18        14.66839
402.63        14.52397
403.08        14.35189
403.53        14.27784
403.97        14.31175
404.42        14.41871
404.87        14.54086
405.32        14.58105
405.76        14.51368
406.21        14.37617
406.66        14.21764
407.11        14.11711
407.55        14.09874
408.00        14.12979
408.45        14.17955
408.90         14.1883
409.34        14.13686
409.79        14.05074
410.24        13.95406
410.68        13.87222
411.13        13.81653
411.58        13.77517
412.03        13.73936
412.47        13.69992
412.92        13.65088
413.37        13.60283
413.81        13.56105
414.26        13.54177
414.71        13.54198
415.15         13.5594
415.60        13.57936
416.05        13.58889
416.49        13.58311
416.94        13.56158
417.39        13.53321
417.83         13.5111
418.28        13.49748
418.73        13.48893
419.17          13.477
419.62        13.44823
420.07        13.40245
420.51          13.343
420.96        13.28686
421.41         13.2571
421.85        13.25038
422.30        13.25123
422.74        13.23957
423.19         13.2468
423.64        13.24766
424.08        13.17148
424.53        13.02983
424.98        12.94767
425.42        12.94724
425.87        12.93161
426.31         12.9077
426.76        12.98061
427.21        13.10754
427.65        13.10342
428.10        12.98538
428.54        12.91706
428.99         12.9125
429.44        12.92167
429.88        12.92206
430.33        12.83148
430.77        12.69303
431.22        12.73573
431.66        12.92753
432.11        12.99123
432.56        12.91258
433.00        12.88081
433.45        12.85729
433.89        12.69013
434.34        12.48843
434.78        12.18408
435.23        12.45816
435.67        12.49596
436.12        12.46646
436.57        12.40929
437.01        12.34842
437.46        12.32867
437.90        12.34912
438.35        12.35677
438.79        12.34501
439.24        12.34791
439.68        12.36504
440.13        12.38713
440.57        12.40141
441.02         12.4008
441.46        12.38292
441.91        12.31938
442.35        12.23411
442.80        12.27956
443.24        12.40639
443.69        12.39742
444.13        12.26298
444.58        12.21583
445.02        12.25914
445.47        12.27296
445.91        12.25427
446.36        12.25861
446.80        12.28212
447.24        12.30961
447.69         12.3288
448.13        12.31468
448.58        12.26755
449.02        12.19653
449.47        12.12271
449.91        12.07285
450.36        12.05737
450.80        12.06535
451.25        12.08829
451.69        12.10572
452.13        12.11152
452.58        12.10865
453.02        12.09736
453.47        12.07981
453.91        12.05772
454.36        12.03251
454.80        12.00024
455.24        11.95461
455.69        11.90074
456.13        11.83344
456.58        11.78014
457.02        11.76095
457.46        11.78329
457.91         11.8391
458.35        11.88999
458.79        11.87692
459.24        11.80245
459.68        11.67973
460.13        11.56777
460.57        11.52308
461.01        11.56652
461.46         11.6666
461.90        11.79366
462.34        11.88599
462.79         11.9184
463.23        11.91293
463.68        11.87366
464.12        11.81707
464.56         11.7529
465.01        11.69244
465.45        11.63274
465.89        11.60346
466.34        11.60705
466.78        11.63525
467.22        11.68228
467.67        11.72374
468.11        11.75682
468.55         11.7801
468.99        11.79447
469.44        11.80142
469.88        11.80307
470.32        11.79834
470.77        11.79031
471.21         11.7877
471.65        11.79171
472.10        11.80321
472.54        11.81949
472.98        11.84024
473.42        11.86414
473.87        11.89487
474.31        11.92084
474.75        11.93651
475.20        11.94388
475.64        11.93942
476.08        11.93551
476.52        11.94519
476.97        11.97118
477.41        12.01593
477.85        12.07102
478.29        12.10364
478.74        12.11982
479.18        12.15797
479.62        12.21641
480.06        12.27242
480.50         12.3268
480.95        12.37353
481.39          12.404
481.83        12.52921
482.27        12.56222
482.72        12.64893
483.16        12.72959
483.60        12.77201
484.04        12.77339
484.48        12.82094
484.93        12.94125
485.37        12.89843
485.81        13.09605
486.25        13.25528
486.69        12.89474
487.14        13.17553
487.58        14.13187
488.02        13.99066
488.46        13.65094
488.90        13.66989
489.34        13.61644
489.79        13.81588
490.23        13.95574
490.67        14.17627
491.11        14.39518
491.55         14.4504
491.99        14.38703
492.43        14.41994
492.88        14.56969
493.32        14.69669
493.76        14.79466
494.20        14.93716
494.64        15.12637
495.08        15.30509
495.52        15.46383
495.96        15.68474
496.41        15.92572
496.85        15.97148
497.29        15.85518
497.73        15.95647
498.17        16.06903
498.61        16.19395
499.05        16.24969
499.49        16.31308
499.93        16.35368
500.37        16.51262
500.82        16.74802
501.26        16.91463
501.70        16.99481
502.14        17.06562
502.58        17.15199
503.02        17.25997
503.46        17.39544
503.90        17.55207
504.34        17.70397
504.78        17.80961
505.22        17.85845
505.66         17.8637
506.10        17.84944
506.54        17.85399
506.98        17.89054
507.42        17.95122
507.86        18.02554
508.30        18.09502
508.74        18.15419
509.18        18.20931
509.62        18.26924
510.06        18.34743
510.50        18.44425
510.94        18.55049
511.38        18.65206
511.82        18.72806
512.26        18.77378
512.70        18.79779
513.14        18.80884
513.58        18.82137
514.02        18.84173
514.46        18.86497
514.90         18.8957
515.34        18.94152
515.78        18.99942
516.22         19.0645
516.66        19.11994
517.10        19.13817
517.54         19.1144
517.98        19.05994
518.42        18.98843
518.86        18.92229
519.30        18.87198
519.74        18.83305
520.18        18.81147
520.62        18.81528
521.06        18.84208
521.50        18.88824
521.93        18.93763
522.37        18.95534
522.81        18.93577
523.25        18.88697
523.69         18.8219
524.13        18.76289
524.57        18.71597
525.01        18.67215
525.45        18.63075
525.89        18.59094
526.32        18.54873
526.76        18.51187
527.20        18.46787
527.64        18.39734
528.08        18.30044
528.52        18.18486
528.96        18.07388
529.40        18.00423
529.83        17.98148
530.27        17.99277
530.71        18.01442
531.15        18.00942
531.59        17.96796
532.03        17.90287
532.46        17.82158
532.90        17.74886
533.34         17.6903
533.78        17.62921
534.22         17.5729
534.66        17.55493
535.09        17.56205
535.53         17.5499
535.97        17.51109
536.41        17.47929
536.85        17.45449
537.28        17.41263
537.72        17.37035
538.16        17.36744
538.60        17.40969
539.04        17.48679
539.47        17.57296
539.91        17.63953
540.35        17.67678
540.79        17.69541
541.22        17.71792
541.66        17.78621
542.10        17.90478
542.54        18.05825
542.97        18.21798
543.41        18.34749
543.85        18.43618
544.29        18.50063
544.72        18.55701
545.16        18.64283
545.60        18.76511
546.04        18.91586
546.47        19.09136
546.91        19.28124
547.35        19.47459
547.79        19.67073
548.22        19.85945
548.66        20.02163
549.10        20.17808
549.53        20.32398
549.97        20.46156
550.41        20.54891
550.84        20.61113
551.28        20.70773
551.72        20.83279
552.15        20.99239
552.59        21.21103
553.03        21.17349
553.46        21.50332
553.90        21.62654
554.34        21.72444
554.77        21.80251
555.21         21.8816
555.65        21.97652
556.08        22.08317
556.52        22.18588
556.96        22.27043
557.39         22.3765
557.83        22.48443
558.27        22.46964
558.70        22.37109
559.14        22.38506
559.57        22.50883
560.01        22.62116
560.45         22.6988
560.88        22.77747
561.32        22.86307
561.75        22.92341
562.19        22.97465
562.63         23.0377
563.06        23.11251
563.50        23.19433
563.93        23.26189
564.37        23.34201
564.80        23.44245
565.24        23.50394
565.68        23.47742
566.11        23.79663
566.55        23.60923
566.98        23.62849
567.42        23.66013
567.85        23.77144
568.29        23.97637
568.72        24.26529
569.16        24.60304
569.60        24.82306
570.03         25.0051
570.47         25.1026
570.90        25.16566
571.34        25.29773
571.77        25.45906
572.21        25.66917
572.64        25.86449
573.08        26.05132
573.51        26.24013
573.95         26.3072
574.38        26.30645
574.82        26.56543
