SpectraSmart Spectrum 2.9.0.0
--------- Device Information -----------
Spectrum Name :  反射率_0
Saving Time :  2024/04/26 22:09:30
Spectro-Module Model Name : SE2030-DUVN
Spectro-Module Serial Number : OS361AC55029948
Wavelength Start : 200
Wavelength End : 1025
Wavelength Unit : Wavelength(nm)
Spectrum Unit : Reflectance(%)
-----------Spectrum Setting ------------
Integration Time : 20ms
Average : 10
Boxcar : 0
Background removal :  enabled
linearity correction :  enabled
SC :  disabled
Intensity correction :  disabled
DWT denoise :  enabled
savitzky-golay :  disabled
FFT :  disabled
Running average :  disabled
Kalman :  disabled
High pass :  disabled
---------------BEGIN--------------------
Wavelength(nm)             Reflectance(%)
200.29               0
200.75        35.30645
201.21        40.15117
201.67        44.98461
202.13        47.88324
202.58        48.76878
203.04        48.52268
203.50        47.87749
203.96        48.50145
204.42        51.33467
204.88        55.81028
205.34        59.91163
205.80        60.54224
206.26        57.25299
206.72        51.54556
207.18         46.1572
207.64        42.99938
208.10        41.95037
208.55        42.99915
209.01        44.55882
209.47        42.69466
209.93        37.57817
210.39          32.738
210.85        30.54579
211.31        32.29732
211.77        39.13242
212.23        56.06706
212.69        100.4635
213.14         181.633
213.60        190.4231
214.06        142.1192
214.52        106.3189
214.98        89.65411
215.44        82.13034
215.90        76.87528
216.36        73.31032
216.81        71.61646
217.27        72.11669
217.73        77.06654
218.19        85.04482
218.65        86.62118
219.11        79.66711
219.57        69.99605
220.02        64.85437
220.48        69.09088
220.94        82.72802
221.40        107.9272
221.86        143.1905
222.32        163.4063
222.77        149.2979
223.23        118.7979
223.69        91.18182
224.15        76.85951
224.61        73.00218
225.06        73.76242
225.52        76.73444
225.98        79.48005
226.44        81.43425
226.90        83.53809
227.36        85.18332
227.81        85.00845
228.27        83.18518
228.73        80.07677
229.19        77.05193
229.65        75.77187
230.10        76.23012
230.56        77.90483
231.02        79.75406
231.48        80.12962
231.93        78.72913
232.39        76.64532
232.85         74.5311
233.31        73.29386
233.77        73.02493
234.22        73.26119
234.68        73.89819
235.14        74.94852
235.60         76.3005
236.05        78.17354
236.51        79.70708
236.97        79.27342
237.43        76.46716
237.88        71.75774
238.34        66.81128
238.80        64.70618
239.26          66.562
239.71        72.75086
240.17        82.19824
240.63        90.99597
241.08        96.18793
241.54        96.93246
242.00        95.26018
242.46        96.47965
242.91        104.2148
243.37        119.0444
243.83        140.6095
244.28        156.2622
244.74        149.7366
245.20        124.5431
245.66        98.36415
246.11        84.79836
246.57        83.42393
247.03        89.06632
247.48        96.12844
247.94        95.48697
248.40        87.70525
248.85        78.47839
249.31        70.80647
249.77        65.08472
250.22        60.33665
250.68        55.05927
251.14        49.88082
251.59        48.26883
252.05        51.99084
252.51        59.46326
252.96        66.06104
253.42        67.96496
253.88        65.74878
254.33         61.0735
254.79        57.48009
255.25        57.71845
255.70        61.49751
256.16         67.6355
256.62        73.13531
257.07        73.56238
257.53        70.07945
257.99        65.36435
258.44        61.56275
258.90        60.77863
259.35        62.00005
259.81        64.45967
260.27        66.75998
260.72        67.24094
261.18         66.1495
261.63        64.04549
262.09         62.1685
262.55         61.2734
263.00        61.22731
263.46        61.76266
263.91        62.14439
264.37         61.8077
264.83        60.68862
265.28        59.09162
265.74        57.63837
266.19        56.73948
266.65        56.52791
267.11        56.70136
267.56        56.99499
268.02        57.01236
268.47        56.62011
268.93        55.98666
269.38        55.15694
269.84         54.2663
270.30        53.35696
270.75        52.37461
271.21         51.4388
271.66        50.66469
272.12        50.07874
272.57        49.63552
273.03        49.20815
273.48        48.56157
273.94        47.71152
274.39        46.68811
274.85        45.70954
275.31          44.913
275.76        44.29575
276.22        43.85303
276.67        43.43092
277.13        42.93279
277.58        42.27834
278.04        41.54961
278.49        40.78618
278.95        40.18572
279.40         39.7113
279.86        39.37628
280.31        39.00274
280.77         38.4755
281.22        37.73422
281.68        36.91508
282.13        36.10889
282.59        35.54645
283.04        35.20963
283.50         35.0446
283.95        34.91684
284.41        34.64458
284.86        34.18434
285.32        33.63864
285.77        33.07951
286.22        32.67248
286.68        32.44258
287.13         32.2897
287.59         32.1706
288.04         31.9709
288.50        31.68987
288.95         31.3405
289.41        30.95886
289.86        30.51732
290.32        30.06974
290.77        29.61135
291.22        29.21408
291.68        28.96848
292.13        28.87785
292.59        28.93248
293.04        29.08538
293.50        29.28216
293.95        29.48717
294.40         29.7125
294.86        29.95859
295.31        30.21882
295.77        30.50123
296.22        30.79405
296.68        31.10298
297.13        31.42548
297.58        31.76843
298.04        32.13071
298.49        32.52395
298.95        32.98197
299.40         33.4936
299.85        34.04903
300.31        34.59563
300.76        35.04164
301.21        35.37468
301.67        35.63123
302.12        35.85418
302.58        36.17311
303.03        36.57911
303.48        37.04782
303.94        37.51895
304.39        37.86538
304.84        38.07883
305.30        38.21348
305.75        38.30184
306.20        38.45013
306.66        38.68964
307.11         38.9673
307.57        39.25441
308.02         39.4572
308.47        39.56639
308.93        39.61529
309.38        39.62592
309.83         39.6827
310.29        39.80146
310.74        39.95156
311.19        40.07565
311.65        40.07738
312.10        39.93438
312.55         39.6809
313.00        39.40614
313.46        39.23968
313.91        39.19451
314.36        39.24374
314.82        39.29609
315.27        39.21517
315.72        38.96731
316.18         38.6087
316.63         38.2262
317.08        37.97019
317.53        37.87195
317.99        37.87763
318.44        37.90873
318.89        37.82538
319.35        37.59258
319.80        37.25799
320.25        36.89006
320.70        36.59742
321.16        36.40686
321.61        36.29061
322.06        36.19992
322.51        36.06203
322.97        35.84726
323.42        35.58239
323.87        35.29922
324.32        35.05196
324.78        34.84341
325.23         34.6805
325.68        34.50319
326.13        34.22681
326.59        33.84526
327.04        33.40746
327.49        33.00585
327.94        32.78514
328.39        32.76814
328.85        32.89153
329.30        33.08295
329.75        33.14556
330.20        33.01336
330.66          32.726
331.11        32.36779
331.56        32.05298
332.01        31.82158
332.46        31.63824
332.92        31.45467
333.37         31.2434
333.82        30.98001
334.27        30.69805
334.72        30.43868
335.17        30.25489
335.63        30.15889
336.08        30.15075
336.53        30.18824
336.98        30.21525
337.43        30.20927
337.88        30.16804
338.34         30.1205
338.79        30.15268
339.24        30.26107
339.69        30.41717
340.14        30.52966
340.59        30.45699
341.05        30.18933
341.50        29.78287
341.95        29.36017
342.40        29.10419
342.85        29.06006
343.30        29.16967
343.75        29.35711
344.20         29.4964
344.66        29.54437
345.11        29.53504
345.56        29.48077
346.01         29.4027
346.46        29.31763
346.91         29.2162
347.36         29.1171
347.81        29.05804
348.26        29.04414
348.72        29.06648
349.17        29.10497
349.62        29.13635
350.07        29.14954
350.52        29.15392
350.97        29.12866
351.42        29.04303
351.87        28.90012
352.32        28.71155
352.77        28.53184
353.22        28.44062
353.67        28.44973
354.13         28.5372
354.58        28.64086
355.03        28.65677
355.48         28.5581
355.93        28.37564
356.38        28.17084
356.83        28.03733
357.28        27.99185
357.73         27.9973
358.18        27.99964
358.63        27.91531
359.08        27.72392
359.53        27.45905
359.98        27.15972
360.43          26.878
360.88        26.63085
361.33        26.40564
361.78        26.19388
362.23        25.98422
362.68        25.77747
363.13        25.58561
363.58        25.41744
364.03        25.28015
364.48        25.17338
364.93        25.09093
365.38        25.02465
365.83        24.96436
366.28        24.90406
366.73        24.84074
367.18        24.77323
367.63        24.70257
368.08        24.62546
368.53        24.53709
368.98        24.43111
369.43        24.29819
369.88        24.13822
370.33        23.95872
370.78        23.76664
371.23        23.57386
371.68        23.38998
372.13        23.21663
372.58        23.06529
373.03        22.95108
373.48        22.87124
373.93        22.81546
374.38        22.76304
374.83        22.68132
375.28        22.56129
375.72        22.40866
376.17        22.24308
376.62        22.06675
377.07        21.88986
377.52        21.71573
377.97        21.56504
378.42        21.47461
378.87        21.44565
379.32        21.45506
379.77        21.48152
380.22        21.49133
380.67        21.47075
381.11        21.43944
381.56         21.3573
382.01        21.18687
382.46        20.94128
382.91        20.64515
383.36          20.385
383.81        20.27955
384.26        20.33843
384.71        20.52179
385.15        20.73557
385.60        20.82024
386.05        20.73281
386.50        20.52497
386.95        20.26694
387.40        20.07252
387.85        19.97202
388.29        19.90871
388.74        19.88278
389.19        19.84892
389.64        19.79239
390.09        19.73191
390.54        19.64949
390.98        19.50789
391.43        19.32688
391.88        19.12245
392.33        18.94753
392.78        18.87704
393.23        18.91804
393.67        19.03166
394.12        19.18619
394.57        19.29967
395.02        19.34743
395.47        19.33549
395.91        19.29062
396.36        19.24946
396.81        19.23343
397.26        19.23579
397.71        19.21261
398.15        19.11268
398.60        18.96273
399.05        18.71479
399.50        18.46421
399.95        18.47834
400.39        18.71356
400.84        18.80293
401.29         18.7101
401.74        18.67091
402.18        18.67974
402.63        18.56594
403.08        18.37838
403.53        18.27961
403.97        18.29032
404.42        18.36341
404.87        18.44799
405.32        18.46199
405.76         18.3839
406.21        18.25397
406.66        18.11762
407.11        18.04493
407.55        18.05746
408.00        18.12171
408.45        18.20464
408.90        18.23986
409.34        18.20547
409.79        18.12888
410.24        18.03575
410.68         17.9547
411.13        17.90054
411.58         17.8604
412.03        17.83152
412.47        17.81444
412.92         17.8014
413.37         17.7997
413.81        17.80166
414.26        17.80991
414.71         17.8183
415.15        17.83152
415.60        17.84131
416.05        17.85218
416.49        17.86455
416.94        17.87003
417.39        17.87389
417.83        17.88355
418.28        17.89721
418.73         17.9115
419.17        17.91151
419.62        17.87386
420.07        17.79843
420.51        17.69295
420.96        17.58603
421.41        17.51693
421.85        17.48777
422.30        17.48021
422.74        17.46962
423.19        17.49859
423.64        17.53288
424.08        17.47347
424.53        17.33904
424.98          17.298
425.42        17.37601
425.87         17.4418
426.31        17.47802
426.76         17.5874
427.21        17.70828
427.65        17.60177
428.10        17.34192
428.54         17.2251
428.99        17.28278
429.44         17.4246
429.88        17.56871
430.33        17.52069
430.77        17.32258
431.22        17.31632
431.66        17.49853
432.11        17.56119
432.56        17.50506
433.00        17.56996
433.45        17.67108
433.89        17.53714
434.34        17.29113
434.78        16.85611
435.23        17.20956
435.67        17.27652
436.12        17.29949
436.57        17.31484
437.01        17.31634
437.46        17.30156
437.90        17.25791
438.35        17.14177
438.79        16.99169
439.24        16.92312
439.68        16.95116
440.13         17.0413
440.57        17.15336
441.02        17.23631
441.46        17.26852
441.91        17.22304
442.35        17.13017
442.80        17.20151
443.24        17.37123
443.69        17.33113
444.13        17.11507
444.58        17.05131
445.02         17.1499
445.47        17.23562
445.91        17.27665
446.36        17.30617
446.80         17.3116
447.24        17.28841
447.69        17.24921
448.13         17.2066
448.58          17.172
449.02        17.14081
449.47         17.1221
449.91        17.12047
450.36        17.13968
450.80        17.17383
451.25        17.21593
451.69        17.24305
452.13        17.25118
452.58        17.24117
453.02        17.21887
453.47        17.19779
453.91        17.18229
454.36        17.17365
454.80        17.15933
455.24        17.11806
455.69        17.05481
456.13        16.96743
456.58        16.89922
457.02        16.88693
457.46         16.9414
457.91         17.0451
458.35        17.14365
458.79        17.15573
459.24        17.08194
459.68        16.94235
460.13        16.80565
460.57        16.73132
461.01        16.74795
461.46         16.8186
461.90        16.92854
462.34        17.03839
462.79        17.12374
463.23        17.20181
463.68        17.24485
464.12        17.21834
464.56        17.12181
465.01         16.9915
465.45        16.85088
465.89        16.78014
466.34        16.78959
466.78        16.85272
467.22        16.94921
467.67        17.02369
468.11          17.066
468.55        17.08541
468.99        17.08458
469.44        17.06622
469.88        17.03733
470.32        16.99334
470.77        16.95492
471.21        16.96064
471.65        17.01412
472.10         17.1074
472.54        17.20601
472.98        17.25986
473.42        17.25821
473.87        17.22351
474.31        17.17223
474.75        17.14651
475.20        17.16181
475.64        17.19904
476.08        17.25269
476.52        17.30413
476.97        17.34727
477.41         17.3978
477.85        17.45675
478.29        17.49789
478.74        17.53346
479.18        17.60724
479.62        17.70635
480.06        17.78094
480.50         17.8318
480.95        17.86573
481.39        17.86885
481.83        17.99724
482.27         17.9793
482.72         18.0148
483.16        18.05382
483.60        18.08571
484.04        18.10152
484.48        18.28234
484.93        18.56385
485.37        18.34252
485.81        18.27526
486.25         18.3692
486.69        17.79911
487.14         18.4682
487.58        19.33266
488.02        19.13757
488.46        18.87503
488.90        19.06327
489.34        19.04199
489.79        19.36943
490.23        19.58969
490.67        19.68012
491.11        19.64694
491.55        19.72165
491.99        19.91555
492.43        20.03266
492.88        20.06796
493.32        20.12137
493.76        20.21243
494.20        20.33267
494.64        20.48925
495.08        20.67693
495.52        20.85623
495.96         21.0127
496.41        21.13106
496.85        21.10921
497.29        20.99916
497.73        21.20304
498.17        21.41294
498.61        21.58977
499.05        21.62628
499.49        21.70055
499.93        21.77276
500.37        21.96654
500.82         22.2248
501.26        22.39373
501.70        22.45434
502.14        22.49475
502.58         22.5582
503.02        22.67052
503.46        22.84033
503.90        23.05713
504.34        23.26411
504.78        23.36693
505.22        23.34663
505.66        23.23642
506.10        23.09986
506.54        23.03741
506.98        23.07766
507.42        23.19236
507.86         23.3455
508.30        23.47643
508.74        23.56354
509.18        23.62519
509.62        23.67421
510.06         23.7299
510.50         23.7987
510.94         23.8701
511.38        23.93714
511.82         23.9933
512.26        24.03628
512.70        24.06877
513.14        24.09921
513.58        24.13905
514.02        24.19049
514.46        24.25119
514.90        24.30609
515.34        24.33142
515.78        24.32323
516.22        24.28807
516.66        24.24924
517.10        24.24392
517.54        24.27918
517.98        24.34344
518.42        24.40843
518.86        24.42883
519.30        24.39515
519.74        24.32274
520.18        24.23938
520.62        24.18817
521.06        24.18002
521.50        24.20136
521.93        24.23449
522.37         24.2414
522.81        24.21641
523.25        24.17282
523.69        24.12232
524.13        24.08267
524.57        24.05679
525.01        24.03156
525.45        24.00647
525.89        23.98252
526.32        23.95413
526.76        23.93063
527.20        23.88963
527.64        23.79752
528.08        23.65556
528.52        23.47826
528.96        23.31198
529.40        23.22836
529.83        23.23919
530.27        23.32202
530.71        23.42599
531.15        23.47095
531.59        23.43474
532.03        23.33957
532.46        23.21541
532.90        23.12687
533.34        23.08759
533.78        23.06661
534.22        23.04584
534.66        23.02776
535.09        22.98929
535.53        22.88724
535.97        22.75123
536.41        22.68389
536.85        22.69762
537.28        22.74501
537.72        22.80435
538.16        22.85774
538.60        22.89572
539.04        22.92404
539.47        22.95457
539.91         23.0206
540.35        23.12224
540.79        23.24848
541.22        23.37926
541.66        23.49223
542.10        23.57754
542.54        23.64322
542.97        23.69962
543.41        23.77319
543.85        23.86776
544.29        23.97923
544.72        24.09429
545.16        24.20897
545.60         24.3181
546.04        24.42986
546.47        24.55712
546.91        24.71439
547.35        24.89897
547.79        25.10128
548.22         25.3033
548.66        25.47401
549.10        25.63646
549.53        25.78746
549.97        25.93097
550.41        26.01464
550.84         26.0703
551.28        26.17194
551.72        26.30725
552.15        26.47759
552.59        26.71313
553.03        26.61875
553.46        26.98722
553.90        27.11009
554.34        27.21638
554.77        27.30825
555.21        27.40041
555.65        27.49327
556.08         27.5792
556.52          27.647
556.96        27.69025
557.39        27.77452
557.83        27.88004
558.27        27.84743
558.70        27.72295
559.14         27.7461
559.57        27.91057
560.01        28.06673
560.45        28.17962
560.88        28.28471
561.32        28.38677
561.75        28.44509
562.19        28.48713
562.63        28.55208
563.06        28.64188
563.50        28.74734
563.93        28.83014
564.37        28.90526
564.80        28.98092
565.24        28.99206
565.68        28.89841
566.11        29.25853
566.55        29.02847
566.98        29.07583
567.42        29.15083
567.85        29.25705
568.29        29.56514
568.72         29.7949
569.16        30.02162
569.60        30.19022
570.03        30.40265
570.47        30.60647
570.90        30.82732
571.34        30.73119
571.77        31.01603
572.21        31.12321
572.64        31.05649
573.08         31.3607
573.51         31.5336
573.95        31.44097
574.38        31.45623
574.82        31.82229
