SpectraSmart Spectrum 2.9.0.0
--------- Device Information -----------
Spectrum Name :  反射率_0
Saving Time :  2024/04/26 22:08:12
Spectro-Module Model Name : SE2030-DUVN
Spectro-Module Serial Number : OS361AC55029948
Wavelength Start : 200
Wavelength End : 1025
Wavelength Unit : Wavelength(nm)
Spectrum Unit : Reflectance(%)
-----------Spectrum Setting ------------
Integration Time : 20ms
Average : 10
Boxcar : 0
Background removal :  enabled
linearity correction :  enabled
SC :  disabled
Intensity correction :  disabled
DWT denoise :  enabled
savitzky-golay :  disabled
FFT :  disabled
Running average :  disabled
Kalman :  disabled
High pass :  disabled
---------------BEGIN--------------------
Wavelength(nm)             Reflectance(%)
200.29               0
200.75        21.96066
201.21        24.07084
201.67        27.35157
202.13        29.68285
202.58        30.78051
203.04         31.8929
203.50        33.69352
203.96        37.00357
204.42        41.88894
204.88        47.13076
205.34        51.45662
205.80         53.6079
206.26        53.26595
206.72        51.14428
207.18        47.97823
207.64        43.86456
208.10        38.44603
208.55        30.79829
209.01        21.32257
209.47        17.37199
209.93        22.35386
210.39        31.24205
210.85        38.83067
211.31        43.57062
211.77        46.95024
212.23        50.93719
212.69        60.09467
213.14        85.14842
213.60        100.9439
214.06        96.06893
214.52        88.20236
214.98        83.41664
215.44        80.10017
215.90        75.98768
216.36        71.85598
216.81          69.045
217.27        67.95429
217.73        69.33994
218.19        70.07784
218.65        61.55944
219.11        46.78844
219.57        34.31891
220.02        28.43478
220.48        30.13856
220.94        38.85964
221.40        56.12647
221.86         82.8373
222.32        105.4547
222.77        107.9626
223.23        97.05058
223.69        82.77689
224.15        71.93533
224.61         64.7095
225.06        58.91277
225.52        54.70835
225.98        51.98526
226.44        50.38192
226.90        49.86124
227.36         49.7994
227.81          49.117
228.27        47.79119
228.73        46.08188
229.19        44.67505
229.65        44.34286
230.10         45.0846
230.56        46.68391
231.02        48.34643
231.48         48.8559
231.93        48.00954
232.39        46.46706
232.85        45.19453
233.31        45.53449
233.77         47.5339
234.22        50.70135
234.68        53.98508
235.14        55.82129
235.60        55.75622
236.05        54.20799
236.51        51.81778
236.97        50.08287
237.43        49.70297
237.88        50.40493
238.34        51.70576
238.80         52.9668
239.26        54.02005
239.71        55.52109
240.17        57.45048
240.63        60.04164
241.08        63.39516
241.54        66.63535
242.00        70.40397
242.46        76.63333
242.91        87.41595
243.37        104.6882
243.83        128.3651
244.28        146.1715
244.74        141.4931
245.20        115.2548
245.66        86.82097
246.11        72.43298
246.57        71.81703
247.03        80.23675
247.48        89.67218
247.94        86.82242
248.40         73.7072
248.85        58.83413
249.31         47.9976
249.77        44.15399
250.22        46.42476
250.68         53.4906
251.14        64.24039
251.59         72.8489
252.05        74.86474
252.51        72.57465
252.96        67.35269
253.42        61.19352
253.88        55.09366
254.33        48.78224
254.79        44.60819
255.25        44.25665
255.70         47.1645
256.16        52.47776
256.62        57.47589
257.07        58.00867
257.53         55.0092
257.99        50.87876
258.44        47.50937
258.90         46.7382
259.35        47.71655
259.81        49.70199
260.27        51.58501
260.72        52.06426
261.18        51.27238
261.63        49.63578
262.09        48.04836
262.55        47.00134
263.00        46.43935
263.46        46.24356
263.91        45.94069
264.37        45.20156
264.83        44.01578
265.28        42.56957
265.74        41.34577
266.19        40.67817
266.65        40.63191
267.11        40.94635
267.56        41.32973
268.02         41.3217
268.47        40.80263
268.93        39.97091
269.38        38.93575
269.84         37.9136
270.30        36.98906
270.75        36.09479
271.21        35.36276
271.66        34.94661
272.12        34.83967
272.57        34.95898
273.03        35.07827
273.48        34.81453
273.94        34.13197
274.39        33.13223
274.85        32.05317
275.31        31.10314
275.76        30.33393
276.22         29.7189
276.67        29.20798
277.13        28.80671
277.58        28.45323
278.04        28.17245
278.49        27.88522
278.95        27.57247
279.40        27.17695
279.86        26.76122
280.31        26.28369
280.77        25.78416
281.22        25.25044
281.68         24.7374
282.13        24.26689
282.59         23.9373
283.04         23.7308
283.50        23.63459
283.95         23.5914
284.41        23.51967
284.86        23.39065
285.32        23.23989
285.77        23.08301
286.22        22.99488
286.68        22.98601
287.13        23.00534
287.59        23.02064
288.04        22.94674
288.50        22.79072
288.95         22.5579
289.41        22.31718
289.86        22.11306
290.32        21.98433
290.77        21.90282
291.22        21.85079
291.68        21.78664
292.13        21.70201
292.59        21.63956
293.04         21.6334
293.50        21.75328
293.95        22.00473
294.40        22.35895
294.86        22.79661
295.31         23.2812
295.77        23.79461
296.22        24.33412
296.68        24.86353
297.13        25.31709
297.58        25.69409
298.04        26.01143
298.49        26.33319
298.95        26.78046
299.40        27.36365
299.85        28.04022
300.31        28.72852
300.76        29.29437
301.21        29.70758
301.67        30.02402
302.12        30.27631
302.58        30.56672
303.03        30.90065
303.48        31.26783
303.94        31.65877
304.39        32.03118
304.84        32.38491
305.30        32.74083
305.75        33.08432
306.20        33.44135
306.66         33.8148
307.11        34.17162
307.57        34.49204
308.02          34.707
308.47        34.81428
308.93         34.8366
309.38        34.80372
309.83         34.8081
310.29        34.87053
310.74        34.96962
311.19        35.04505
311.65        34.99187
312.10        34.79091
312.55        34.48051
313.00        34.16543
313.46        33.99851
313.91        33.99321
314.36        34.10868
314.82         34.2281
315.27        34.17119
315.72        33.89577
316.18        33.47553
316.63        33.01544
317.08        32.69181
317.53        32.54729
317.99        32.51904
318.44        32.54103
318.89        32.49588
319.35        32.34376
319.80         32.1199
320.25        31.85391
320.70        31.59045
321.16        31.34505
321.61        31.11378
322.06        30.87899
322.51        30.62103
322.97        30.33481
323.42         30.0337
323.87         29.7599
324.32        29.58202
324.78        29.49631
325.23         29.4954
325.68        29.47854
326.13        29.28633
326.59        28.88793
327.04        28.34846
327.49         27.7837
327.94        27.37765
328.39        27.16967
328.85        27.08966
329.30        27.08363
329.75        26.99963
330.20         26.7905
330.66        26.50644
331.11        26.18721
331.56        25.87051
332.01        25.57598
332.46         25.2753
332.92        24.99248
333.37        24.81886
333.82        24.75387
334.27        24.79015
334.72        24.84117
335.17        24.75372
335.63         24.4955
336.08        24.12509
336.53        23.74942
336.98        23.55977
337.43        23.60166
337.88         23.8032
338.34        24.06983
338.79         24.2643
339.24        24.31771
339.69        24.27385
340.14        24.12601
340.59        23.86968
341.05        23.53649
341.50        23.12737
341.95        22.73373
342.40        22.49718
342.85        22.44403
343.30        22.54144
343.75        22.69322
344.20        22.73312
344.66        22.62121
345.11        22.40431
345.56        22.15951
346.01          22.012
346.46        21.99682
346.91        22.07151
347.36        22.18295
347.81          22.255
348.26        22.26262
348.72        22.22722
349.17         22.1781
349.62        22.17018
350.07         22.2137
350.52        22.29117
350.97        22.34576
351.42        22.29233
351.87         22.1193
352.32        21.85719
352.77        21.59286
353.22        21.45125
353.67        21.45325
354.13        21.56392
354.58        21.68633
355.03        21.66353
355.48         21.4621
355.93        21.13838
356.38        20.79847
356.83        20.59892
357.28        20.57162
357.73        20.66187
358.18        20.78556
358.63        20.80767
359.08        20.68983
359.53        20.47758
359.98        20.22798
360.43        20.02253
360.88        19.88325
361.33        19.78249
361.78        19.69055
362.23        19.56554
362.68          19.399
363.13        19.21129
363.58        19.02963
364.03        18.88947
364.48        18.79842
364.93        18.74454
365.38         18.7025
365.83        18.63349
366.28        18.52832
366.73        18.39741
367.18        18.26626
367.63        18.17564
368.08        18.13033
368.53        18.11185
368.98        18.09021
369.43        18.01817
369.88        17.88544
370.33         17.7124
370.78        17.51946
371.23        17.34112
371.68        17.19479
372.13        17.07271
372.58        16.98469
373.03         16.9444
373.48        16.94589
373.93        16.97996
374.38        17.01391
374.83         16.9953
375.28        16.91014
375.72        16.76704
376.17        16.59969
376.62        16.43969
377.07        16.30161
377.52        16.18129
377.97        16.07723
378.42        15.98873
378.87        15.91417
379.32        15.85104
379.77        15.80634
380.22        15.78639
380.67         15.7875
381.11         15.8134
381.56        15.81855
382.01        15.74623
382.46        15.59292
382.91        15.38145
383.36        15.18329
383.81        15.09784
384.26        15.13638
384.71         15.2675
385.15         15.4138
385.60         15.4491
386.05        15.34108
386.50        15.13207
386.95        14.89548
387.40        14.74537
387.85        14.70734
388.29        14.73091
388.74        14.78109
389.19          14.777
389.64        14.70133
390.09        14.57927
390.54        14.43896
390.98        14.32183
391.43        14.25172
391.88        14.21117
392.33        14.18299
392.78        14.14367
393.23         14.0883
393.67        14.02074
394.12        13.96598
394.57        13.93062
395.02        13.91502
395.47        13.90724
395.91        13.90235
396.36        13.88465
396.81        13.85807
397.26        13.83026
397.71         13.7935
398.15        13.74457
398.60        13.70224
399.05        13.61115
399.50        13.50597
399.95        13.53564
400.39        13.66075
400.84         13.6306
401.29        13.44986
401.74        13.33846
402.18        13.30913
402.63        13.22837
403.08        13.12251
403.53        13.09224
403.97         13.1429
404.42        13.24284
404.87        13.34523
405.32        13.37345
405.76         13.3082
406.21        13.18214
406.66        13.03709
407.11        12.93982
407.55        12.91204
408.00        12.92708
408.45        12.96311
408.90          12.975
409.34        12.94719
409.79        12.89901
410.24        12.84465
410.68         12.7968
411.13        12.76415
411.58         12.7389
412.03        12.71728
412.47        12.69832
412.92        12.67697
413.37        12.65745
413.81        12.64191
414.26        12.64281
414.71        12.65646
415.15        12.68293
415.60          12.705
416.05        12.70319
416.49        12.67449
416.94        12.62393
417.39        12.57116
417.83        12.54573
418.28         12.5526
418.73        12.58081
419.17        12.61555
419.62        12.63247
420.07         12.6244
420.51        12.59671
420.96        12.55652
421.41        12.51253
421.85        12.46434
422.30        12.40563
422.74        12.33667
423.19        12.31462
423.64        12.32127
424.08        12.28243
424.53        12.19799
424.98        12.16457
425.42        12.19441
425.87        12.20185
426.31        12.19009
426.76         12.2544
427.21        12.35646
427.65        12.32293
428.10        12.18455
428.54        12.11815
428.99        12.14078
429.44        12.19847
429.88        12.25675
430.33        12.21596
430.77        12.11051
431.22        12.16512
431.66        12.35641
432.11        12.42976
432.56        12.37564
433.00         12.3729
433.45        12.38116
433.89        12.24673
434.34         12.0704
434.78        11.78581
435.23        12.05884
435.67        12.11204
436.12        12.10933
436.57        12.08558
437.01        12.04985
437.46        12.02199
437.90        11.99893
438.35        11.94149
438.79        11.86479
439.24        11.83167
439.68        11.84922
440.13        11.89988
440.57        11.96222
441.02        12.01168
441.46        12.03627
441.91        12.01036
442.35        11.95431
442.80        12.01499
443.24        12.14465
443.69        12.12878
444.13        11.98215
444.58        11.92169
445.02         11.9536
445.47        11.96232
445.91        11.93996
446.36        11.93119
446.80        11.93245
447.24        11.93327
447.69        11.93506
448.13        11.93369
448.58        11.93128
449.02        11.92772
449.47        11.92503
449.91        11.92053
450.36        11.91707
450.80        11.91286
451.25        11.91246
451.69        11.91626
452.13        11.92509
452.58        11.93632
453.02        11.94563
453.47        11.94828
453.91        11.94264
454.36        11.93154
454.80        11.91283
455.24        11.88208
455.69        11.84378
456.13        11.79144
456.58        11.74566
457.02        11.71719
457.46        11.71381
457.91        11.73196
458.35        11.74649
458.79        11.71885
459.24        11.65549
459.68        11.56291
460.13        11.48626
460.57        11.46235
461.01        11.50685
461.46        11.59233
461.90        11.69893
462.34        11.78156
462.79        11.81962
463.23        11.83102
463.68        11.80646
464.12        11.74139
464.56        11.64355
465.01         11.5334
465.45        11.42845
465.89        11.38431
466.34        11.40584
466.78        11.47634
467.22        11.57038
467.67        11.62889
468.11        11.64076
468.55        11.61748
468.99        11.58022
469.44        11.56326
469.88        11.57718
470.32        11.60776
470.77        11.64821
471.21        11.69163
471.65        11.73119
472.10        11.77281
472.54        11.80492
472.98        11.81342
473.42        11.79769
473.87        11.76553
474.31        11.72688
474.75        11.70988
475.20        11.72308
475.64        11.75477
476.08         11.7955
476.52        11.82264
476.97        11.83226
477.41         11.8392
477.85        11.85514
478.29         11.8811
478.74          11.929
479.18        12.02015
479.62        12.13846
480.06        12.23885
480.50         12.3153
480.95        12.37341
481.39        12.39847
481.83        12.49307
482.27        12.47104
482.72        12.47423
483.16        12.48064
483.60        12.50848
484.04        12.55424
484.48        12.73734
484.93        13.02418
485.37        12.96189
485.81        12.93035
486.25        13.14469
486.69        12.55296
487.14        12.84851
487.58        13.86383
488.02        13.76695
488.46        13.38679
488.90        13.40042
489.34        13.39215
489.79        13.58987
490.23        13.68459
490.67        13.86224
491.11         14.0466
491.55        14.06396
491.99         13.9752
492.43        14.02068
492.88        14.22186
493.32        14.43301
493.76        14.61486
494.20        14.78431
494.64        14.93404
495.08        15.02758
495.52        15.08569
495.96         15.2443
496.41        15.47963
496.85        15.54605
497.29        15.46895
497.73        15.65347
498.17        15.86999
498.61        16.02059
499.05         16.0279
499.49         16.0676
499.93        16.11561
500.37        16.24909
500.82        16.43308
501.26        16.56627
501.70         16.6357
502.14        16.70723
502.58        16.79642
503.02        16.89322
503.46        16.99957
503.90        17.11637
504.34        17.22605
504.78         17.2993
505.22        17.33122
505.66        17.33324
506.10        17.32517
506.54        17.33917
506.98        17.38458
507.42        17.45089
507.86        17.53268
508.30        17.61977
508.74        17.70574
509.18        17.79471
509.62         17.8746
510.06        17.92618
510.50        17.94779
510.94        17.94334
511.38        17.93682
511.82        17.96774
512.26         18.0446
512.70        18.15741
513.14        18.27792
513.58        18.35945
514.02        18.38988
514.46        18.38083
514.90        18.35979
515.34        18.37197
515.78        18.42646
516.22        18.50671
516.66         18.5828
517.10        18.60782
517.54        18.57232
517.98        18.49575
518.42        18.40514
518.86        18.34206
519.30        18.31967
519.74        18.32502
520.18        18.34717
520.62        18.36869
521.06        18.38202
521.50        18.39264
521.93        18.39885
522.37        18.38994
522.81        18.36725
523.25        18.32992
523.69        18.28421
524.13        18.24225
524.57        18.20549
525.01        18.16916
525.45        18.12812
525.89        18.07366
526.32        18.00287
526.76        17.92648
527.20        17.84419
527.64        17.75614
528.08        17.66598
528.52        17.57485
528.96        17.49546
529.40        17.44738
529.83         17.4311
530.27        17.43904
530.71        17.45028
531.15        17.43298
531.59        17.37946
532.03         17.2994
532.46        17.20467
532.90        17.12675
533.34        17.07268
533.78        17.02711
534.22        16.98743
534.66        16.97028
535.09        16.96109
535.53         16.9212
535.97        16.86101
536.41        16.84011
536.85        16.86251
537.28         16.8959
537.72        16.93122
538.16        16.96726
538.60        16.99948
539.04        17.02789
539.47        17.05373
539.91           17.09
540.35        17.13658
540.79        17.19326
541.22        17.25511
541.66        17.32033
542.10        17.38629
542.54        17.45416
542.97        17.52989
543.41        17.62946
543.85        17.75204
544.29        17.89425
544.72         18.0377
545.16         18.1678
545.60        18.27836
546.04          18.377
546.47        18.48357
546.91         18.6262
547.35        18.80655
547.79        19.01338
548.22        19.22098
548.66        19.38721
549.10        19.52739
549.53        19.64567
549.97        19.76016
550.41        19.85464
550.84        19.95627
551.28        20.11065
551.72        20.29216
552.15        20.47655
552.59        20.68061
553.03        20.60894
553.46        20.88278
553.90        20.96443
554.34        21.03872
554.77        21.10634
555.21        21.18752
555.65        21.29654
556.08        21.42639
556.52        21.55981
556.96        21.67842
557.39        21.81317
557.83        21.94226
558.27        21.94601
558.70        21.85677
559.14         21.8592
559.57        21.95184
560.01        22.01885
560.45          22.055
560.88        22.11987
561.32        22.22192
561.75        22.32568
562.19        22.42468
562.63        22.49406
563.06         22.5321
563.50          22.569
563.93        22.59799
564.37        22.64904
564.80        22.73614
565.24        22.80423
565.68        22.80305
566.11        23.14495
566.55         22.9974
566.98        23.05751
567.42        23.12461
567.85        23.24568
568.29        23.42876
568.72         23.6708
569.16        23.97281
569.60        24.16142
570.03        24.30991
570.47        24.49084
570.90        24.74524
571.34         24.5698
571.77        24.89478
572.21         24.9521
572.64        25.01998
573.08        25.18227
573.51        25.43013
573.95        25.55031
574.38        25.60422
574.82        25.67977
