SpectraSmart Spectrum 2.9.0.0
--------- Device Information -----------
Spectrum Name :  反射率_0
Saving Time :  2024/04/26 22:11:30
Spectro-Module Model Name : SE2030-DUVN
Spectro-Module Serial Number : OS361AC55029948
Wavelength Start : 200
Wavelength End : 1025
Wavelength Unit : Wavelength(nm)
Spectrum Unit : Reflectance(%)
-----------Spectrum Setting ------------
Integration Time : 20ms
Average : 10
Boxcar : 0
Background removal :  enabled
linearity correction :  enabled
SC :  disabled
Intensity correction :  disabled
DWT denoise :  enabled
savitzky-golay :  disabled
FFT :  disabled
Running average :  disabled
Kalman :  disabled
High pass :  disabled
---------------BEGIN--------------------
Wavelength(nm)             Reflectance(%)
200.29               0
200.75        29.58994
201.21         29.9731
201.67        30.00324
202.13        29.31439
202.58        27.83314
203.04        25.84554
203.50        23.91508
203.96         23.8262
204.42        26.72546
204.88        32.14032
205.34        38.73559
205.80        43.86251
206.26        46.15778
206.72        45.95349
207.18        44.05026
207.64        41.03616
208.10        36.76855
208.55        30.50482
209.01        21.56533
209.47        14.45777
209.93         13.5668
210.39        16.96218
210.85        20.98637
211.31        23.86653
211.77        26.31371
212.23        30.03375
212.69           39.88
213.14          66.312
213.60        82.21571
214.06        76.26812
214.52        67.33046
214.98        61.37358
215.44        56.79031
215.90         51.5804
216.36        46.62739
216.81        43.55221
217.27        43.16304
217.73        46.21495
218.19        51.36993
218.65        51.69304
219.11        45.82063
219.57        38.52637
220.02        34.48898
220.48        36.28159
220.94        43.60257
221.40        57.35303
221.86        76.34228
222.32        86.07054
222.77        76.34185
223.23        58.20293
223.69        42.30981
224.15        34.13451
224.61        32.00072
225.06        32.57728
225.52        34.86691
225.98        38.09694
226.44        41.87453
226.90        46.58572
227.36        50.93847
227.81        52.41932
228.27        50.89612
228.73        47.28186
229.19        43.76108
229.65        42.94362
230.10        44.91265
230.56        48.71669
231.02        52.66469
231.48        54.02657
231.93        52.32409
232.39        49.08855
232.85        45.65287
233.31        43.67932
233.77        43.43445
234.22        44.30929
234.68        45.82691
235.14        47.44655
235.60        48.90374
236.05        50.43264
236.51        51.83266
236.97        52.61814
237.43        52.60262
237.88        51.82062
238.34        50.54446
238.80        49.57231
239.26        49.23043
239.71        49.74384
240.17        50.95848
240.63        52.75541
241.08        55.06107
241.54        57.52976
242.00        60.77141
242.46        66.20982
242.91        75.51584
243.37         90.0485
243.83        109.4743
244.28        123.3401
244.74        117.8082
245.20        94.17944
245.66        68.70059
246.11        54.33089
246.57        50.86901
247.03        54.56292
247.48        60.13458
247.94        58.79348
248.40        51.36403
248.85        42.89066
249.31        36.97263
249.77        35.60041
250.22        38.32729
250.68        44.56961
251.14        53.41669
251.59        60.03752
252.05        61.22096
252.51        59.14482
252.96        55.42393
253.42        52.17216
253.88        49.86375
254.33        47.52549
254.79        47.01742
255.25        49.79005
255.70        55.37469
256.16        63.27326
256.62        69.98664
257.07        70.20725
257.53        65.53383
257.99        59.30773
258.44        54.54448
258.90        53.93769
259.35        56.24805
259.81        60.23203
260.27        63.94308
260.72        64.98135
261.18        63.56903
261.63        60.68848
262.09        57.94149
262.55         56.4484
263.00        56.12078
263.46        56.54358
263.91        56.87384
264.37        56.39331
264.83        55.03205
265.28        53.15621
265.74        51.47674
266.19        50.54016
266.65        50.46502
267.11        50.90036
267.56        51.42964
268.02        51.41404
268.47        50.69363
268.93        49.53551
269.38        48.18291
269.84        47.06339
270.30        46.27689
270.75        45.65464
271.21        45.16814
271.66        44.72112
272.12        44.26565
272.57        43.82099
273.03        43.28276
273.48        42.45786
273.94        41.39874
274.39        40.14912
274.85        38.96547
275.31        38.05537
275.76        37.43606
276.22        37.08179
276.67        36.83089
277.13        36.54944
277.58        36.13912
278.04        35.65801
278.49        35.12711
278.95        34.70558
279.40        34.34991
279.86         34.0745
280.31        33.70166
280.77        33.10192
281.22        32.24595
281.68        31.28938
282.13        30.38181
282.59        29.81236
283.04        29.58071
283.50        29.60718
283.95        29.73719
284.41        29.73974
284.86        29.54566
285.32        29.25819
285.77        28.93325
286.22        28.71267
286.68        28.62504
287.13        28.57646
287.59        28.55544
288.04        28.50627
288.50        28.43008
288.95        28.31963
289.41        28.17194
289.86        27.90662
290.32        27.56745
290.77        27.18017
291.22        26.83625
291.68         26.6549
292.13        26.65675
292.59        26.82579
293.04        27.13305
293.50         27.5491
293.95        28.03602
294.40        28.59344
294.86        29.18396
295.31        29.74205
295.77        30.25832
296.22        30.73179
296.68         31.1935
297.13        31.68438
297.58         32.2259
298.04        32.80875
298.49        33.42504
298.95        34.07864
299.40        34.74942
299.85        35.43129
300.31        36.10113
300.76        36.71068
301.21        37.24859
301.67        37.73329
302.12        38.14814
302.58        38.53656
303.03         38.8808
303.48        39.19552
303.94        39.49426
304.39        39.75713
304.84        39.99728
305.30        40.22939
305.75        40.43664
306.20           40.65
306.66        40.88214
307.11         41.1125
307.57        41.32404
308.02          41.435
308.47        41.45009
308.93        41.39575
309.38        41.32546
309.83        41.37804
310.29        41.56868
310.74        41.84328
311.19        42.08767
311.65        42.11007
312.10        41.86863
312.55        41.43633
313.00        40.94305
313.46        40.57988
313.91        40.38093
314.36        40.29757
314.82         40.2552
315.27         40.1454
315.72        39.92921
316.18        39.65575
316.63        39.34873
317.08        39.05729
317.53        38.79548
317.99        38.53783
318.44        38.27836
318.89        38.00192
319.35        37.70602
319.80         37.3991
320.25        37.09332
320.70        36.80494
321.16        36.53307
321.61        36.28307
322.06        36.03123
322.51        35.74352
322.97        35.41027
323.42        35.04774
323.87         34.6921
324.32        34.40734
324.78        34.19365
325.23        34.05161
325.68        33.91264
326.13        33.67387
326.59        33.31539
327.04        32.88329
327.49        32.44967
327.94        32.13058
328.39        31.94597
328.85        31.84152
329.30        31.78094
329.75        31.63944
330.20        31.38273
330.66        31.04445
331.11        30.68207
331.56        30.35901
332.01         30.0965
332.46        29.86755
332.92        29.64482
333.37        29.43468
333.82        29.21724
334.27        29.00803
334.72        28.80293
335.17        28.58685
335.63        28.35909
336.08        28.14132
336.53        27.95078
336.98        27.82773
337.43        27.77822
337.88        27.77877
338.34        27.80951
338.79        27.86643
339.24        27.92088
339.69        27.97054
340.14        27.96812
340.59        27.84368
341.05        27.60163
341.50        27.26696
341.95        26.92134
342.40        26.68815
342.85        26.59898
343.30        26.62134
343.75        26.70066
344.20        26.74537
344.66        26.72674
345.11        26.66404
345.56         26.5801
346.01        26.51301
346.46         26.4743
346.91        26.44968
347.36        26.41629
347.81        26.34463
348.26        26.23211
348.72        26.09464
349.17        25.96409
349.62        25.90089
350.07        25.91482
350.52        25.98668
350.97        26.06555
351.42        26.06956
351.87        25.98093
352.32        25.82705
352.77        25.65654
353.22        25.54076
353.67        25.49459
354.13        25.49347
354.58         25.5037
355.03        25.47425
355.48        25.39039
355.93         25.2728
356.38        25.14266
356.83        25.02823
357.28        24.93664
357.73        24.85475
358.18         24.7741
358.63        24.68569
359.08        24.58462
359.53         24.4729
359.98        24.35012
360.43        24.21137
360.88        24.05659
361.33        23.89134
361.78        23.71339
362.23        23.52182
362.68        23.32361
363.13        23.12195
363.58        22.94047
364.03        22.81338
364.48        22.74126
364.93         22.7101
365.38        22.68274
365.83        22.59879
366.28        22.44549
366.73        22.24398
367.18        22.02463
367.63        21.83605
368.08        21.69318
368.53        21.58064
368.98        21.49166
369.43        21.41467
369.88        21.34224
370.33        21.28015
370.78        21.21681
371.23        21.13102
371.68        21.02173
372.13        20.89593
372.58        20.77372
373.03        20.68937
373.48        20.64833
373.93        20.63385
374.38        20.63074
374.83        20.61605
375.28        20.57585
375.72        20.50707
376.17         20.4115
376.62        20.26623
377.07        20.07584
377.52        19.85477
377.97        19.62735
378.42        19.43716
378.87        19.29982
379.32        19.20189
379.77        19.14446
380.22        19.12446
380.67        19.13107
381.11        19.17018
381.56        19.19016
382.01        19.12413
382.46        18.96749
382.91        18.75001
383.36        18.53658
383.81        18.42007
384.26        18.41117
384.71        18.47122
385.15        18.55717
385.60        18.59891
386.05        18.56925
386.50         18.4957
386.95        18.37355
387.40        18.19623
387.85         17.9837
388.29        17.73902
388.74        17.53692
389.19        17.43948
389.64        17.44964
390.09        17.53694
390.54        17.65155
390.98        17.70357
391.43        17.67563
391.88        17.59267
392.33        17.47034
392.78        17.33203
393.23        17.19306
393.67        17.04119
394.12        16.91441
394.57        16.83591
395.02        16.80667
395.47        16.81349
395.91        16.83718
396.36        16.83118
396.81        16.79224
397.26        16.73687
397.71        16.66481
398.15        16.58707
398.60         16.5301
399.05        16.42138
399.50        16.29991
399.95        16.34273
400.39        16.50027
400.84        16.47009
401.29         16.2568
401.74         16.1244
402.18        16.08722
402.63        15.98318
403.08        15.84163
403.53        15.78032
403.97        15.80691
404.42         15.8876
404.87        15.97304
405.32        15.98227
405.76        15.89475
406.21        15.74486
406.66        15.58077
407.11         15.4783
407.55        15.46175
408.00        15.50328
408.45        15.56738
408.90        15.58418
409.34        15.53223
409.79        15.43589
410.24        15.33639
410.68        15.28573
411.13        15.29803
411.58        15.35471
412.03        15.41249
412.47        15.40092
412.92        15.30026
413.37        15.14231
413.81        14.98149
414.26        14.90593
414.71        14.92546
415.15        15.01839
415.60        15.12939
416.05        15.17321
416.49        15.12609
416.94        15.01534
417.39        14.88723
417.83        14.81153
418.28        14.80491
418.73        14.83982
419.17        14.89344
419.62        14.93062
420.07        14.93808
420.51        14.92664
420.96        14.89607
421.41        14.84123
421.85        14.76144
422.30        14.65358
422.74        14.53406
423.19        14.49438
423.64        14.51642
424.08         14.5033
424.53        14.44031
424.98        14.41529
425.42        14.43468
425.87        14.40672
426.31        14.34208
426.76        14.36246
427.21        14.42857
427.65        14.33583
428.10        14.13171
428.54        14.03793
428.99        14.07376
429.44         14.1704
429.88        14.27144
430.33        14.23353
430.77        14.09212
431.22        14.11958
431.66        14.29632
432.11        14.34296
432.56        14.25399
433.00        14.22818
433.45         14.2247
433.89        14.07926
434.34        13.90499
434.78        13.62086
435.23        13.97287
435.67         14.0271
436.12        13.96921
436.57        13.85175
437.01        13.71483
437.46        13.63246
437.90        13.61529
438.35        13.60251
438.79         13.5858
439.24        13.59954
439.68        13.63996
440.13        13.69606
440.57        13.75173
441.02        13.79357
441.46        13.81281
441.91        13.77506
442.35        13.69718
442.80        13.73946
443.24        13.84639
443.69        13.77821
444.13        13.56552
444.58        13.47237
445.02        13.50984
445.47        13.54212
445.91        13.54688
446.36        13.55361
446.80         13.5527
447.24        13.53722
447.69        13.51966
448.13        13.51363
448.58        13.52439
449.02        13.54407
449.47        13.56339
449.91        13.56089
450.36        13.53773
450.80        13.50191
451.25        13.46736
451.69        13.44717
452.13        13.44613
452.58        13.45333
453.02        13.46854
453.47        13.49427
453.91         13.5252
454.36        13.56164
454.80        13.57613
455.24        13.52404
455.69        13.40752
456.13        13.23697
456.58        13.07199
457.02        12.97866
457.46        12.97752
457.91        13.04781
458.35        13.13825
458.79        13.16851
459.24        13.13146
459.68        13.04296
460.13        12.96081
460.57        12.93735
461.01        12.99379
461.46        13.09635
461.90        13.21595
462.34        13.29365
462.79        13.30632
463.23        13.27792
463.68        13.21697
464.12        13.14688
464.56        13.07892
465.01        13.02427
465.45        12.97394
465.89        12.95263
466.34        12.96107
466.78        12.99144
467.22        13.03913
467.67        13.08082
468.11        13.11477
468.55        13.13822
468.99        13.15103
469.44        13.15308
469.88        13.14721
470.32        13.13397
470.77        13.11876
471.21        13.11398
471.65          13.121
472.10        13.13796
472.54        13.16156
472.98        13.19088
473.42        13.22323
473.87        13.26354
474.31         13.2934
474.75        13.29788
475.20         13.2802
475.64        13.24135
476.08        13.20753
476.52        13.21208
476.97        13.26182
477.41        13.35324
477.85        13.46584
478.29        13.54439
478.74          13.588
479.18        13.64237
479.62        13.70976
480.06        13.77156
480.50        13.83132
480.95        13.88172
481.39        13.90893
481.83           14.03
482.27        14.03606
482.72        14.09667
483.16        14.15646
483.60        14.19109
484.04        14.20204
484.48        14.28538
484.93        14.44043
485.37        14.40443
485.81         14.6754
486.25        14.80958
486.69        14.43725
487.14        14.98115
487.58        15.75066
488.02        15.52784
488.46        15.15737
488.90        15.24193
489.34          15.272
489.79        15.56086
490.23        15.72712
490.67        15.92639
491.11        16.07923
491.55        16.01943
491.99        15.83952
492.43         15.8321
492.88        16.03617
493.32        16.29559
493.76        16.54829
494.20        16.77053
494.64        16.94356
495.08        17.04023
495.52        17.09009
495.96        17.25509
496.41        17.51071
496.85        17.57262
497.29        17.46828
497.73        17.65425
498.17        17.87153
498.61        18.01547
499.05        17.99896
499.49         18.0169
499.93         18.0457
500.37        18.17443
500.82        18.37672
501.26        18.56029
501.70        18.70945
502.14         18.8839
502.58        19.08114
503.02        19.25861
503.46        19.40839
503.90        19.54174
504.34        19.63844
504.78        19.66711
505.22        19.63042
505.66        19.54342
506.10         19.4571
506.54        19.45136
506.98        19.54438
507.42        19.71471
507.86         19.9182
508.30        20.07855
508.74        20.17089
509.18        20.21411
509.62        20.23069
510.06        20.25962
510.50        20.31234
510.94         20.3728
511.38        20.43036
511.82        20.47034
512.26        20.49017
512.70        20.50208
513.14        20.51157
513.58        20.52418
514.02        20.54327
514.46        20.56418
514.90        20.59466
515.34        20.64796
515.78        20.72198
516.22        20.81044
516.66        20.88841
517.10        20.91631
517.54        20.88743
517.98        20.81521
518.42        20.72748
518.86         20.6701
519.30        20.65516
519.74        20.66789
520.18        20.69275
520.62        20.70383
521.06        20.69291
521.50        20.67136
521.93        20.63998
522.37         20.5916
522.81        20.53236
523.25         20.4614
523.69        20.39531
524.13        20.36185
524.57        20.36157
525.01        20.38169
525.45        20.39819
525.89        20.37113
526.32        20.29059
526.76        20.18014
527.20        20.05106
527.64        19.92277
528.08        19.80714
528.52        19.69867
528.96        19.61887
529.40        19.60068
529.83        19.64279
530.27        19.73394
530.71        19.82674
531.15        19.84611
531.59        19.77556
532.03        19.63598
532.46        19.46909
532.90        19.35713
533.34         19.3176
533.78        19.31735
534.22        19.32824
534.66        19.32996
535.09        19.29806
535.53        19.20542
535.97        19.08099
536.41        19.01759
536.85        19.02788
537.28        19.06548
537.72         19.1197
538.16        19.18851
538.60        19.26309
539.04        19.34497
539.47        19.42016
539.91        19.47949
540.35         19.5191
540.79        19.54274
541.22          19.568
541.66        19.63134
542.10        19.73626
542.54        19.87187
542.97        20.01526
543.41        20.13775
543.85        20.23039
544.29        20.30805
544.72        20.38017
545.16        20.47512
545.60        20.59775
546.04         20.7425
546.47        20.91368
546.91        21.11381
547.35         21.3336
547.79        21.56732
548.22        21.79385
548.66         21.9772
549.10        22.13772
549.53          22.276
549.97        22.40332
550.41        22.48847
550.84        22.56207
551.28        22.68232
551.72        22.83771
552.15        23.02692
552.59        23.27357
553.03        23.23562
553.46        23.59282
553.90        23.70836
554.34        23.78186
554.77         23.8205
555.21        23.86195
555.65        23.94678
556.08        24.07438
556.52        24.22067
556.96        24.34876
557.39        24.46843
557.83        24.55248
558.27        24.47686
558.70        24.30679
559.14        24.29123
559.57        24.43493
560.01         24.5926
560.45        24.72237
560.88        24.83889
561.32        24.94048
561.75        24.99903
562.19        25.03639
562.63        25.08146
563.06        25.13833
563.50        25.20162
563.93        25.24972
564.37        25.31507
564.80        25.40811
565.24        25.46479
565.68        25.43694
566.11        25.80213
566.55        25.63596
566.98        25.70451
567.42         25.7837
567.85        25.93856
568.29         26.1749
568.72        26.46294
569.16        26.79436
569.60        27.03654
570.03        27.22313
570.47        27.41053
570.90        27.64061
571.34        27.59734
571.77        27.82428
572.21        28.12896
572.64        28.20958
573.08        28.37316
573.51        28.51826
573.95        28.57773
574.38        28.61994
574.82        28.84777
