SpectraSmart Spectrum 2.9.0.0
--------- Device Information -----------
Spectrum Name :  反射率_0
Saving Time :  2024/04/26 21:31:17
Spectro-Module Model Name : SE2030-DUVN
Spectro-Module Serial Number : OS361AC55029948
Wavelength Start : 200
Wavelength End : 1025
Wavelength Unit : Wavelength(nm)
Spectrum Unit : Reflectance(%)
-----------Spectrum Setting ------------
Integration Time : 20ms
Average : 10
Boxcar : 0
Background removal :  enabled
linearity correction :  enabled
SC :  disabled
Intensity correction :  disabled
DWT denoise :  enabled
savitzky-golay :  disabled
FFT :  disabled
Running average :  disabled
Kalman :  disabled
High pass :  disabled
---------------BEGIN--------------------
Wavelength(nm)             Reflectance(%)
200.29               0
200.75        49.94213
201.21        42.70607
201.67        36.58803
202.13        33.85331
202.58        34.36596
203.04        37.78562
203.50        43.87392
203.96        50.33429
204.42        54.95105
204.88        57.82331
205.34        57.99761
205.80        55.08338
206.26        50.12895
206.72        43.89768
207.18         38.6814
207.64         36.1857
208.10        36.22197
208.55        38.88403
209.01        43.62778
209.47        46.79249
209.93         46.0995
210.39          43.849
210.85        42.10279
211.31        42.13314
211.77        44.32188
212.23         49.7523
212.69        64.85252
213.14        97.89677
213.60        108.2295
214.06        94.74935
214.52        81.45522
214.98        72.12007
215.44        64.14745
215.90        55.40014
216.36        47.42766
216.81        43.30022
217.27        44.53054
217.73        52.01356
218.19        65.43303
218.65        75.25616
219.11          74.981
219.57        69.17486
220.02        65.03467
220.48        67.82821
220.94        77.72382
221.40        95.68362
221.86        120.2403
222.32        133.0431
222.77        120.5686
223.23        96.64079
223.69        75.06329
224.15        62.77464
224.61        57.73869
225.06        56.09388
225.52        56.17917
225.98        56.19347
226.44        55.74118
226.90        55.47271
227.36        55.17181
227.81        54.38981
228.27        53.33237
228.73        51.94105
229.19        50.98198
229.65        51.45103
230.10        53.26504
230.56        56.08149
231.02        58.79755
231.48        59.63091
231.93        58.31273
232.39        55.90233
232.85          53.455
233.31        52.39042
233.77        52.85485
234.22        54.30093
234.68        56.17509
235.14        57.73845
235.60        58.70949
236.05        59.43752
236.51        59.69872
236.97        59.11847
237.43        57.68915
237.88        55.45842
238.34         53.2247
238.80        52.60886
239.26        54.19653
239.71        58.46481
240.17        64.50653
240.63        69.39576
241.08        71.15601
241.54        69.21644
242.00        65.88668
242.46        66.47365
242.91        74.48545
243.37        91.50862
243.83        118.2457
244.28        142.1315
244.74         144.354
245.20        124.7814
245.66        99.50637
246.11        83.16637
246.57        76.61398
247.03        75.35394
247.48        75.34356
247.94        71.06452
248.40        63.64489
248.85        56.56871
249.31        51.76032
249.77        49.55758
250.22        49.25256
250.68        50.21375
251.14        51.81942
251.59        52.38167
252.05        51.38543
252.51        50.00478
252.96        48.41781
253.42        46.96562
253.88        45.78739
254.33        44.56795
254.79          44.674
255.25        47.06431
255.70        51.42209
256.16        57.27297
256.62         62.3481
257.07        63.12835
257.53        60.56346
257.99         56.7622
258.44        53.52844
258.90        52.69093
259.35        53.43488
259.81        55.19188
260.27        56.83113
260.72        57.03055
261.18        55.99332
261.63        54.12244
262.09        52.47876
262.55        51.70821
263.00         51.6832
263.46        52.18909
263.91        52.49302
264.37        51.96358
264.83        50.58192
265.28        48.68114
265.74        46.99062
266.19        46.12247
266.65        46.19177
267.11        46.83985
267.56        47.62201
268.02        47.83685
268.47        47.30185
268.93        46.29647
269.38        45.06398
269.84        44.03104
270.30        43.30963
270.75        42.73686
271.21        42.30906
271.66        41.97443
272.12        41.69314
272.57        41.47165
273.03        41.18682
273.48        40.61102
273.94        39.77174
274.39        38.71164
274.85        37.66958
275.31        36.84059
275.76        36.24317
276.22        35.85166
276.67        35.53159
277.13        35.18391
277.58        34.72516
278.04        34.21872
278.49        33.66356
278.95        33.17748
279.40        32.72478
279.86        32.33992
280.31        31.90633
280.77        31.37238
281.22        30.70794
281.68        30.01916
282.13        29.38059
282.59        28.98081
283.04        28.79758
283.50        28.77134
283.95        28.78981
284.41        28.69379
284.86        28.43364
285.32         28.0934
285.77        27.69116
286.22        27.30793
286.68        26.97499
287.13        26.64286
287.59        26.35973
288.04        26.15868
288.50        26.05915
288.95        26.01855
289.41        25.99687
289.86        25.86624
290.32         25.6395
290.77        25.34324
291.22        25.04579
291.68        24.83695
292.13        24.73204
292.59        24.71623
293.04        24.77981
293.50        24.92927
293.95        25.14403
294.40         25.4254
294.86        25.73534
295.31        26.00287
295.77        26.22129
296.22        26.40173
296.68        26.58749
297.13        26.83549
297.58        27.16708
298.04        27.56444
298.49        28.00352
298.95        28.46244
299.40        28.91539
299.85        29.36091
300.31         29.7876
300.76        30.17065
301.21        30.50402
301.67        30.80171
302.12        31.03986
302.58        31.24097
303.03        31.39114
303.48        31.50985
303.94         31.6285
304.39        31.76174
304.84        31.92232
305.30        32.11223
305.75         32.2874
306.20        32.43011
306.66        32.53939
307.11        32.60714
307.57        32.64883
308.02        32.64618
308.47        32.60995
308.93        32.54875
309.38        32.46692
309.83        32.41579
310.29        32.40224
310.74        32.40966
311.19        32.40037
311.65         32.3072
312.10        32.11617
312.55        31.85225
313.00        31.57468
313.46        31.36958
313.91        31.24236
314.36        31.17353
314.82        31.11103
315.27         30.9793
315.72        30.76066
316.18        30.49585
316.63        30.21865
317.08        29.99403
317.53        29.83645
317.99        29.71223
318.44        29.61509
318.89         29.5265
319.35        29.43155
319.80        29.33487
320.25        29.20403
320.70        28.98651
321.16        28.67859
321.61        28.31101
322.06        27.93549
322.51        27.64288
322.97         27.4561
323.42        27.35125
323.87        27.30645
324.32        27.28806
324.78        27.26249
325.23        27.24897
325.68        27.18765
326.13        26.99018
326.59        26.64687
327.04        26.19524
327.49        25.72416
327.94        25.37814
328.39        25.18902
328.85        25.11105
329.30        25.10229
329.75        25.03145
330.20        24.86136
330.66         24.6309
331.11        24.39209
331.56        24.20699
332.01        24.09387
332.46        24.01751
332.92        23.95389
333.37        23.90866
333.82        23.85911
334.27        23.81754
334.72        23.75799
335.17        23.63119
335.63         23.4363
336.08        23.20819
336.53        23.00413
336.98         22.9291
337.43        23.00559
337.88        23.18869
338.34        23.43052
338.79        23.67126
339.24        23.85814
339.69        23.99925
340.14        24.03933
340.59        23.89813
341.05        23.58964
341.50        23.15109
341.95        22.69647
342.40        22.40063
342.85        22.30752
343.30        22.36917
343.75        22.52504
344.20        22.66681
344.66        22.75331
345.11        22.81218
345.56        22.83054
346.01        22.79003
346.46        22.70106
346.91        22.56727
347.36        22.43684
347.81        22.39471
348.26        22.45497
348.72        22.58905
349.17        22.75229
349.62        22.88203
350.07        22.95204
350.52        22.97955
350.97        22.94938
351.42        22.84099
351.87        22.66401
352.32        22.43041
352.77        22.19625
353.22        22.04266
353.67          21.987
354.13        22.01549
354.58        22.07826
355.03        22.09178
355.48         22.0317
355.93        21.91728
356.38        21.79677
356.83        21.74454
357.28        21.76987
357.73        21.84163
358.18        21.89516
358.63        21.83105
359.08        21.63017
359.53         21.3308
359.98        21.00455
360.43         20.7535
360.88        20.60289
361.33        20.52682
361.78        20.47625
362.23        20.37234
362.68        20.19884
363.13        19.98459
363.58        19.77688
364.03        19.64627
364.48        19.60286
364.93        19.61379
365.38        19.63239
365.83        19.58653
366.28        19.45807
366.73        19.27648
367.18        19.06629
367.63        18.86506
368.08          18.689
368.53        18.52446
368.98         18.3865
369.43        18.29949
369.88         18.2613
370.33         18.2674
370.78        18.27518
371.23        18.20986
371.68        18.05928
372.13         17.8507
372.58        17.63582
373.03        17.49955
373.48        17.46234
373.93        17.48997
374.38        17.55584
374.83        17.61802
375.28        17.65088
375.72        17.65645
376.17        17.62224
376.62        17.50641
377.07        17.31327
377.52        17.06309
377.97        16.80053
378.42        16.60402
378.87        16.49765
379.32        16.45688
379.77        16.46718
380.22         16.5031
380.67        16.54527
381.11        16.60131
381.56        16.62314
382.01        16.54774
382.46        16.37205
382.91        16.12656
383.36        15.87161
383.81        15.69083
384.26        15.60046
384.71        15.57574
385.15        15.59427
385.60        15.61927
386.05        15.63143
386.50        15.64129
386.95        15.63584
387.40        15.59568
387.85        15.52155
388.29        15.40763
388.74        15.29596
389.19        15.21299
389.64        15.16043
390.09        15.12358
390.54        15.08338
390.98        15.00468
391.43        14.89276
391.88        14.76584
392.33        14.63269
392.78        14.50288
393.23        14.38325
393.67        14.26363
394.12        14.17696
394.57        14.14242
395.02        14.15983
395.47        14.21951
395.91        14.28821
396.36        14.29966
396.81        14.24766
397.26        14.15093
397.71        14.04818
398.15        14.00672
398.60        14.05195
399.05        14.09981
399.50        14.12873
399.95        14.21376
400.39        14.30056
400.84        14.15296
401.29         13.8311
401.74        13.65368
402.18        13.65638
402.63        13.66899
403.08         13.6762
403.53        13.71568
403.97        13.77353
404.42        13.84446
404.87        13.88797
405.32        13.83553
405.76        13.68151
406.21        13.45734
406.66        13.23717
407.11        13.13999
407.55        13.19317
408.00        13.35413
408.45        13.55647
408.90        13.66899
409.34        13.64772
409.79        13.53768
410.24        13.38463
410.68        13.24858
411.13        13.15454
411.58        13.08026
412.03        13.02826
412.47        13.00991
412.92        13.01854
413.37        13.05624
413.81        13.10209
414.26        13.13352
414.71        13.13875
415.15        13.12344
415.60        13.08616
416.05        13.03953
416.49        12.99263
416.94        12.94481
417.39        12.90039
417.83        12.86444
418.28         12.8369
418.73        12.81381
419.17        12.80344
419.62        12.81752
420.07        12.85254
420.51        12.89891
420.96        12.92892
421.41        12.89736
421.85        12.79853
422.30        12.65261
422.74        12.49268
423.19        12.42424
423.64        12.43913
424.08         12.4401
424.53        12.42308
424.98         12.4787
425.42        12.60676
425.87        12.72104
426.31        12.78143
426.76        12.82087
427.21        12.79175
427.65        12.53578
428.10        12.16637
428.54        11.98511
428.99        12.03349
429.44        12.22187
429.88        12.44848
430.33        12.50493
430.77        12.39994
431.22        12.39708
431.66        12.51449
432.11        12.56182
432.56        12.54794
433.00        12.62907
433.45        12.73057
433.89        12.63294
434.34        12.42087
434.78        12.05468
435.23        12.24514
435.67        12.23582
436.12        12.20597
436.57        12.17812
437.01        12.15233
437.46        12.13463
437.90        12.11532
438.35        12.05924
438.79        11.98086
439.24        11.94153
439.68        11.94709
440.13        11.97706
440.57        12.01056
441.02        12.02651
441.46        12.01713
441.91        11.96181
442.35        11.88001
442.80         11.9139
443.24        12.01601
443.69        11.97441
444.13        11.81596
444.58        11.77321
445.02        11.85228
445.47        11.92998
445.91        11.97468
446.36        11.99503
446.80        11.98042
447.24        11.93227
447.69        11.87134
448.13        11.82553
448.58        11.80591
449.02        11.80113
449.47        11.80755
449.91        11.81294
450.36        11.81569
450.80        11.82036
451.25        11.82192
451.69        11.80503
452.13        11.76959
452.58        11.71484
453.02        11.66018
453.47        11.63997
453.91        11.65935
454.36          11.711
454.80        11.75881
455.24        11.74265
455.69        11.65824
456.13        11.52078
456.58        11.38963
457.02        11.33374
457.46        11.37114
457.91        11.47425
458.35        11.58968
458.79        11.63473
459.24        11.60013
459.68        11.50617
460.13        11.40539
460.57        11.34393
461.01        11.34466
461.46        11.38015
461.90        11.43718
462.34        11.48418
462.79        11.50501
463.23        11.51341
463.68        11.50461
464.12        11.47718
464.56        11.43224
465.01        11.38546
465.45        11.32858
465.89         11.2831
466.34        11.25214
466.78        11.22835
467.22        11.21965
467.67        11.22813
468.11        11.25861
468.55        11.30483
468.99        11.35124
469.44        11.37113
469.88        11.35971
470.32        11.32386
470.77        11.28278
471.21        11.27131
471.65        11.29543
472.10        11.34467
472.54        11.39932
472.98        11.43355
473.42        11.43983
473.87        11.43145
474.31        11.40836
474.75        11.38153
475.20        11.35905
475.64        11.33368
476.08         11.3154
476.52        11.31361
476.97        11.32957
477.41        11.36695
477.85        11.41746
478.29        11.44916
478.74        11.46532
479.18        11.49876
479.62        11.54596
480.06        11.58276
480.50        11.61022
480.95         11.6282
481.39        11.62564
481.83        11.69777
482.27        11.67221
482.72        11.69514
483.16        11.72881
483.60        11.75352
484.04        11.75885
484.48        11.86363
484.93        12.07238
485.37         12.0114
485.81        12.10136
486.25        12.45177
486.69         12.1749
487.14        12.52284
487.58        13.00833
488.02        12.66456
488.46         12.3607
488.90        12.38811
489.34         12.3147
489.79        12.43723
490.23         12.4838
490.67        12.66044
491.11         12.8837
491.55        12.90307
491.99        12.76787
492.43        12.75952
492.88        12.90284
493.32        13.03528
493.76        13.13078
494.20        13.23161
494.64         13.3353
495.08        13.40494
495.52        13.45308
495.96        13.58686
496.41        13.78013
496.85        13.81978
497.29        13.72703
497.73        13.85709
498.17        14.00693
498.61          14.092
499.05        14.05436
499.49        14.06543
499.93        14.10746
500.37        14.24163
500.82        14.43011
501.26        14.57137
501.70        14.64822
502.14        14.72163
502.58        14.80134
503.02        14.87261
503.46        14.93838
503.90        15.00157
504.34        15.05827
504.78        15.10313
505.22        15.13588
505.66        15.15938
506.10        15.18123
506.54        15.21236
506.98        15.25644
507.42        15.31243
507.86        15.37344
508.30        15.42777
508.74        15.47161
509.18         15.5052
509.62        15.53808
510.06        15.58662
510.50        15.65202
510.94        15.72809
511.38        15.79572
511.82        15.82422
512.26        15.80986
512.70        15.76627
513.14        15.71787
513.58        15.70378
514.02        15.73474
514.46        15.79738
514.90        15.87874
515.34        15.95748
515.78        16.02283
516.22        16.07914
516.66        16.11901
517.10         16.1311
517.54        16.11549
517.98        16.07489
518.42        16.02357
518.86        15.98648
519.30        15.97023
519.74        15.96861
520.18        15.97336
520.62         15.9693
521.06        15.95199
521.50        15.92799
521.93        15.89877
522.37        15.86038
522.81        15.81701
523.25        15.76772
523.69        15.72174
524.13        15.69378
524.57        15.68482
525.01        15.68999
525.45        15.69444
525.89        15.67386
526.32        15.62164
526.76        15.54916
527.20        15.46996
527.64        15.40709
528.08        15.36634
528.52        15.33996
528.96        15.31998
529.40        15.29368
529.83        15.25717
530.27        15.21681
530.71        15.17304
531.15        15.12752
531.59        15.08248
532.03        15.03585
532.46        14.99148
532.90        14.96668
533.34        14.96027
533.78        14.96016
534.22        14.95512
534.66        14.94565
535.09        14.91887
535.53        14.84704
535.97        14.75149
536.41        14.70442
536.85        14.71542
537.28        14.75029
537.72        14.80073
538.16        14.86351
538.60        14.93003
539.04        14.99955
539.47        15.05971
539.91         15.1015
540.35         15.1219
540.79        15.12608
541.22        15.12649
541.66         15.1496
542.10         15.2004
542.54        15.27285
542.97         15.3586
543.41        15.44955
543.85        15.53941
544.29        15.63215
544.72        15.72307
545.16        15.81614
545.60        15.90965
546.04        16.00509
546.47        16.10768
546.91        16.22354
547.35        16.35033
547.79        16.48366
548.22        16.61719
548.66        16.73793
549.10        16.86294
549.53        16.98896
549.97        17.11229
550.41        17.18725
550.84        17.23235
551.28        17.29957
551.72        17.39069
552.15         17.5219
552.59        17.71655
553.03        17.70858
553.46        18.01143
553.90        18.13315
554.34        18.22275
554.77        18.28667
555.21        18.35178
555.65        18.44604
556.08         18.5658
556.52         18.6893
556.96        18.78902
557.39        18.87405
557.83        18.92477
558.27        18.85253
558.70        18.70301
559.14        18.65181
559.57        18.70948
560.01        18.78785
560.45        18.87004
560.88        18.97397
561.32        19.09964
561.75        19.22477
562.19        19.34495
562.63        19.44501
563.06        19.51847
563.50        19.57064
563.93        19.59585
564.37         19.6384
564.80        19.71211
565.24        19.76008
565.68        19.74308
566.11        20.02792
566.55        19.89669
566.98         19.9537
567.42        20.02244
567.85        20.13716
568.29        20.30787
568.72        20.53248
569.16        20.80452
569.60        21.01907
570.03        21.24017
570.47        21.41729
570.90        21.56661
571.34        21.70187
571.77        21.77777
572.21        21.96898
572.64        22.04358
573.08        22.10981
573.51        22.17673
573.95         22.2497
574.38        22.32596
574.82        22.82313
