SpectraSmart Spectrum 2.9.0.0
--------- Device Information -----------
Spectrum Name :  反射率_0
Saving Time :  2024/04/26 22:13:11
Spectro-Module Model Name : SE2030-DUVN
Spectro-Module Serial Number : OS361AC55029948
Wavelength Start : 200
Wavelength End : 1025
Wavelength Unit : Wavelength(nm)
Spectrum Unit : Reflectance(%)
-----------Spectrum Setting ------------
Integration Time : 20ms
Average : 10
Boxcar : 0
Background removal :  enabled
linearity correction :  enabled
SC :  disabled
Intensity correction :  disabled
DWT denoise :  enabled
savitzky-golay :  disabled
FFT :  disabled
Running average :  disabled
Kalman :  disabled
High pass :  disabled
---------------BEGIN--------------------
Wavelength(nm)             Reflectance(%)
200.29               0
200.75        61.35825
201.21        56.54107
201.67        52.38691
202.13        50.89753
202.58        52.16484
203.04        56.12056
203.50        62.73829
203.96        70.10125
204.42        76.22263
204.88        81.02398
205.34        83.67227
205.80        83.97283
206.26        82.35941
206.72        78.69762
207.18         75.1385
207.64         73.6051
208.10         74.2259
208.55        77.91357
209.01        82.91427
209.47        83.05176
209.93        77.16058
210.39         70.0329
210.85        66.01186
211.31         67.5825
211.77         75.9486
212.23        96.98409
212.69        150.5093
213.14        239.5363
213.60        233.5826
214.06        169.6043
214.52         126.447
214.98        106.2675
215.44         96.5256
215.90        89.68427
216.36        85.55833
216.81        85.38189
217.27        89.86985
217.73        101.7633
218.19        119.2139
218.65        126.0952
219.11        116.8641
219.57        101.9988
220.02        92.45602
220.48        94.85214
220.94        108.7153
221.40        135.3558
221.86        175.1107
222.32        205.1165
222.77         202.039
223.23        180.1738
223.69        155.1402
224.15        136.0783
224.61        123.1021
225.06        112.8767
225.52        106.6654
225.98        105.2549
226.44        107.8918
226.90         114.018
227.36        121.1276
227.81        124.6088
228.27        123.7464
228.73        119.8943
229.19        116.0068
229.65         115.658
230.10        118.9289
230.56        124.5475
231.02        129.9034
231.48          130.98
231.93        127.2386
232.39        121.1602
232.85        115.0781
233.31        111.9518
233.77        112.1068
234.22        114.3128
234.68        117.5258
235.14        120.2344
235.60        121.8006
236.05        122.8586
236.51        122.8443
236.97        121.0264
237.43        117.3858
237.88        112.1197
238.34        106.4706
238.80        102.8966
239.26        102.1821
239.71        104.8309
240.17        109.8294
240.63        114.5129
241.08        117.1901
241.54        117.3245
242.00        116.8278
242.46        120.0183
242.91        130.2675
243.37        148.4429
243.83        175.2771
244.28        199.3496
244.74        201.5975
245.20         181.294
245.66        153.8352
246.11        132.7765
246.57        118.9998
247.03        108.4946
247.48        98.83221
247.94        88.64287
248.40         80.0825
248.85        74.51976
249.31        71.40405
249.77        69.02428
250.22         66.5108
250.68        63.23254
251.14        60.32275
251.59        61.46185
252.05        67.88305
252.51        77.54768
252.96        85.09443
253.42        86.57674
253.88        83.16661
254.33         76.9509
254.79        72.98138
255.25        75.46091
255.70        83.82439
256.16        96.16979
256.62        107.3831
257.07        109.5738
257.53         104.493
257.99        96.98266
258.44        90.77491
258.90        89.31052
259.35        91.13349
259.81        94.89988
260.27        98.68507
260.72        100.1939
261.18        99.63095
261.63        97.64084
262.09        95.70103
262.55        94.53706
263.00        94.03261
263.46        94.06203
263.91        93.85088
264.37        93.01874
264.83        91.50376
265.28        89.56641
265.74        87.93034
266.19        86.97423
266.65        86.84473
267.11        87.17214
267.56        87.62054
268.02        87.69379
268.47        87.22069
268.93        86.44131
269.38        85.37043
269.84         84.1426
270.30        82.82192
270.75        81.34578
271.21        80.01688
271.66         79.1944
272.12        78.91884
272.57         79.0237
273.03        79.10572
273.48        78.45798
273.94        77.05443
274.39        75.10625
274.85        73.12153
275.31        71.55926
275.76        70.48213
276.22        69.78554
276.67        69.25095
277.13        68.77973
277.58        68.19242
278.04        67.58417
278.49        66.81761
278.95        65.89214
279.40         64.7412
279.86        63.52916
280.31        62.21741
280.77        60.97284
281.22        59.76912
281.68        58.70234
282.13        57.78886
282.59         57.2276
283.04         56.9325
283.50        56.86922
283.95         56.8266
284.41        56.52671
284.86         55.8887
285.32        55.04484
285.77        54.10867
286.22        53.35543
286.68        52.83575
287.13        52.41483
287.59        52.02256
288.04         51.4696
288.50        50.77397
288.95        49.97484
289.41        49.18805
289.86        48.45327
290.32        47.85159
290.77        47.32585
291.22         46.9011
291.68         46.5919
292.13        46.36372
292.59        46.22638
293.04        46.14752
293.50         46.1128
293.95        46.09468
294.40        46.09818
294.86        46.10723
295.31        46.08366
295.77        46.04305
296.22        45.99058
296.68        45.98092
297.13        46.06817
297.58        46.27404
298.04        46.57989
298.49        46.94638
298.95        47.33669
299.40        47.71119
299.85        48.06815
300.31        48.39666
300.76        48.66234
301.21        48.86176
301.67        49.01154
302.12        49.08686
302.58        49.13456
303.03        49.13839
303.48        49.13394
303.94        49.14804
304.39        49.16152
304.84        49.19594
305.30        49.26321
305.75        49.35327
306.20        49.51978
306.66        49.76874
307.11        50.05354
307.57        50.32148
308.02        50.42569
308.47        50.36133
308.93         50.1785
309.38        49.94996
309.83        49.85561
310.29        49.92806
310.74        50.10381
311.19        50.27992
311.65        50.28217
312.10        50.06384
312.55        49.68756
313.00        49.26236
313.46        48.94393
313.91        48.75688
314.36        48.67157
314.82        48.60856
315.27        48.45765
315.72        48.18799
316.18         47.8482
316.63        47.51134
317.08         47.3079
317.53        47.25755
317.99        47.30713
318.44        47.36077
318.89        47.25149
319.35        46.94247
319.80        46.48965
320.25        45.99702
320.70        45.63208
321.16        45.43568
321.61        45.37061
322.06        45.35645
322.51        45.26327
322.97         45.0487
323.42        44.76426
323.87        44.46875
324.32        44.26317
324.78        44.15636
325.23        44.13263
325.68        44.11551
326.13        43.99663
326.59        43.74816
327.04        43.42331
327.49        43.07707
327.94        42.80194
328.39        42.61837
328.85        42.47421
329.30         42.3793
329.75         42.2655
330.20        42.11712
330.66        41.95527
331.11        41.79954
331.56        41.64315
332.01         41.4893
332.46         41.3214
332.92        41.15026
333.37        41.06661
333.82         41.0597
334.27        41.12008
334.72         41.1739
335.17         41.0938
335.63        40.85556
336.08        40.52634
336.53        40.20789
336.98        40.08345
337.43        40.19963
337.88        40.49128
338.34        40.86765
338.79        41.21516
339.24        41.45475
339.69         41.6123
340.14        41.66447
340.59        41.58321
341.05        41.39281
341.50        41.10163
341.95        40.79145
342.40        40.59012
342.85        40.53473
343.30        40.60252
343.75        40.74905
344.20        40.89165
344.66        41.00122
345.11        41.09038
345.56         41.1661
346.01        41.24312
346.46        41.32547
346.91        41.40286
347.36        41.45724
347.81        41.47008
348.26        41.44105
348.72        41.37901
349.17        41.31643
349.62         41.3208
350.07        41.39977
350.52        41.53312
350.97        41.65042
351.42        41.63848
351.87        41.47675
352.32        41.20564
352.77        40.90749
353.22        40.70033
353.67        40.61102
354.13        40.60615
354.58        40.62725
355.03        40.57483
355.48         40.4226
355.93        40.20209
356.38        39.97449
356.83        39.82862
357.28        39.77622
357.73        39.77886
358.18        39.76763
358.63         39.6368
359.08        39.36594
359.53        38.99925
359.98        38.60041
360.43        38.25815
360.88        37.99654
361.33        37.79005
361.78        37.61338
362.23        37.42812
362.68        37.22313
363.13        37.01433
363.58        36.81007
364.03        36.61792
364.48        36.43769
364.93        36.26059
365.38        36.08128
365.83        35.89696
366.28        35.70841
366.73         35.5188
367.18        35.33061
367.63         35.1466
368.08        34.96587
368.53        34.78522
368.98        34.60442
369.43        34.42192
369.88        34.23681
370.33        34.05218
370.78        33.85984
371.23        33.64862
371.68        33.41985
372.13        33.17607
372.58        32.94319
373.03        32.76113
373.48        32.63256
373.93        32.54189
374.38        32.44687
374.83        32.28138
375.28        32.03315
375.72        31.71969
376.17        31.40211
376.62         31.1317
377.07         30.9299
377.52        30.78975
377.97        30.69311
378.42        30.61313
378.87        30.53864
379.32        30.46434
379.77         30.4182
380.22        30.44217
380.67        30.53052
381.11        30.67335
381.56        30.76314
382.01        30.65659
382.46         30.3408
382.91        29.88697
383.36        29.43225
383.81        29.16308
384.26        29.11034
384.71        29.21218
385.15        29.38496
385.60        29.48452
386.05        29.46043
386.50        29.35555
386.95        29.19348
387.40        29.01328
387.85        28.83687
388.29        28.63368
388.74        28.45597
389.19        28.30922
389.64        28.19285
390.09        28.10429
390.54        28.02783
390.98        27.92767
391.43        27.81539
391.88        27.69934
392.33        27.59364
392.78        27.51755
393.23         27.4737
393.67        27.43962
394.12        27.43294
394.57        27.42834
395.02        27.41686
395.47        27.39019
395.91        27.35631
396.36        27.31492
396.81        27.28249
397.26        27.26768
397.71        27.24079
398.15         27.1751
398.60        27.10518
399.05        26.93043
399.50         26.7384
399.95        26.85277
400.39        27.19867
400.84        27.26433
401.29         27.0298
401.74        26.89221
402.18        26.86465
402.63        26.68774
403.08        26.42578
403.53        26.29951
403.97        26.33193
404.42        26.46325
404.87        26.61494
405.32        26.65778
405.76        26.55815
406.21         26.3728
406.66        26.17235
407.11        26.06803
407.55        26.09391
408.00        26.20072
408.45        26.33658
408.90        26.39822
409.34        26.35112
409.79        26.23595
410.24         26.0979
410.68        25.99047
411.13        25.93649
411.58        25.91671
412.03        25.91054
412.47        25.88921
412.92         25.8374
413.37         25.7763
413.81        25.72358
414.26         25.7272
414.71        25.78193
415.15        25.87703
415.60        25.97122
416.05        26.01985
416.49        26.01054
416.94        25.95794
417.39        25.88124
417.83        25.80705
418.28        25.74745
418.73         25.6911
419.17        25.65925
419.62        25.68608
420.07        25.77118
420.51         25.8969
420.96        26.01671
421.41        26.05118
421.85        25.97871
422.30        25.81648
422.74        25.61228
423.19        25.55119
423.64        25.61332
424.08        25.61879
424.53        25.54717
424.98        25.56009
425.42        25.66932
425.87        25.71196
426.31        25.69854
426.76        25.83173
427.21        26.03623
427.65        25.93927
428.10        25.62502
428.54        25.49766
428.99          25.594
429.44         25.7935
429.88        25.98769
430.33        25.90413
430.77        25.61113
431.22        25.61142
431.66        25.89359
432.11        25.99775
432.56        25.92126
433.00        26.01901
433.45        26.17318
433.89        25.99764
434.34        25.67185
434.78        25.07611
435.23        25.63983
435.67        25.72872
436.12        25.70118
436.57        25.62446
437.01        25.52727
437.46        25.46915
437.90        25.44633
438.35        25.37429
438.79        25.26774
439.24        25.23587
439.68         25.2837
440.13        25.37847
440.57        25.48653
441.02        25.56385
441.46         25.5894
441.91        25.54955
442.35        25.46499
442.80        25.53527
443.24        25.69905
443.69        25.70129
444.13        25.55698
444.58        25.52388
445.02        25.60549
445.47        25.66493
445.91        25.67908
446.36        25.68495
446.80        25.67328
447.24         25.6366
447.69        25.59522
448.13        25.57071
448.58         25.5748
449.02         25.5991
449.47        25.63011
449.91        25.63107
450.36        25.60438
450.80        25.55581
451.25        25.51693
451.69        25.51869
452.13        25.56874
452.58        25.64583
453.02        25.72512
453.47        25.77125
453.91        25.77416
454.36        25.75506
454.80         25.7074
455.24        25.62061
455.69        25.51132
456.13        25.36751
456.58        25.26217
457.02        25.26549
457.46        25.39289
457.91        25.61707
458.35         25.8337
458.79        25.88504
459.24        25.76497
459.68        25.51499
460.13        25.26424
460.57        25.14393
461.01        25.20326
461.46         25.3755
461.90         25.6115
462.34        25.80892
462.79        25.91951
463.23        25.98256
463.68        25.98227
464.12        25.90897
464.56        25.77261
465.01        25.61159
465.45        25.44135
465.89        25.35569
466.34        25.36533
466.78        25.44073
467.22        25.56075
467.67        25.65798
468.11         25.7218
468.55        25.75749
468.99        25.76631
469.44        25.74836
469.88        25.71338
470.32        25.66044
470.77        25.61037
471.21        25.60318
471.65        25.64426
472.10        25.72355
472.54        25.82002
472.98        25.90705
473.42        25.97096
473.87        26.02397
474.31        26.04358
474.75        26.02037
475.20        25.96631
475.64        25.88241
476.08        25.80037
476.52         25.7564
476.97        25.75956
477.41        25.80896
477.85        25.90463
478.29        26.00439
478.74        26.11695
479.18        26.31183
479.62         26.5284
480.06        26.62837
480.50        26.60339
480.95        26.47437
481.39        26.29379
481.83        26.40575
482.27        26.43566
482.72        26.64597
483.16        26.86813
483.60        26.97392
484.04        26.93649
484.48        26.93249
484.93         26.9643
485.37        26.71845
485.81        27.10208
486.25        27.06808
486.69        25.86143
487.14         27.2122
487.58        28.41838
488.02        28.11347
488.46        27.37292
488.90        27.42038
489.34        27.82279
489.79         28.1947
490.23        28.09588
490.67        28.25657
491.11        28.57435
491.55        28.56057
491.99        28.30786
492.43        28.28032
492.88        28.52168
493.32        28.79907
493.76        29.04585
494.20        29.26729
494.64        29.44659
495.08        29.52709
495.52        29.54089
495.96        29.72197
496.41        30.01917
496.85        29.99726
497.29        29.71579
497.73        29.89261
498.17        30.11926
498.61        30.36099
499.05        30.44512
499.49        30.51857
499.93        30.51863
500.37        30.68997
500.82        30.97895
501.26        31.17491
501.70        31.25663
502.14        31.34871
502.58         31.4746
503.02        31.60757
503.46         31.7501
503.90        31.90947
504.34        32.05119
504.78         32.1189
505.22         32.1056
505.66        32.03072
506.10        31.94875
506.54        31.94687
506.98        32.04406
507.42        32.21262
507.86        32.40646
508.30        32.54813
508.74         32.6146
509.18        32.63137
509.62        32.62124
510.06         32.6218
510.50         32.6474
510.94        32.68292
511.38        32.73257
511.82         32.8045
512.26        32.89688
512.70        33.01213
513.14         33.1268
513.58        33.20033
514.02        33.22431
514.46        33.20547
514.90        33.17717
515.34        33.19617
515.78        33.27215
516.22        33.38577
516.66        33.49446
517.10        33.52976
517.54         33.4784
517.98        33.36734
518.42         33.2366
518.86        33.14927
519.30        33.12387
519.74        33.13926
520.18        33.17843
520.62         33.2141
521.06        33.23528
521.50        33.25341
521.93        33.26321
522.37        33.24316
522.81        33.19755
523.25        33.12796
523.69        33.05761
524.13        33.02601
524.57        33.03687
525.01        33.07355
525.45        33.10906
525.89        33.09827
526.32        33.02751
526.76        32.92499
527.20        32.79984
527.64        32.66945
528.08        32.54578
528.52        32.42321
528.96        32.32746
529.40        32.29842
529.83        32.33566
530.27        32.42842
530.71        32.52252
531.15        32.53342
531.59        32.44372
532.03        32.27774
532.46        32.08381
532.90        31.96278
533.34        31.93287
533.78        31.94761
534.22         31.9714
534.66         31.9879
535.09        31.96096
535.53        31.83899
535.97        31.66027
536.41        31.56569
536.85        31.57354
537.28        31.61119
537.72        31.67191
538.16        31.77009
538.60        31.89319
539.04        32.03588
539.47        32.16022
539.91        32.22818
540.35        32.22965
540.79        32.18164
541.22        32.12436
541.66        32.13512
542.10         32.2269
542.54        32.37522
542.97        32.54636
543.41        32.69967
543.85        32.81719
544.29        32.92098
544.72         33.0073
545.16         33.0909
545.60        33.17471
546.04        33.25819
546.47        33.37277
546.91        33.56528
547.35        33.83364
547.79        34.15833
548.22        34.48429
548.66        34.71979
549.10        34.88742
549.53        34.99832
549.97        35.08709
550.41        35.13335
550.84        35.19298
551.28        35.34721
551.72         35.5602
552.15        35.80315
552.59        36.10679
553.03        35.95012
553.46        36.40596
553.90        36.51858
554.34        36.60249
554.77        36.66074
555.21        36.72816
555.65        36.83128
556.08        36.96312
556.52        37.09866
556.96        37.21083
557.39        37.35776
557.83        37.50509
558.27        37.44819
558.70        37.25347
559.14        37.25111
559.57        37.43552
560.01        37.60043
560.45        37.71189
560.88        37.82896
561.32        37.95802
561.75        38.06774
562.19        38.16571
562.63        38.20335
563.06        38.20556
563.50        38.29162
563.93        38.41771
564.37        38.52523
564.80        38.61541
565.24        38.62168
565.68        38.48112
566.11        38.93572
566.55        38.59526
566.98        38.59888
567.42        38.61755
567.85        38.77117
568.29        39.06753
568.72        39.45842
569.16        39.91542
569.60        40.18655
570.03        40.31446
570.47        40.45739
570.90        40.68332
571.34        40.37952
571.77        40.61128
572.21        41.03434
572.64         40.8035
573.08        41.39153
573.51        41.30052
573.95        41.29446
574.38        41.44618
574.82        41.82854
