SpectraSmart Spectrum 2.9.0.0
--------- Device Information -----------
Spectrum Name :  反射率_0
Saving Time :  2024/04/26 21:27:16
Spectro-Module Model Name : SE2030-DUVN
Spectro-Module Serial Number : OS361AC55029948
Wavelength Start : 200
Wavelength End : 1025
Wavelength Unit : Wavelength(nm)
Spectrum Unit : Reflectance(%)
-----------Spectrum Setting ------------
Integration Time : 20ms
Average : 10
Boxcar : 0
Background removal :  enabled
linearity correction :  enabled
SC :  disabled
Intensity correction :  disabled
DWT denoise :  enabled
savitzky-golay :  disabled
FFT :  disabled
Running average :  disabled
Kalman :  disabled
High pass :  disabled
---------------BEGIN--------------------
Wavelength(nm)             Reflectance(%)
200.29               0
200.75        47.04239
201.21        44.13319
201.67        41.56712
202.13         40.6568
202.58        41.51883
203.04        44.19572
203.50        48.75577
203.96        54.19783
204.42        59.29658
204.88        63.71889
205.34        67.03874
205.80        69.34318
206.26        70.46938
206.72        69.81714
207.18        68.15849
207.64        66.13049
208.10        63.74403
208.55        61.43162
209.01        57.96115
209.47         53.4486
209.93        50.22887
210.39        48.88553
210.85        49.77171
211.31        53.75599
211.77        62.45607
212.23        82.00018
212.69        129.3951
213.14        203.4517
213.60        190.4635
214.06        130.8493
214.52        93.30111
214.98        77.72823
215.44         72.5218
215.90        71.14011
216.36        72.82635
216.81        77.57299
217.27        85.85945
217.73        101.0551
218.19        121.3286
218.65        129.3397
219.11        118.9804
219.57        101.6806
220.02        89.72894
220.48        89.93797
220.94        101.2797
221.40        124.4932
221.86        159.5536
222.32        185.3226
222.77         181.136
223.23        160.6266
223.69        137.9654
224.15        121.2178
224.61        110.3177
225.06        102.1346
225.52        97.65912
225.98        97.55695
226.44        101.1604
226.90        107.9663
227.36        115.7897
227.81        120.4322
228.27        121.0948
228.73        118.9148
229.19        116.3434
229.65        116.4307
230.10        119.3246
230.56        123.9785
231.02        128.3771
231.48        129.4422
231.93        126.7087
232.39        122.2024
232.85         117.598
233.31        115.0484
233.77        114.7885
234.22        115.8819
234.68        117.6878
235.14        119.3238
235.60        120.3689
236.05        121.3289
236.51        121.4105
236.97        119.4212
237.43        115.1908
237.88        109.0703
238.34        102.7068
238.80        99.17499
239.26        99.49809
239.71        104.2465
240.17        111.9994
240.63        118.5639
241.08        121.1414
241.54         118.955
242.00        115.0506
242.46        116.3211
242.91        127.4572
243.37         150.178
243.83        184.8293
244.28        213.8594
244.74         211.886
245.20        180.1376
245.66        142.4738
246.11        119.2474
246.57        110.7678
247.03        110.7723
247.48        112.3139
247.94        105.6751
248.40        92.84136
248.85        80.01704
249.31        70.91415
249.77         66.5753
250.22         65.8108
250.68        67.27279
251.14        69.96634
251.59        70.98949
252.05        69.33766
252.51        67.33567
252.96        65.14318
253.42        63.05964
253.88         61.4367
254.33        59.82924
254.79        60.71846
255.25        66.29326
255.70        75.91689
256.16        88.46215
256.62        99.38623
257.07        101.5468
257.53        96.70856
257.99        89.39111
258.44        83.22393
258.90        81.50407
259.35        82.93058
259.81         86.3271
260.27        89.90514
260.72        91.51323
261.18        91.31703
261.63        89.85719
262.09        88.57521
262.55        88.26347
263.00        88.73175
263.46        89.73749
263.91        90.33182
264.37        89.86595
264.83        88.28868
265.28        86.01904
265.74        83.92435
266.19        82.57298
266.65        82.16492
267.11        82.29663
267.56        82.65576
268.02        82.77824
268.47        82.48775
268.93        82.01051
269.38        81.30521
269.84        80.40475
270.30        79.33947
270.75        78.05666
271.21        76.85744
271.66        76.12012
272.12        75.89111
272.57        75.98914
273.03         76.0374
273.48        75.37827
273.94        73.99213
274.39        72.09264
274.85        70.13976
275.31        68.52328
275.76        67.31538
276.22        66.45135
276.67        65.78481
277.13        65.30914
277.58        64.85894
278.04        64.47475
278.49         63.9761
278.95        63.29219
279.40        62.32843
279.86        61.26043
280.31        60.03115
280.77        58.77522
281.22        57.48231
281.68        56.26459
282.13        55.19679
282.59        54.55228
283.04        54.25693
283.50        54.24561
283.95        54.27296
284.41         53.9991
284.86         53.3268
285.32        52.41343
285.77        51.37955
286.22         50.5008
286.68        49.83936
287.13        49.26677
287.59        48.74521
288.04         48.1436
288.50        47.47964
288.95        46.76416
289.41        46.07101
289.86        45.38543
290.32        44.76518
290.77        44.17094
291.22        43.62249
291.68        43.12783
292.13        42.66636
292.59         42.2585
293.04        41.90936
293.50        41.66253
293.95        41.50817
294.40        41.43581
294.86        41.41237
295.31        41.37017
295.77        41.30502
296.22        41.22477
296.68        41.16335
297.13        41.14816
297.58        41.19703
298.04        41.29892
298.49        41.44005
298.95        41.62492
299.40        41.83231
299.85        42.05675
300.31        42.28249
300.76         42.4667
301.21        42.60252
301.67        42.71175
302.12        42.77106
302.58        42.81997
303.03        42.83892
303.48        42.84759
303.94        42.87109
304.39        42.90012
304.84         42.9491
305.30        43.02719
305.75        43.09877
306.20        43.17205
306.66        43.25359
307.11        43.32234
307.57        43.37958
308.02        43.37027
308.47        43.30111
308.93        43.18871
309.38        43.05619
309.83        42.99667
310.29        43.02322
310.74        43.10677
311.19        43.17181
311.65        43.08891
312.10        42.83352
312.55        42.45382
313.00        42.06573
313.46        41.83943
313.91        41.79339
314.36        41.88328
314.82        42.00003
315.27        41.97878
315.72        41.77219
316.18        41.44444
316.63        41.07355
317.08        40.79895
317.53        40.65393
317.99        40.58543
318.44         40.5408
318.89        40.42453
319.35        40.20982
319.80        39.93205
320.25        39.62915
320.70        39.35767
321.16        39.13423
321.61        38.95403
322.06        38.79122
322.51        38.61118
322.97        38.39798
323.42         38.1633
323.87        37.94347
324.32        37.80171
324.78        37.73355
325.23        37.74468
325.68        37.73304
326.13        37.54026
326.59        37.14316
327.04        36.61081
327.49        36.08998
327.94        35.81535
328.39         35.8343
328.85         36.0613
329.30        36.39289
329.75        36.56198
330.20        36.48038
330.66        36.21503
331.11        35.87532
331.56        35.61178
332.01        35.47931
332.46        35.42546
332.92        35.40218
333.37        35.39045
333.82        35.35271
334.27        35.31376
334.72        35.27903
335.17        35.24501
335.63        35.20811
336.08        35.18169
336.53        35.15425
336.98        35.12697
337.43        35.09968
337.88         35.0636
338.34        35.03453
338.79         35.0764
339.24        35.17983
339.69        35.33094
340.14        35.45704
340.59        35.44161
341.05        35.27734
341.50        35.00394
341.95         34.7211
342.40        34.58059
342.85        34.61922
343.30        34.78716
343.75        35.01624
344.20        35.19553
344.66        35.28524
345.11        35.30938
345.56        35.28443
346.01        35.23768
346.46        35.18853
346.91        35.13675
347.36        35.07973
347.81        35.02042
348.26        34.96232
348.72        34.90351
349.17        34.87942
349.62        34.95631
350.07        35.13419
350.52          35.394
350.97        35.62138
351.42        35.63489
351.87        35.40667
352.32        34.99587
352.77        34.56413
353.22         34.3515
353.67        34.40518
354.13        34.65716
354.58         34.9566
355.03        35.04777
355.48        34.86645
355.93        34.49661
356.38        34.08984
356.83        33.87179
357.28        33.88696
357.73        34.05112
358.18        34.23503
358.63        34.23481
359.08        33.99797
359.53        33.60035
359.98        33.13942
360.43        32.75351
360.88        32.47942
361.33        32.27087
361.78        32.08644
362.23        31.86405
362.68         31.5923
363.13        31.31035
363.58        31.03589
364.03        30.78714
364.48        30.56876
364.93        30.35915
365.38        30.17792
365.83        30.06272
366.28        30.01037
366.73        30.00957
367.18        29.98493
367.63        29.81828
368.08        29.49282
368.53        29.04583
368.98        28.58137
369.43        28.26618
369.88        28.13985
370.33        28.15601
370.78        28.21762
371.23        28.16136
371.68        27.94096
372.13        27.60464
372.58        27.23618
373.03         26.9674
373.48        26.83189
373.93        26.78623
374.38        26.75945
374.83        26.64261
375.28        26.41273
375.72        26.10694
376.17        25.80815
376.62        25.60416
377.07        25.51561
377.52        25.50879
377.97        25.53269
378.42        25.51082
378.87        25.41849
379.32        25.27407
379.77        25.11576
380.22        24.99632
380.67        24.92572
381.11        24.89795
381.56        24.85152
382.01        24.71568
382.46         24.4887
382.91        24.20934
383.36         23.9623
383.81        23.86057
384.26        23.91503
384.71        24.08323
385.15        24.27957
385.60         24.3626
386.05        24.29054
386.50        24.10449
386.95        23.86618
387.40        23.67486
387.85         23.5593
388.29        23.47392
388.74        23.41594
389.19        23.32498
389.64        23.18925
390.09        23.02808
390.54        22.86417
390.98        22.72635
391.43        22.64009
391.88        22.59238
392.33        22.56393
392.78        22.52839
393.23        22.47863
393.67        22.40906
394.12        22.35922
394.57        22.34316
395.02        22.36067
395.47        22.39628
395.91        22.42508
396.36         22.3949
396.81        22.31011
397.26        22.19463
397.71        22.07406
398.15        21.99783
398.60         22.0019
399.05        21.97809
399.50        21.93917
399.95        22.06834
400.39        22.28809
400.84        22.20077
401.29        21.84994
401.74         21.6554
402.18        21.65204
402.63        21.60304
403.08        21.50084
403.53        21.43042
403.97        21.39016
404.42        21.36478
404.87        21.34316
405.32        21.30248
405.76        21.23577
406.21         21.1586
406.66        21.09087
407.11        21.06786
407.55        21.10127
408.00        21.16989
408.45        21.24535
408.90        21.26759
409.34        21.21853
409.79        21.11899
410.24        21.00647
410.68        20.92826
411.13        20.90094
411.58        20.91059
412.03        20.92767
412.47         20.9034
412.92        20.82351
413.37        20.71804
413.81        20.62203
414.26        20.60288
414.71        20.66324
415.15        20.78407
415.60        20.92623
416.05        21.04007
416.49        21.10328
416.94        21.12541
417.39        21.10919
417.83        21.05911
418.28        20.98256
418.73        20.87584
419.17        20.76931
419.62        20.71326
420.07        20.72021
420.51        20.77826
420.96        20.85256
421.41        20.88013
421.85        20.84138
422.30        20.74652
422.74        20.63265
423.19        20.64887
423.64        20.77454
424.08        20.85988
424.53        20.86828
424.98        20.90132
425.42        20.96298
425.87        20.93106
426.31        20.83897
426.76        20.89096
427.21        21.03942
427.65        20.97507
428.10        20.75706
428.54        20.69822
428.99        20.81787
429.44        21.01452
429.88        21.19976
430.33         21.1523
430.77          20.932
431.22        20.95339
431.66        21.18915
432.11         21.2613
432.56        21.17418
433.00        21.13077
433.45        21.09345
433.89        21.08368
434.34        21.15516
434.78        20.67898
435.23        20.87843
435.67        20.87041
436.12        20.96065
436.57        20.93358
437.01        20.80766
437.46        20.75194
437.90        20.76496
438.35        20.74519
438.79        20.68668
439.24        20.65122
439.68        20.64212
440.13        20.64857
440.57        20.67182
441.02        20.72622
441.46        20.80368
441.91        20.85414
442.35        20.87094
442.80        21.02279
443.24        21.23446
443.69        21.22626
444.13        21.02546
444.58        20.94065
445.02        20.98532
445.47        20.99596
445.91        20.96343
446.36        20.95475
446.80        20.96381
447.24        20.97649
447.69        20.98834
448.13         20.9813
448.58        20.95735
449.02        20.91981
449.47        20.87967
449.91        20.84276
450.36        20.81908
450.80        20.80252
451.25        20.79916
451.69        20.80405
452.13        20.81744
452.58        20.83444
453.02        20.85071
453.47        20.86262
453.91        20.86716
454.36        20.86823
454.80        20.85224
455.24        20.79811
455.69        20.71294
456.13        20.59261
456.58         20.4879
457.02        20.44093
457.46        20.46863
457.91        20.55822
458.35        20.65067
458.79        20.65849
459.24        20.58294
459.68        20.43882
460.13        20.31161
460.57        20.27956
461.01        20.37236
461.46        20.54333
461.90        20.74312
462.34        20.87312
462.79         20.8953
463.23        20.84589
463.68        20.74268
464.12        20.63046
464.56        20.52824
465.01        20.45023
465.45        20.37631
465.89        20.33627
466.34        20.32964
466.78        20.34622
467.22        20.38614
467.67         20.4257
468.11        20.46711
468.55         20.5051
468.99        20.52851
469.44         20.5195
469.88        20.47915
470.32        20.41065
470.77        20.34133
471.21        20.31946
471.65        20.35167
472.10        20.42521
472.54         20.5037
472.98        20.53646
473.42        20.51073
473.87        20.44944
474.31         20.3647
474.75         20.2942
475.20        20.25528
475.64        20.23228
476.08        20.22374
476.52        20.21691
476.97        20.20801
477.41        20.20994
477.85        20.23589
478.29        20.27457
478.74        20.34113
479.18        20.48234
479.62        20.65092
480.06        20.73813
480.50        20.73547
480.95        20.66391
481.39        20.55446
481.83        20.65281
482.27        20.66218
482.72        20.80471
483.16        20.96168
483.60        21.00893
484.04        20.91123
484.48        20.92845
484.93        21.08336
485.37        20.73759
485.81        20.74247
486.25        21.14744
486.69        21.03922
487.14        21.77849
487.58        22.33599
488.02        21.89136
488.46        21.36987
488.90        21.31409
489.34        21.56323
489.79        21.77627
490.23        21.70962
490.67        21.83075
491.11        22.06713
491.55        22.06449
491.99        21.87628
492.43        21.82467
492.88        21.94174
493.32        22.06981
493.76        22.17862
494.20        22.29456
494.64        22.41457
495.08        22.49687
495.52        22.54736
495.96         22.7133
496.41        22.94929
496.85        22.91638
497.29        22.67988
497.73        22.85747
498.17        23.12018
498.61        23.33027
499.05        23.34969
499.49        23.37838
499.93        23.37181
500.37        23.46561
500.82        23.63048
501.26        23.75208
501.70        23.82075
502.14        23.91721
502.58        24.05112
503.02        24.18907
503.46        24.32533
503.90        24.46701
504.34        24.58381
504.78        24.62596
505.22        24.58823
505.66        24.48964
506.10        24.37613
506.54        24.32102
506.98        24.34484
507.42        24.42876
507.86        24.54712
508.30        24.65501
508.74        24.73432
509.18         24.7951
509.62        24.84203
510.06        24.88293
510.50        24.92145
510.94         24.9539
511.38        24.97727
511.82        24.98945
512.26        24.99372
512.70        24.99534
513.14        25.00943
513.58        25.05806
514.02        25.14323
514.46        25.25414
514.90        25.37043
515.34        25.46012
515.78        25.51151
516.22        25.53057
516.66        25.52348
517.10        25.50192
517.54        25.47342
517.98        25.43853
518.42        25.40063
518.86        25.36543
519.30        25.33555
519.74        25.31027
520.18        25.29667
520.62        25.30281
521.06        25.32795
521.50        25.37114
521.93        25.41195
522.37         25.4081
522.81        25.35733
523.25        25.27054
523.69         25.1832
524.13        25.15189
524.57        25.18446
525.01        25.25784
525.45        25.33497
525.89        25.35557
526.32        25.30172
526.76        25.20347
527.20        25.07844
527.64        24.95577
528.08        24.85093
528.52        24.75659
528.96         24.6885
529.40        24.67148
529.83        24.70347
530.27        24.77651
530.71        24.85542
531.15        24.88465
531.59        24.84961
532.03        24.76338
532.46        24.64657
532.90        24.55178
533.34         24.4906
533.78        24.43894
534.22        24.38826
534.66        24.35493
535.09        24.31836
535.53        24.22854
535.97        24.10884
536.41        24.05654
536.85        24.08036
537.28        24.13048
537.72        24.18988
538.16        24.24969
538.60        24.30052
539.04        24.34471
539.47         24.3812
539.91         24.4248
540.35        24.47426
540.79        24.52689
541.22        24.58232
541.66        24.64957
542.10        24.72529
542.54        24.80662
542.97        24.88727
543.41         24.9673
543.85        25.04313
544.29        25.12071
544.72        25.19193
545.16        25.26113
545.60        25.32652
546.04        25.39187
546.47        25.47786
546.91         25.6114
547.35        25.79146
547.79        26.00928
548.22         26.2273
548.66        26.37984
549.10        26.48669
549.53        26.55669
549.97        26.61749
550.41        26.65403
550.84        26.70763
551.28        26.83923
551.72        27.01729
552.15        27.21288
552.59        27.44776
553.03        27.32813
553.46        27.67205
553.90        27.75737
554.34         27.8251
554.77        27.87621
555.21        27.93902
555.65        28.03631
556.08         28.1619
556.52        28.29491
556.96        28.40908
557.39        28.54128
557.83        28.66269
558.27        28.61696
558.70         28.4592
559.14        28.44921
559.57        28.58604
560.01        28.71211
560.45        28.79505
560.88        28.87567
561.32        28.95991
561.75        29.00905
562.19         29.0446
562.63        29.09438
563.06        29.15884
563.50        29.23086
563.93        29.28386
564.37        29.35299
564.80        29.44788
565.24        29.49326
565.68        29.42609
566.11        29.79001
566.55        29.51829
566.98        29.49627
567.42        29.48231
567.85        29.58467
568.29        29.80923
568.72        30.09803
569.16        30.44007
569.60         30.6564
570.03        30.83329
570.47        30.99848
570.90         31.2243
571.34        31.04463
571.77        31.40014
572.21        31.56141
572.64        31.73139
573.08        31.82323
573.51        31.88327
573.95        31.86523
574.38        31.86747
574.82        32.23272
