SpectraSmart Spectrum 2.9.0.0
--------- Device Information -----------
Spectrum Name :  反射率_0
Saving Time :  2024/04/26 21:25:01
Spectro-Module Model Name : SE2030-DUVN
Spectro-Module Serial Number : OS361AC55029948
Wavelength Start : 200
Wavelength End : 1025
Wavelength Unit : Wavelength(nm)
Spectrum Unit : Reflectance(%)
-----------Spectrum Setting ------------
Integration Time : 20ms
Average : 10
Boxcar : 0
Background removal :  enabled
linearity correction :  enabled
SC :  disabled
Intensity correction :  disabled
DWT denoise :  enabled
savitzky-golay :  disabled
FFT :  disabled
Running average :  disabled
Kalman :  disabled
High pass :  disabled
---------------BEGIN--------------------
Wavelength(nm)             Reflectance(%)
200.29               0
200.75        41.43967
201.21        38.63052
201.67        36.39716
202.13        35.87435
202.58        37.11856
203.04        40.32733
203.50        45.55142
203.96        51.48476
204.42         56.5639
204.88        60.27868
205.34        62.15429
205.80        62.46141
206.26        61.56387
206.72        59.48288
207.18        56.77992
207.64        53.58852
208.10        49.61251
208.55        44.48319
209.01        38.31293
209.47        35.81648
209.93        39.25772
210.39        45.37414
210.85        50.87704
211.31        55.21362
211.77         59.8716
212.23        67.41418
212.69        85.39243
213.14         122.932
213.60        133.4315
214.06        116.2972
214.52        100.1813
214.98        89.26355
215.44        80.10148
215.90        70.14877
216.36        60.93936
216.81        55.48432
217.27        55.12033
217.73        60.56524
218.19        70.83686
218.65        76.58157
219.11        73.42576
219.57        66.79172
220.02        63.07845
220.48        66.88194
220.94        78.52975
221.40        99.50784
221.86        129.5204
222.32        150.0214
222.77        143.9481
223.23        123.6713
223.69        102.9235
224.15         89.4295
224.61        82.30843
225.06        78.17738
225.52        76.52959
225.98        76.63103
226.44        77.97118
226.90        80.61597
227.36        83.75348
227.81        85.67949
228.27        86.11086
228.73        85.37434
229.19        84.32172
229.65        84.05302
230.10        84.67654
230.56        85.92772
231.02        87.23162
231.48        87.74914
231.93         87.2606
232.39        86.44659
232.85         85.7324
233.31        85.78382
233.77        86.62036
234.22        87.93841
234.68        89.34987
235.14        90.35958
235.60        90.76363
236.05         90.7795
236.51        90.17577
236.97        88.79585
237.43         86.7295
237.88        84.17398
238.34        81.62136
238.80        80.10078
239.26        79.97464
239.71        81.70261
240.17        84.76767
240.63        88.13893
241.08        91.12423
241.54        93.04803
242.00        95.07771
242.46        100.0092
242.91        110.4397
243.37        127.7819
243.83        152.1496
244.28        171.6788
244.74        168.8253
245.20        143.7301
245.66        114.8334
246.11        97.59997
246.57        92.13923
247.03        94.38678
247.48        97.12047
247.94        89.67106
248.40        74.99685
248.85        60.09328
249.31        50.15524
249.77        47.95638
250.22        52.64169
250.68        63.43633
251.14         78.5498
251.59        88.95702
252.05        88.93575
252.51        82.72327
252.96        74.31174
253.42        68.21874
253.88        64.97234
254.33          62.485
254.79        62.59018
255.25        66.75977
255.70        74.21394
256.16        84.34731
256.62        92.60549
257.07        92.15577
257.53        85.28383
257.99        76.50466
258.44        69.62708
258.90        67.92684
259.35        69.88267
259.81        73.98897
260.27        78.07139
260.72        79.46635
261.18        78.38194
261.63         75.8076
262.09        73.41451
262.55        72.29481
263.00        72.32581
263.46        73.09695
263.91         73.7244
264.37        73.55553
264.83        72.47647
265.28         70.8214
265.74        69.28815
266.19        68.31034
266.65        68.04144
267.11         68.1591
267.56        68.33742
268.02        68.09309
268.47        67.30853
268.93        66.23294
269.38        65.02946
269.84        64.01767
270.30         63.2625
270.75        62.61399
271.21        62.12514
271.66        61.80273
272.12        61.60984
272.57        61.50425
273.03        61.25547
273.48        60.46254
273.94        59.16523
274.39        57.47565
274.85        55.81395
275.31        54.56915
275.76         53.7745
276.22         53.3409
276.67        53.01392
277.13        52.57795
277.58        51.88603
278.04        51.06475
278.49         50.1111
278.95         49.1828
279.40        48.25769
279.86        47.40414
280.31        46.52068
280.77        45.63143
281.22        44.69123
281.68        43.80291
282.13        43.01373
282.59        42.51384
283.04        42.25063
283.50        42.18455
283.95        42.13468
284.41        41.85522
284.86        41.29013
285.32        40.56113
285.77        39.80079
286.22         39.2793
286.68          39.038
287.13        38.94322
287.59        38.89094
288.04        38.65984
288.50        38.23941
288.95        37.67909
289.41        37.08621
289.86        36.52287
290.32        36.06159
290.77        35.64837
291.22        35.30873
291.68        35.06309
292.13        34.89219
292.59        34.81742
293.04         34.7998
293.50        34.80194
293.95        34.80113
294.40        34.80379
294.86        34.84464
295.31        34.96925
295.77        35.19217
296.22        35.48747
296.68        35.80657
297.13        36.05383
297.58        36.22097
298.04        36.33773
298.49        36.47147
298.95        36.75034
299.40        37.18173
299.85        37.71689
300.31        38.26718
300.76        38.68218
301.21        38.93244
301.67        39.08226
302.12        39.16569
302.58        39.30254
303.03        39.49236
303.48        39.71509
303.94         39.9665
304.39        40.20105
304.84         40.4181
305.30        40.64433
305.75        40.83337
306.20        40.97158
306.66        41.06989
307.11        41.11556
307.57        41.15483
308.02        41.20515
308.47        41.28331
308.93        41.38457
309.38        41.47727
309.83        41.56788
310.29        41.65053
310.74        41.71885
311.19        41.74686
311.65        41.68685
312.10        41.52943
312.55        41.29023
313.00         41.0309
313.46        40.84297
313.91        40.72944
314.36        40.67477
314.82        40.61592
315.27        40.46142
315.72         40.1894
316.18        39.84631
316.63        39.48193
317.08        39.18917
317.53        38.98969
317.99        38.84645
318.44         38.7307
318.89        38.58495
319.35        38.38707
319.80        38.15051
320.25        37.88404
320.70        37.60128
321.16        37.30716
321.61         37.0132
322.06        36.70697
322.51         36.3755
322.97        36.01868
323.42        35.64796
323.87         35.3147
324.32        35.10374
324.78         35.0129
325.23        35.03784
325.68        35.05961
326.13         34.8877
326.59        34.48188
327.04        33.91164
327.49        33.31715
327.94        32.92415
328.39        32.78031
328.85        32.80436
329.30        32.90724
329.75        32.86134
330.20        32.60083
330.66         32.1951
331.11        31.75008
331.56        31.40536
332.01        31.20534
332.46        31.09453
332.92        31.02378
333.37        30.96432
333.82        30.87716
334.27        30.79114
334.72        30.68932
335.17         30.5354
335.63        30.32708
336.08        30.08438
336.53         29.8604
336.98        29.76067
337.43         29.8039
337.88        29.95114
338.34        30.12757
338.79        30.23478
339.24        30.22112
339.69        30.11749
340.14        29.93782
340.59        29.71136
341.05        29.47245
341.50        29.21659
341.95        28.98879
342.40        28.85575
342.85        28.83058
343.30        28.89801
343.75        29.01537
344.20        29.10839
344.66        29.15251
345.11         29.1558
345.56        29.13165
346.01        29.10784
346.46        29.09486
346.91        29.08555
347.36        29.06674
347.81        29.02219
348.26        28.95258
348.72        28.86797
349.17        28.79346
349.62        28.78127
350.07        28.83341
350.52        28.92606
350.97        29.00528
351.42         28.9849
351.87        28.84916
352.32        28.63607
352.77        28.38925
353.22         28.1689
353.67        27.99723
354.13        27.85851
354.58        27.76049
355.03        27.71991
355.48        27.72746
355.93        27.76821
356.38        27.80788
356.83        27.79251
357.28        27.70582
357.73        27.56088
358.18        27.35786
358.63        27.10636
359.08        26.82543
359.53        26.52128
359.98        26.23757
360.43        26.03461
360.88        25.91744
361.33        25.86779
361.78        25.83395
362.23        25.73081
362.68        25.53828
363.13        25.28243
363.58         25.0017
364.03        24.75589
364.48        24.56273
364.93        24.40498
365.38        24.26741
365.83        24.12729
366.28        23.97833
366.73        23.83035
367.18        23.69307
367.63        23.57791
368.08        23.48457
368.53        23.40479
368.98        23.32145
369.43        23.21004
369.88        23.06403
370.33        22.88877
370.78        22.70265
371.23        22.53787
371.68        22.40587
372.13        22.30255
372.58        22.21014
373.03        22.09776
373.48        21.95819
373.93        21.79876
374.38        21.64424
374.83        21.53568
375.28        21.47591
375.72        21.43904
376.17         21.4018
376.62        21.30226
377.07        21.13419
377.52        20.92796
377.97        20.71087
378.42        20.53094
378.87        20.40541
379.32         20.3098
379.77        20.26102
380.22         20.2834
380.67        20.36742
381.11        20.51525
381.56        20.62987
382.01        20.56673
382.46        20.30938
382.91         19.9171
383.36         19.5277
383.81        19.33487
384.26        19.36809
384.71        19.56318
385.15        19.81312
385.60         19.9384
386.05        19.88375
386.50        19.70868
386.95        19.47659
387.40        19.28553
387.85         19.1698
388.29         19.0858
388.74        19.04002
389.19        19.00068
389.64         18.9564
390.09         18.9133
390.54        18.87407
390.98        18.83299
391.43        18.79931
391.88        18.77037
392.33        18.72914
392.78        18.65345
393.23        18.54562
393.67        18.40667
394.12        18.29051
394.57        18.23976
395.02        18.25891
395.47        18.32543
395.91        18.40243
396.36         18.4151
396.81        18.35669
397.26        18.25768
397.71         18.1413
398.15        18.05256
398.60        18.02587
399.05        17.96942
399.50        17.90901
399.95        18.01712
400.39        18.23346
400.84        18.22923
401.29        18.01275
401.74        17.88287
402.18        17.85843
402.63        17.75789
403.08        17.60966
403.53        17.53892
403.97        17.55639
404.42        17.63031
404.87        17.71948
405.32        17.75433
405.76        17.71375
406.21        17.62503
406.66        17.52663
407.11        17.48107
407.55        17.50788
408.00         17.5812
408.45        17.66001
408.90        17.66505
409.34        17.57692
409.79        17.42673
410.24        17.27392
410.68        17.19543
411.13        17.21092
411.58        17.29607
412.03        17.39741
412.47         17.4232
412.92          17.345
413.37        17.20212
413.81        17.05132
414.26        16.98746
414.71         17.0228
415.15        17.13255
415.60        17.26626
416.05        17.35028
416.49        17.36061
416.94        17.31989
417.39        17.25922
417.83        17.22473
418.28        17.22918
418.73        17.25186
419.17        17.28558
419.62        17.32148
420.07         17.3529
420.51        17.38128
420.96        17.39566
421.41        17.37342
421.85        17.30779
422.30        17.20052
422.74        17.07222
423.19        17.03095
423.64        17.05771
424.08         17.0385
424.53        16.96038
424.98         16.9334
425.42        16.96806
425.87        16.95676
426.31        16.91119
426.76        16.97197
427.21        17.09246
427.65        17.03017
428.10        16.83788
428.54        16.77612
428.99        16.86542
429.44         17.0211
429.88        17.17623
430.33        17.15983
430.77        17.01457
431.22        17.07081
431.66        17.30157
432.11        17.36487
432.56        17.25578
433.00        17.21656
433.45        17.20797
433.89        17.06147
434.34        16.90901
434.78        16.61458
435.23        17.08975
435.67        17.21977
436.12        17.22839
436.57        17.16719
437.01        17.06306
437.46        16.97604
437.90         16.9147
438.35        16.81539
438.79        16.70909
439.24         16.6999
439.68         16.7952
440.13        16.96568
440.57        17.15177
441.02        17.26754
441.46        17.28335
441.91        17.17904
442.35         17.0141
442.80        17.03964
443.24        17.19737
443.69        17.17483
444.13        16.97942
444.58        16.89312
445.02        16.92129
445.47        16.90999
445.91        16.86711
446.36        16.88361
446.80        16.95674
447.24        17.05691
447.69        17.16017
448.13        17.22329
448.58        17.23834
449.02        17.21512
449.47        17.17181
449.91        17.12873
450.36        17.09969
450.80        17.07627
451.25        17.06111
451.69        17.04679
452.13         17.0339
452.58         17.0235
453.02        17.01611
453.47        17.01307
453.91        17.01351
454.36        17.01871
454.80        17.01603
455.24        16.98555
455.69        16.93032
456.13        16.84464
456.58        16.76725
457.02        16.72941
457.46         16.7432
457.91        16.79692
458.35        16.84302
458.79         16.8108
459.24        16.70531
459.68        16.54392
460.13        16.39705
460.57        16.32688
461.01        16.35911
461.46        16.45531
461.90        16.58891
462.34        16.70014
462.79        16.76152
463.23        16.79811
463.68        16.79597
464.12        16.74502
464.56        16.65044
465.01        16.53543
465.45        16.42029
465.89        16.38069
466.34        16.42236
466.78         16.5214
467.22        16.63878
467.67        16.68683
468.11        16.65154
468.55        16.55329
468.99        16.43065
469.44        16.34429
469.88        16.31479
470.32        16.32222
470.77        16.35526
471.21        16.39816
471.65        16.43998
472.10        16.49047
472.54        16.53504
472.98        16.55536
473.42        16.54906
473.87        16.52289
474.31        16.48712
474.75        16.47667
475.20        16.50131
475.64        16.54499
476.08        16.59345
476.52        16.61434
476.97        16.60192
477.41        16.57643
477.85        16.55792
478.29        16.55398
478.74        16.58444
479.18        16.68077
479.62        16.81416
480.06        16.91161
480.50        16.96314
480.95        16.97851
481.39        16.95399
481.83        17.05075
482.27         17.0196
482.72         17.0545
483.16        17.09197
483.60        17.10699
484.04        17.08635
484.48         17.1763
484.93        17.38388
485.37        17.24823
485.81        17.34081
486.25        17.64475
486.69        17.12018
487.14        17.57941
487.58        18.48334
488.02         18.1622
488.46        17.78516
488.90        17.95175
489.34        18.02144
489.79        18.28221
490.23        18.30827
490.67        18.37631
491.11        18.44668
491.55         18.4193
491.99        18.34888
492.43        18.36158
492.88        18.47935
493.32        18.64613
493.76         18.8264
494.20        18.99365
494.64        19.13895
495.08        19.23277
495.52        19.28948
495.96        19.45812
496.41         19.7043
496.85         19.7222
497.29        19.55769
497.73        19.74265
498.17        19.98977
498.61        20.16721
499.05        20.17456
499.49        20.22786
499.93        20.29315
500.37        20.47053
500.82        20.70574
501.26        20.85548
501.70         20.9011
502.14        20.92691
502.58        20.97367
503.02        21.06355
503.46        21.20556
503.90        21.39326
504.34        21.57212
504.78        21.65143
505.22        21.61428
505.66        21.49129
506.10        21.35205
506.54        21.30651
506.98         21.3817
507.42        21.54496
507.86        21.74162
508.30        21.88057
508.74        21.93517
509.18        21.93461
509.62        21.91364
510.06        21.92766
510.50        21.99288
510.94         22.0871
511.38        22.19259
511.82        22.28399
512.26         22.3522
512.70        22.40854
513.14        22.45603
513.58        22.49719
514.02        22.53437
514.46        22.56343
514.90        22.59017
515.34        22.62617
515.78        22.67168
516.22        22.72267
516.66        22.76638
517.10        22.78166
517.54        22.76464
517.98        22.72331
518.42        22.66942
518.86        22.62235
519.30        22.58827
519.74        22.56108
520.18        22.53944
520.62        22.51965
521.06        22.50069
521.50        22.48869
521.93        22.47758
522.37        22.44825
522.81          22.403
523.25        22.34403
523.69        22.29382
524.13        22.28862
524.57        22.32984
525.01        22.40053
525.45        22.46492
525.89        22.46571
526.32        22.38811
526.76        22.25913
527.20        22.10475
527.64        21.96793
528.08         21.8649
528.52        21.78428
528.96        21.72835
529.40         21.6994
529.83        21.69259
530.27           21.71
530.71        21.73002
531.15        21.71843
531.59        21.66812
532.03        21.58524
532.46        21.48966
532.90        21.43068
533.34        21.41427
533.78        21.41508
534.22        21.41226
534.66         21.3994
535.09         21.3555
535.53        21.24491
535.97        21.09757
536.41        21.01481
536.85        21.00955
537.28        21.03111
537.72        21.07113
538.16        21.13141
538.60        21.20211
539.04        21.28423
539.47        21.35205
539.91        21.37934
540.35        21.36125
540.79        21.30893
541.22        21.25997
541.66        21.28307
542.10        21.38845
542.54        21.55472
542.97         21.7404
543.41        21.88806
543.85        21.97971
544.29        22.03828
544.72        22.08223
545.16        22.15493
545.60         22.2654
546.04        22.40325
546.47        22.56796
546.91         22.7557
547.35        22.95543
547.79        23.16399
548.22        23.36652
548.66        23.53449
549.10        23.69154
549.53        23.83681
549.97        23.97085
550.41        24.04212
550.84        24.08085
551.28        24.15425
551.72        24.26924
552.15        24.45477
552.59        24.74087
553.03         24.7537
553.46         25.1919
553.90        25.33704
554.34        25.39234
554.77        25.38649
555.21        25.38596
555.65        25.45112
556.08        25.58434
556.52        25.84536
556.96        25.99975
557.39        26.17046
557.83         26.2675
558.27        26.17214
558.70        25.95726
559.14        25.89596
559.57         26.0022
560.01         26.1228
560.45        26.22182
560.88        26.32689
561.32          26.438
561.75         26.5203
562.19        26.59767
562.63        26.69779
563.06        26.81988
563.50        26.96077
563.93        27.07175
564.37        27.14395
564.80        27.18373
565.24        27.13892
565.68         26.9936
566.11         27.3048
566.55        27.10546
566.98        27.19715
567.42         27.3164
567.85        27.47427
568.29        27.66972
568.72        27.92216
569.16        28.24912
569.60        28.43923
570.03        28.57456
570.47        28.78351
570.90         29.1335
571.34        28.78725
571.77        29.27837
572.21        29.38559
572.64         29.4991
573.08        29.66974
573.51        29.66811
573.95        29.77222
574.38        29.91917
574.82        30.25927
