SpectraSmart Spectrum 2.9.0.0
--------- Device Information -----------
Spectrum Name :  反射率_0
Saving Time :  2024/04/26 22:11:19
Spectro-Module Model Name : SE2030-DUVN
Spectro-Module Serial Number : OS361AC55029948
Wavelength Start : 200
Wavelength End : 1025
Wavelength Unit : Wavelength(nm)
Spectrum Unit : Reflectance(%)
-----------Spectrum Setting ------------
Integration Time : 20ms
Average : 10
Boxcar : 0
Background removal :  enabled
linearity correction :  enabled
SC :  disabled
Intensity correction :  disabled
DWT denoise :  enabled
savitzky-golay :  disabled
FFT :  disabled
Running average :  disabled
Kalman :  disabled
High pass :  disabled
---------------BEGIN--------------------
Wavelength(nm)             Reflectance(%)
200.29               0
200.75         33.6866
201.21        32.19894
201.67        30.78798
202.13        30.33342
202.58        30.84997
203.04         32.6562
203.50        35.30125
203.96        36.82853
204.42        36.03176
204.88        33.00528
205.34        29.81129
205.80        30.41043
206.26        34.92415
206.72        40.80538
207.18        45.50036
207.64        47.10905
208.10        45.55844
208.55        41.48561
209.01         33.6472
209.47        24.60279
209.93        19.48259
210.39        18.28893
210.85         19.1116
211.31        20.51914
211.77        22.69572
212.23         27.6754
212.69         41.6702
213.14        73.07072
213.60        84.95352
214.06        72.75575
214.52        60.75031
214.98        54.04155
215.44         49.9038
215.90        45.80289
216.36        42.39916
216.81        41.15874
217.27         42.8453
217.73        48.49051
218.19        56.87198
218.65        59.34321
219.11        53.40472
219.57        45.08291
220.02        39.76067
220.48        40.21454
220.94         45.9635
221.40         57.2933
221.86         74.2635
222.32        86.96247
222.77        85.32583
223.23        75.80681
223.69        64.80789
224.15        55.94093
224.61         49.4817
225.06        44.28511
225.52         41.2141
225.98        41.10689
226.44        43.56411
226.90        48.04927
227.36        53.12092
227.81        56.08376
228.27        56.35357
228.73        54.70135
229.19        52.59882
229.65        51.80552
230.10        52.48496
230.56        54.09768
231.02        55.60553
231.48        55.44474
231.93        53.46641
232.39        50.74154
232.85         48.3453
233.31        47.66135
233.77         48.7654
234.22        51.07297
234.68         53.7994
235.14        55.85221
235.60        56.83122
236.05        57.08174
236.51        56.61313
236.97        55.57037
237.43        54.18384
237.88        52.50053
238.34        50.92005
238.80        50.33706
239.26        51.08887
239.71        53.54517
240.17        57.53485
240.63        62.30877
241.08        67.15839
241.54        71.50118
242.00        75.39849
242.46        79.80003
242.91        85.98171
243.37        93.65742
243.83        102.8673
244.28        109.8005
244.74        108.0652
245.20        98.38259
245.66        86.72257
246.11        77.06489
246.57        69.79909
247.03        63.56403
247.48        58.10744
247.94        53.94261
248.40        51.71415
248.85        50.93724
249.31        50.72052
249.77         49.8202
250.22        47.74781
250.68        44.16936
251.14        39.81379
251.59         37.8567
252.05        40.26528
252.51        45.87736
252.96        50.61624
253.42        51.05088
253.88        47.92586
254.33        42.87305
254.79        39.70567
255.25         41.6404
255.70        48.20736
256.16        57.86691
256.62        66.48137
257.07        67.78342
257.53        63.21893
257.99        56.78311
258.44         51.6486
258.90        50.51326
259.35        52.25496
259.81        55.62693
260.27        58.97737
260.72        60.30218
261.18         59.6904
261.63        57.84917
262.09         56.0177
262.55        54.97647
263.00        54.66091
263.46        54.83072
263.91        54.81984
264.37        54.12122
264.83        52.71407
265.28        50.89122
265.74        49.30247
266.19        48.43647
266.65        48.39207
267.11         48.8433
267.56        49.40305
268.02        49.46369
268.47        48.87275
268.93        47.89149
269.38         46.7043
269.84        45.65452
270.30        44.83428
270.75        44.09275
271.21        43.51574
271.66        43.18286
272.12        43.06566
272.57        43.12795
273.03        43.08606
273.48        42.46038
273.94        41.25851
274.39        39.63474
274.85        38.04889
275.31        36.99477
275.76        36.52568
276.22        36.49239
276.67        36.58643
277.13         36.4651
277.58        35.98679
278.04        35.29909
278.49        34.49008
278.95        33.80874
279.40        33.25729
279.86        32.82988
280.31        32.37244
280.77         31.7864
281.22         31.0379
281.68        30.26447
282.13        29.57465
282.59        29.19827
283.04        29.11586
283.50         29.2465
283.95        29.44466
284.41        29.49716
284.86        29.33578
285.32        29.05904
285.77        28.69786
286.22        28.35972
286.68        28.07942
287.13        27.78643
287.59        27.53413
288.04        27.36229
288.50        27.29111
288.95         27.2888
289.41        27.28003
289.86        27.07888
290.32        26.70477
290.77        26.20759
291.22        25.74488
291.68        25.53786
292.13        25.61779
292.59        25.92628
293.04        26.34486
293.50        26.70552
293.95        26.94878
294.40        27.13152
294.86        27.31172
295.31        27.57269
295.77         27.9412
296.22         28.3638
296.68        28.81822
297.13        29.26203
297.58        29.68625
298.04        30.11403
298.49        30.53003
298.95        30.92327
299.40        31.28661
299.85        31.61859
300.31        31.95595
300.76        32.34803
301.21        32.79784
301.67        33.29615
302.12        33.75774
302.58        34.11057
303.03        34.31614
303.48        34.42332
303.94         34.5033
304.39        34.62926
304.84        34.83045
305.30          35.087
305.75        35.33749
306.20        35.54235
306.66        35.69607
307.11         35.8039
307.57        35.88395
308.02        35.91373
308.47        35.90762
308.93        35.87195
309.38        35.82587
309.83        35.84995
310.29        35.95153
310.74        36.10236
311.19        36.23081
311.65        36.21303
312.10          36.023
312.55        35.70568
313.00        35.35536
313.46        35.11209
313.91        34.99422
314.36        34.96501
314.82        34.95463
315.27        34.86082
315.72        34.65113
316.18        34.37146
316.63        34.05598
317.08        33.76941
317.53        33.53173
317.99        33.31917
318.44        33.12278
318.89        32.91962
319.35        32.70407
319.80        32.48563
320.25        32.27634
320.70        32.09248
321.16         31.9321
321.61        31.79544
322.06        31.65428
322.51        31.46911
322.97         31.2262
323.42        30.93777
323.87        30.64164
324.32        30.40564
324.78        30.23269
325.23        30.12279
325.68        30.00177
326.13        29.75464
326.59         29.3644
327.04        28.88665
327.49        28.41469
327.94        28.09497
328.39        27.95307
328.85        27.92439
329.30        27.95693
329.75        27.90215
330.20        27.71341
330.66        27.43581
331.11        27.10877
331.56        26.77224
332.01        26.44909
332.46        26.11423
332.92        25.79952
333.37        25.60918
333.82        25.54441
334.27        25.59263
334.72        25.65948
335.17        25.57743
335.63        25.30948
336.08        24.92139
336.53        24.51637
336.98        24.28005
337.43         24.2619
337.88        24.39316
338.34         24.6048
338.79        24.80267
339.24        24.92632
339.69        25.00715
340.14        25.00309
340.59        24.85051
341.05        24.56404
341.50        24.15899
341.95        23.75277
342.40        23.52954
342.85        23.52744
343.30        23.70029
343.75        23.93456
344.20        24.03657
344.66        23.95725
345.11        23.75109
345.56        23.50899
346.01        23.37696
346.46        23.39382
346.91        23.50973
347.36        23.65442
347.81        23.72567
348.26        23.69679
348.72        23.60327
349.17        23.49652
349.62        23.46598
350.07        23.52993
350.52        23.65713
350.97        23.78004
351.42         23.7944
351.87        23.67965
352.32        23.47359
352.77        23.25057
353.22        23.11834
353.67        23.09716
354.13        23.15096
354.58        23.21693
355.03        23.19534
355.48        23.06269
355.93        22.86173
356.38        22.64161
356.83        22.47111
357.28        22.36957
357.73        22.31007
358.18        22.27905
358.63        22.25942
359.08        22.23431
359.53        22.20077
359.98        22.14242
360.43        22.03085
360.88        21.86287
361.33        21.65411
361.78        21.40998
362.23        21.14404
362.68        20.87545
363.13        20.60913
363.58        20.38999
364.03        20.28249
364.48        20.29022
364.93        20.39043
365.38        20.51358
365.83         20.5439
366.28        20.45167
366.73        20.26883
367.18        20.04947
367.63        19.88344
368.08        19.79546
368.53        19.75496
368.98        19.73615
369.43         19.6989
369.88        19.62798
370.33        19.53933
370.78        19.43524
371.23        19.31645
371.68        19.18862
372.13        19.05206
372.58        18.91738
373.03        18.80301
373.48        18.71319
373.93        18.64274
374.38        18.58653
374.83        18.53569
375.28        18.48226
375.72        18.41871
376.17        18.34945
376.62        18.25737
377.07        18.14467
377.52        18.02357
377.97        17.89812
378.42        17.77945
378.87        17.67319
379.32        17.56803
379.77        17.49206
380.22        17.48504
380.67        17.54469
381.11        17.66903
381.56        17.76644
382.01        17.69924
382.46        17.45205
382.91        17.08224
383.36        16.72362
383.81        16.56332
384.26        16.62842
384.71        16.85638
385.15        17.13543
385.60        17.27842
386.05         17.2308
386.50         17.0572
386.95        16.82993
387.40        16.66209
387.85        16.58718
388.29        16.54969
388.74        16.55108
389.19        16.56029
389.64        16.56262
390.09        16.56812
390.54        16.55276
390.98         16.4693
391.43        16.32614
391.88        16.13864
392.33        15.94785
392.78         15.8129
393.23        15.74496
393.67        15.71965
394.12        15.72492
394.57        15.71023
395.02        15.66214
395.47        15.58667
395.91        15.50611
396.36        15.44875
396.81        15.43109
397.26         15.4441
397.71        15.45337
398.15        15.41941
398.60        15.35687
399.05        15.21854
399.50        15.06234
399.95        15.08051
400.39         15.2341
400.84        15.23269
401.29        15.06817
401.74        14.96653
402.18        14.93434
402.63        14.82739
403.08        14.67852
403.53        14.60478
403.97        14.61712
404.42        14.68313
404.87         14.7552
405.32        14.75556
405.76        14.66571
406.21        14.51918
406.66        14.36661
407.11        14.28773
407.55        14.30415
408.00        14.38323
408.45        14.48086
408.90          14.512
409.34        14.45143
409.79        14.33183
410.24        14.19486
410.68        14.09292
411.13        14.04309
411.58        14.02506
412.03        14.02165
412.47        14.00669
412.92        13.96885
413.37          13.928
413.81         13.8887
414.26        13.86658
414.71        13.85948
415.15         13.8599
415.60        13.86978
416.05        13.90536
416.49        13.96579
416.94        14.04531
417.39        14.11022
417.83        14.10791
418.28         14.0299
418.73        13.88806
419.17        13.73723
419.62        13.66819
420.07        13.69826
420.51        13.79418
420.96        13.89359
421.41        13.89638
421.85        13.78011
422.30        13.58206
422.74        13.35332
423.19         13.2257
423.64        13.19819
424.08         13.1664
424.53        13.11612
424.98        13.12826
425.42        13.20367
425.87        13.25806
426.31        13.28545
426.76        13.37311
427.21         13.4766
427.65        13.40614
428.10        13.21042
428.54        13.10885
428.99        13.12555
429.44        13.19551
429.88         13.2687
430.33         13.2159
430.77        13.07148
431.22         13.0878
431.66        13.24856
432.11         13.2956
432.56        13.22363
433.00        13.21838
433.45        13.23253
433.89        13.09545
434.34        12.90991
434.78        12.60599
435.23        12.89404
435.67        12.93921
436.12        12.91714
436.57        12.86734
437.01         12.8011
437.46        12.74306
437.90        12.69362
438.35         12.6117
438.79        12.51901
439.24         12.4906
439.68        12.53169
440.13        12.61639
440.57        12.71142
441.02        12.77268
441.46        12.78317
441.91        12.72635
442.35        12.62418
442.80        12.63001
443.24         12.6975
443.69        12.60477
444.13        12.39404
444.58        12.33021
445.02        12.42393
445.47        12.53962
445.91         12.6339
446.36        12.69908
446.80        12.71644
447.24        12.68945
447.69        12.63747
448.13        12.58671
448.58        12.55104
449.02        12.52202
449.47        12.50182
449.91        12.48759
450.36         12.4819
450.80        12.48682
451.25        12.50215
451.69        12.51812
452.13        12.53242
452.58        12.54078
453.02        12.54515
453.47         12.5526
453.91        12.56213
454.36        12.57261
454.80        12.56681
455.24         12.5167
455.69        12.42587
456.13        12.29966
456.58        12.18183
457.02        12.11592
457.46        12.11625
457.91        12.16734
458.35        12.22932
458.79        12.23974
459.24        12.19692
459.68        12.11477
460.13        12.04031
460.57        12.01181
461.01        12.04829
461.46        12.12064
461.90        12.21735
462.34        12.30843
462.79         12.3754
463.23        12.43119
463.68         12.4543
464.12        12.41906
464.56        12.32671
465.01        12.20517
465.45        12.07817
465.89        12.01116
466.34        12.01294
466.78        12.06525
467.22        12.14432
467.67        12.19438
468.11         12.2052
468.55        12.18629
468.99        12.15949
469.44        12.15894
469.88        12.19331
470.32        12.24826
470.77        12.30633
471.21         12.3441
471.65        12.35403
472.10        12.34884
472.54        12.33649
472.98        12.33386
473.42        12.34609
473.87        12.37004
474.31         12.3972
474.75        12.42756
475.20        12.46181
475.64        12.49608
476.08        12.52835
476.52        12.54792
476.97        12.55402
477.41        12.55543
477.85        12.56405
478.29        12.58089
478.74        12.61916
479.18        12.70651
479.62        12.81889
480.06        12.89694
480.50        12.93349
480.95        12.93605
481.39        12.91228
481.83        13.00068
482.27        13.01479
482.72        13.10171
483.16        13.19588
483.60        13.25003
484.04        13.24801
484.48        13.31442
484.93        13.48271
485.37        13.42377
485.81        13.55058
486.25        13.93037
486.69         13.4358
487.14        13.78834
487.58        14.65326
488.02        14.49486
488.46         14.2027
488.90        14.21071
489.34        14.07312
489.79        14.24835
490.23        14.41867
490.67        14.64143
491.11        14.82911
491.55        14.84485
491.99        14.74662
492.43        14.76923
492.88        14.93528
493.32           15.09
493.76        15.20929
494.20        15.34248
494.64        15.48794
495.08        15.60226
495.52        15.68674
495.96        15.84336
496.41        16.04275
496.85        16.05458
497.29        15.92604
497.73        16.09314
498.17        16.32617
498.61        16.52126
499.05        16.58451
499.49        16.67165
499.93        16.74843
500.37        16.89964
500.82        17.09498
501.26        17.23899
501.70         17.3207
502.14        17.40551
502.58        17.50119
503.02        17.58482
503.46        17.65869
503.90          17.731
504.34         17.8012
504.78        17.86661
505.22        17.92807
505.66        17.98782
506.10         18.0487
506.54        18.11578
506.98         18.1899
507.42        18.26718
507.86        18.34795
508.30        18.43303
508.74        18.51905
509.18        18.60332
509.62        18.67454
510.06        18.71596
510.50         18.7258
510.94        18.71085
511.38        18.68701
511.82        18.67898
512.26        18.69565
512.70        18.73387
513.14        18.78505
513.58        18.83375
514.02        18.87446
514.46        18.90867
514.90        18.94424
515.34         18.9944
515.78        19.05798
516.22        19.12637
516.66        19.18004
517.10        19.18925
517.54        19.15092
517.98        19.08007
518.42        18.99837
518.86        18.94013
519.30        18.91641
519.74        18.91594
520.18        18.93684
520.62        18.97444
521.06        19.02263
521.50        19.08392
521.93        19.13728
522.37         19.1409
522.81        19.09091
523.25        18.99535
523.69        18.89058
524.13        18.83543
524.57        18.83974
525.01        18.88428
525.45        18.93003
525.89        18.91273
526.32        18.81751
526.76         18.6754
527.20         18.5183
527.64        18.39621
528.08        18.32479
528.52        18.28684
528.96        18.27515
529.40        18.27916
529.83        18.28934
530.27        18.30859
530.71        18.32011
531.15        18.29776
531.59         18.2378
532.03        18.14695
532.46        18.04187
532.90        17.96372
533.34        17.92084
533.78        17.89551
534.22        17.87904
534.66        17.87864
535.09        17.87626
535.53        17.83371
535.97        17.76537
536.41        17.73971
536.85        17.76298
537.28        17.79986
537.72        17.83918
538.16         17.8773
538.60        17.90894
539.04        17.93491
539.47        17.95951
539.91         18.0006
540.35         18.0584
540.79        18.13144
541.22        18.20879
541.66        18.27958
542.10        18.33967
542.54        18.39311
542.97        18.45383
543.41        18.55111
543.85        18.68589
544.29        18.84953
544.72        19.01483
545.16        19.15425
545.60        19.25856
546.04        19.34079
546.47        19.42558
546.91        19.54886
547.35        19.71567
547.79         19.9119
548.22        20.11349
548.66        20.28083
549.10         20.4288
549.53         20.5599
549.97        20.68502
550.41        20.77363
550.84        20.85238
551.28        20.97483
551.72        21.12187
552.15        21.28077
552.59        21.47318
553.03        21.38801
553.46        21.67039
553.90        21.76265
554.34        21.85358
554.77        21.94236
555.21        22.03994
555.65        22.14536
556.08         22.2488
556.52        22.33771
556.96        22.40504
557.39        22.50092
557.83        22.60892
558.27        22.60326
558.70        22.51156
559.14        22.51545
559.57        22.61077
560.01        22.67579
560.45        22.71235
560.88        22.80218
561.32        22.94986
561.75         23.0909
562.19        23.20808
562.63        23.28627
563.06        23.31717
563.50        23.30583
563.93        23.26789
564.37        23.29327
564.80        23.40444
565.24          23.521
565.68        23.56915
566.11        23.94995
566.55        23.79452
566.98        23.82538
567.42        23.85355
567.85        23.97152
568.29        24.18913
568.72         24.4593
569.16        24.76516
569.60        24.96901
570.03        25.14339
570.47        25.27481
570.90        25.42284
571.34        25.39788
571.77        25.65653
572.21        25.87283
572.64        26.04426
573.08         26.1893
573.51        26.19765
573.95        26.16277
574.38        26.10886
574.82        26.66654
