SpectraSmart Spectrum 2.9.0.0
--------- Device Information -----------
Spectrum Name :  反射率_0
Saving Time :  2024/04/26 22:06:35
Spectro-Module Model Name : SE2030-DUVN
Spectro-Module Serial Number : OS361AC55029948
Wavelength Start : 200
Wavelength End : 1025
Wavelength Unit : Wavelength(nm)
Spectrum Unit : Reflectance(%)
-----------Spectrum Setting ------------
Integration Time : 20ms
Average : 10
Boxcar : 0
Background removal :  enabled
linearity correction :  enabled
SC :  disabled
Intensity correction :  disabled
DWT denoise :  enabled
savitzky-golay :  disabled
FFT :  disabled
Running average :  disabled
Kalman :  disabled
High pass :  disabled
---------------BEGIN--------------------
Wavelength(nm)             Reflectance(%)
200.29               0
200.75        62.54388
201.21        57.57414
201.67        52.87823
202.13         49.6688
202.58        47.74267
203.04        46.61973
203.50        46.75299
203.96        49.06901
204.42        53.92252
204.88        61.56901
205.34        68.85935
205.80        70.46038
206.26        65.72241
206.72        56.67564
207.18        48.44623
207.64        45.40984
208.10        47.82241
208.55        56.28395
209.01        68.22763
209.47        71.13963
209.93        61.05735
210.39        47.23925
210.85        38.08592
211.31        37.49813
211.77        46.39161
212.23        71.66204
212.69        137.3753
213.14        244.7014
213.60        234.9107
214.06        154.9472
214.52        103.4511
214.98        83.32012
215.44        78.45117
215.90        79.18953
216.36        82.60681
216.81        85.51811
217.27        87.11062
217.73        90.56258
218.19        95.17133
218.65        95.12101
219.11        90.26124
219.57        83.85439
220.02        81.38445
220.48        87.74232
220.94        103.4806
221.40        131.2702
221.86        170.7277
222.32        197.0542
222.77        187.9506
223.23        159.9149
223.69        131.3102
224.15        112.4331
224.61        102.0091
225.06        95.56026
225.52        92.47246
225.98        91.74319
226.44        92.74336
226.90        95.72025
227.36        99.41279
227.81        101.3904
228.27        101.3039
228.73          99.522
229.19        97.87204
229.65        98.68187
230.10        101.9572
230.56        106.9947
231.02        111.5795
231.48        112.2777
231.93        108.7128
232.39        102.9274
232.85        97.35999
233.31        95.16345
233.77        96.58063
234.22        100.3811
234.68        104.8958
235.14        107.5439
235.60        107.4796
236.05        105.5296
236.51        102.1054
236.97        98.54514
237.43        95.66821
237.88        93.23089
238.34        91.39708
238.80        90.70632
239.26        91.27253
239.71        93.86993
240.17        97.81302
240.63        101.5068
241.08        103.9372
241.54        104.2367
242.00        103.8199
242.46        106.1023
242.91        113.7621
243.37        127.6376
243.83        148.4056
244.28        166.9967
244.74        168.5348
245.20        152.4352
245.66        131.4235
246.11        116.8026
246.57          109.26
247.03         105.423
247.48        101.5387
247.94         93.2422
248.40        82.99081
248.85        74.17239
249.31        68.43357
249.77        65.66712
250.22        64.98942
250.68        65.65405
251.14         67.8521
251.59        71.36089
252.05        75.37371
252.51        79.81671
252.96        82.17524
253.42        81.05611
253.88        77.33001
254.33        71.76366
254.79        68.40315
255.25        70.51266
255.70        77.51794
256.16        88.09895
256.62        97.43193
257.07        98.23134
257.53        92.47441
257.99        84.71043
258.44        78.74945
258.90        78.03022
259.35        80.99268
259.81        86.09062
260.27        91.00661
260.72        92.88417
261.18        91.95161
261.63        89.23622
262.09        86.57188
262.55         85.1058
263.00        84.74049
263.46        85.13558
263.91        85.36864
264.37        84.81702
264.83         83.3889
265.28        81.43614
265.74        79.75185
266.19        78.83451
266.65        78.84066
267.11        79.38125
267.56        80.03378
268.02        80.16854
268.47         79.5948
268.93        78.58014
269.38        77.30064
269.84         76.1225
270.30        75.13567
270.75        74.19812
271.21        73.36687
271.66        72.64119
272.12        72.00269
272.57        71.41131
273.03         70.7405
273.48        69.73513
273.94        68.45158
274.39        66.93967
274.85        65.44698
275.31        64.09035
275.76        62.88194
276.22        61.85888
276.67        60.95114
277.13        60.23805
277.58        59.60387
278.04        59.05722
278.49        58.44954
278.95        57.75097
279.40        56.86967
279.86        55.95383
280.31        54.91336
280.77        53.81241
281.22        52.62762
281.68        51.47818
282.13        50.44868
282.59         49.8102
283.04        49.50943
283.50        49.49104
283.95        49.53606
284.41        49.33998
284.86        48.81504
285.32        48.09464
285.77        47.30312
286.22        46.71755
286.68        46.38419
287.13        46.16311
287.59        45.95962
288.04        45.55936
288.50        44.97009
288.95        44.24557
289.41        43.51646
289.86        42.85909
290.32         42.3553
290.77        41.94028
291.22        41.62907
291.68        41.42223
292.13        41.28857
292.59        41.25318
293.04        41.27919
293.50        41.33733
293.95        41.40641
294.40        41.49461
294.86        41.62673
295.31        41.83201
295.77        42.12498
296.22        42.47678
296.68        42.87081
297.13        43.25644
297.58        43.62854
298.04        44.00061
298.49        44.37716
298.95        44.79168
299.40        45.23383
299.85        45.68871
300.31        46.14328
300.76        46.55803
301.21        46.92912
301.67        47.28431
302.12        47.59423
302.58          47.892
303.03        48.15097
303.48        48.38939
303.94         48.6382
304.39        48.89271
304.84        49.16574
305.30        49.45798
305.75        49.71505
306.20        49.92494
306.66        50.09373
307.11        50.20984
307.57        50.28669
308.02        50.27656
308.47         50.1983
308.93        50.07091
309.38        49.93405
309.83        49.91273
310.29        50.02222
310.74        50.22217
311.19        50.40298
311.65        50.37812
312.10        50.10617
312.55        49.64842
313.00        49.15421
313.46        48.84536
313.91        48.75149
314.36        48.81876
314.82        48.90951
315.27        48.81491
315.72        48.48183
316.18         47.9963
316.63        47.47758
317.08        47.12788
317.53        46.99132
317.99        46.99228
318.44        47.03421
318.89        46.94905
319.35        46.68936
319.80        46.31079
320.25        45.88439
320.70        45.52185
321.16        45.25344
321.61        45.05626
322.06        44.88239
322.51        44.66197
322.97        44.37063
323.42        44.04035
323.87        43.71834
324.32        43.48393
324.78        43.33589
325.23        43.27049
325.68        43.19555
326.13        42.97402
326.59        42.58113
327.04        42.08204
327.49        41.57627
327.94        41.22427
328.39         41.0596
328.85        41.01182
329.30        41.04631
329.75        41.01608
330.20        40.87207
330.66          40.647
331.11        40.38626
331.56        40.12944
332.01        39.89399
332.46        39.65381
332.92        39.39463
333.37        39.16414
333.82        38.95215
334.27        38.77376
334.72        38.61342
335.17        38.43317
335.63        38.22585
336.08        38.02344
336.53         37.8635
336.98        37.82287
337.43        37.91012
337.88        38.08358
338.34        38.27903
338.79         38.4308
339.24         38.4893
339.69        38.47722
340.14        38.38136
340.59        38.18792
341.05        37.92743
341.50        37.61093
341.95        37.32327
342.40        37.19324
342.85        37.24192
343.30        37.42471
343.75        37.66225
344.20        37.81966
344.66        37.85399
345.11        37.80063
345.56        37.67505
346.01        37.50736
346.46        37.32745
346.91        37.13598
347.36        36.97493
347.81        36.91441
348.26        36.96085
348.72        37.08722
349.17        37.25085
349.62         37.3941
350.07        37.48963
350.52         37.5549
350.97        37.54789
351.42        37.40907
351.87        37.14487
352.32        36.77674
352.77        36.41838
353.22        36.23634
353.67        36.25824
354.13        36.44352
354.58        36.66388
355.03         36.6977
355.48         36.4922
355.93        36.11347
356.38         35.7051
356.83        35.48557
357.28         35.4919
357.73        35.64076
358.18        35.79594
358.63        35.74009
359.08        35.42408
359.53        34.93824
359.98        34.38872
360.43         33.9245
360.88        33.59136
361.33        33.34147
361.78        33.15412
362.23        33.00085
362.68         32.8626
363.13        32.75081
363.58        32.63895
364.03        32.47752
364.48        32.25573
364.93        31.98171
365.38        31.68305
365.83        31.41403
366.28        31.19588
366.73        31.01876
367.18        30.87328
367.63         30.7422
368.08        30.61429
368.53        30.48894
368.98        30.36596
369.43        30.24226
369.88        30.11484
370.33        29.98561
370.78        29.83186
371.23        29.62203
371.68        29.35691
372.13        29.04612
372.58        28.75077
373.03        28.56631
373.48        28.50577
373.93        28.53824
374.38        28.57867
374.83        28.48889
375.28        28.24226
375.72        27.88394
376.17        27.51055
376.62        27.23299
377.07        27.08387
377.52        27.02643
377.97        27.02578
378.42        27.02962
378.87        27.01009
379.32        26.97062
379.77        26.91653
380.22        26.85292
380.67        26.77684
381.11        26.69369
381.56        26.55307
382.01        26.31124
382.46        25.98578
382.91        25.61799
383.36        25.29814
383.81        25.14398
384.26        25.16391
384.71        25.31063
385.15        25.50505
385.60        25.61201
386.05        25.58646
386.50        25.46935
386.95        25.28496
387.40        25.07689
387.85        24.87445
388.29        24.65448
388.74        24.48189
389.19        24.38851
389.64        24.37239
390.09        24.41807
390.54        24.47996
390.98        24.47206
391.43         24.3888
391.88        24.25427
392.33        24.10048
392.78        23.97448
393.23        23.88951
393.67        23.81821
394.12        23.77974
394.57         23.7566
395.02        23.74183
395.47        23.73294
395.91        23.72642
396.36        23.70124
396.81        23.66675
397.26        23.63134
397.71        23.58952
398.15        23.54933
398.60        23.54147
399.05        23.46557
399.50        23.36296
399.95         23.4675
400.39        23.70545
400.84        23.64392
401.29        23.30963
401.74        23.11685
402.18        23.09594
402.63        23.00814
403.08        22.86613
403.53        22.79087
403.97        22.78739
404.42        22.82619
404.87        22.88066
405.32        22.90489
405.76         22.8805
406.21        22.82604
406.66        22.76368
407.11         22.7329
407.55        22.74831
408.00        22.78897
408.45        22.82272
408.90        22.78461
409.34         22.6635
409.79        22.49049
410.24        22.32462
410.68         22.2401
411.13        22.25628
411.58        22.34895
412.03          22.466
412.47        22.51658
412.92        22.46754
413.37        22.35623
413.81        22.22895
414.26        22.17326
414.71        22.19821
415.15        22.28192
415.60         22.3821
416.05        22.44681
416.49        22.45951
416.94        22.43907
417.39        22.40162
417.83        22.36832
418.28        22.34672
418.73        22.32048
419.17         22.3061
419.62        22.33288
420.07        22.40007
420.51        22.49576
420.96        22.57377
421.41        22.55587
421.85        22.42758
422.30        22.21206
422.74         21.9715
423.19        21.89481
423.64        21.96811
424.08        22.02591
424.53        22.02819
424.98        22.07682
425.42        22.16812
425.87        22.16976
426.31        22.10177
426.76        22.15651
427.21        22.27949
427.65        22.15313
428.10         21.8506
428.54        21.72184
428.99        21.79761
429.44        21.95837
429.88        22.12882
430.33        22.12385
430.77        21.98849
431.22        22.09781
431.66        22.40476
432.11         22.5105
432.56        22.40933
433.00         22.3203
433.45        22.20807
433.89        22.08394
434.34        22.04353
434.78        21.51483
435.23        21.76545
435.67         21.7945
436.12        21.91382
436.57        21.95319
437.01        21.90276
437.46        21.86383
437.90        21.82537
438.35        21.69952
438.79        21.53469
439.24         21.4802
439.68        21.55215
440.13        21.70912
440.57        21.88858
441.02        22.00365
441.46        22.02286
441.91        21.92023
442.35        21.74977
442.80        21.80042
443.24        21.99268
443.69        21.93333
444.13        21.65668
444.58         21.5611
445.02        21.65836
445.47        21.73448
445.91        21.76448
446.36        21.81283
446.80        21.86565
447.24         21.9047
447.69        21.92886
448.13        21.92949
448.58        21.91148
449.02        21.87422
449.47        21.83119
449.91        21.79166
450.36        21.76636
450.80        21.75025
451.25        21.74436
451.69        21.73311
452.13        21.71722
452.58        21.69796
453.02        21.68077
453.47        21.67711
453.91        21.68853
454.36        21.71449
454.80        21.73684
455.24        21.72655
455.69        21.68559
456.13         21.6079
456.58         21.5402
457.02        21.51944
457.46        21.55979
457.91        21.64538
458.35         21.7189
458.79        21.69723
459.24        21.58643
459.68         21.4071
460.13        21.24006
460.57        21.15206
461.01        21.17534
461.46        21.26716
461.90        21.40531
462.34        21.53544
462.79        21.62613
463.23        21.69776
463.68        21.72445
464.12        21.67852
464.56        21.56179
465.01        21.41513
465.45        21.25437
465.89        21.16026
466.34        21.14421
466.78        21.18057
467.22        21.25785
467.67        21.33196
468.11        21.39644
468.55        21.45157
468.99        21.49004
469.44        21.49824
469.88        21.47824
470.32        21.43055
470.77        21.37414
471.21         21.3463
471.65        21.35414
472.10        21.39113
472.54        21.43922
472.98        21.47536
473.42        21.49165
473.87        21.50185
474.31        21.49689
474.75        21.48318
475.20        21.46931
475.64        21.44561
476.08        21.42601
476.52        21.42146
476.97        21.43393
477.41        21.47096
477.85        21.52839
478.29        21.56586
478.74         21.5956
479.18        21.67733
479.62        21.79009
480.06          21.865
480.50        21.90017
480.95         21.8994
481.39        21.86219
481.83        22.00505
482.27         22.0041
482.72        22.10396
483.16        22.20488
483.60        22.25778
484.04        22.25617
484.48        22.34004
484.93        22.49682
485.37        22.34911
485.81        22.64765
486.25        22.66658
486.69         21.9048
487.14        22.75838
487.58        23.74466
488.02        23.53266
488.46        23.13492
488.90         23.2085
489.34        23.20135
489.79        23.52675
490.23        23.73232
490.67        23.90807
491.11        23.98656
491.55        23.92629
491.99        23.80485
492.43        23.79079
492.88        23.91653
493.32        24.08673
493.76        24.26379
494.20        24.44627
494.64        24.62686
495.08        24.75734
495.52        24.84479
495.96        25.06436
496.41         25.3661
496.85        25.35932
497.29        25.11542
497.73        25.33519
498.17        25.65302
498.61         25.8954
499.05        25.91706
499.49        25.96986
499.93        26.00502
500.37        26.15713
500.82        26.38109
501.26        26.53312
501.70        26.59848
502.14        26.67635
502.58        26.78502
503.02        26.89853
503.46        27.01836
503.90        27.15201
504.34        27.27703
504.78        27.35509
505.22        27.38064
505.66        27.36676
506.10        27.34448
506.54        27.36432
506.98        27.43847
507.42        27.55049
507.86        27.68045
508.30        27.79425
508.74        27.87981
509.18        27.94883
509.62        28.00241
510.06        28.04279
510.50        28.07416
510.94        28.09299
511.38         28.1148
511.82        28.16612
512.26        28.25019
512.70        28.35999
513.14        28.47026
513.58        28.53836
514.02        28.55499
514.46        28.53331
514.90        28.49809
515.34        28.49003
515.78        28.52008
516.22        28.57473
516.66        28.63775
517.10        28.68342
517.54        28.70286
517.98        28.70428
518.42        28.69286
518.86        28.67616
519.30        28.65777
519.74        28.63497
520.18        28.60861
520.62        28.58038
521.06        28.55235
521.50        28.52825
521.93        28.51108
522.37        28.49444
522.81        28.48137
523.25        28.46933
523.69        28.46116
524.13        28.46264
524.57        28.46949
525.01        28.47362
525.45        28.46133
525.89        28.41156
526.32        28.31946
526.76        28.20515
527.20        28.07537
527.64         27.9432
528.08        27.81812
528.52         27.6976
528.96        27.60392
529.40        27.56982
529.83        27.59464
530.27        27.66917
530.71        27.74492
531.15        27.74695
531.59        27.65945
532.03        27.50198
532.46        27.32073
532.90        27.20987
533.34        27.18552
533.78        27.20592
534.22         27.2292
534.66        27.22407
535.09        27.15725
535.53        26.99013
535.97        26.77292
536.41        26.65186
536.85        26.64821
537.28        26.69439
537.72        26.76586
538.16        26.84316
538.60        26.91104
539.04        26.97803
539.47        27.03474
539.91        27.08371
540.35         27.1219
540.79        27.14738
541.22        27.17726
541.66         27.2504
542.10        27.36883
542.54        27.52333
542.97        27.68195
543.41        27.80495
543.85        27.88193
544.29        27.93209
544.72        27.97912
545.16        28.07874
545.60        28.23701
546.04         28.4382
546.47        28.66907
546.91        28.90172
547.35        29.11952
547.79        29.33108
548.22        29.52298
548.66        29.66859
549.10        29.80373
549.53        29.92139
549.97         30.0463
550.41        30.15257
550.84        30.27848
551.28        30.49515
551.72        30.75535
552.15        31.00618
552.59         31.2701
553.03        31.10492
553.46         31.4563
553.90        31.52616
554.34        31.59611
554.77        31.66129
555.21        31.75086
555.65        31.88484
556.08        32.05186
556.52        32.22946
556.96        32.38242
557.39        32.54378
557.83        32.68046
558.27        32.61824
558.70        32.42541
559.14        32.40779
559.57        32.56751
560.01        32.72084
560.45        32.83408
560.88        32.95887
561.32        33.09929
561.75        33.20799
562.19        33.29517
562.63        33.36951
563.06        33.42957
563.50        33.47838
563.93        33.50163
564.37        33.56522
564.80        33.68776
565.24        33.77398
565.68        33.74911
566.11        34.23402
566.55         33.9971
566.98        34.05214
567.42        34.10424
567.85        34.25605
568.29        34.50844
568.72        34.79222
569.16        35.11235
569.60         35.3167
570.03        35.52153
570.47        35.71082
570.90         35.9338
571.34        35.82225
571.77        36.16485
572.21        36.28188
572.64        36.34001
573.08        36.60663
573.51        36.74086
573.95        36.75162
574.38        36.62201
574.82        37.14996
