SpectraSmart Spectrum 2.9.0.0
--------- Device Information -----------
Spectrum Name :  反射率_0
Saving Time :  2024/04/26 22:06:15
Spectro-Module Model Name : SE2030-DUVN
Spectro-Module Serial Number : OS361AC55029948
Wavelength Start : 200
Wavelength End : 1025
Wavelength Unit : Wavelength(nm)
Spectrum Unit : Reflectance(%)
-----------Spectrum Setting ------------
Integration Time : 20ms
Average : 10
Boxcar : 0
Background removal :  enabled
linearity correction :  enabled
SC :  disabled
Intensity correction :  disabled
DWT denoise :  enabled
savitzky-golay :  disabled
FFT :  disabled
Running average :  disabled
Kalman :  disabled
High pass :  disabled
---------------BEGIN--------------------
Wavelength(nm)             Reflectance(%)
200.29               0
200.75        59.46528
201.21        58.92495
201.67        58.76334
202.13        58.20145
202.58         57.0026
203.04        55.51465
203.50        54.66566
203.96         56.6088
204.42        62.50134
204.88        71.97122
205.34        81.46328
205.80        85.00805
206.26        81.52461
206.72        73.24492
207.18        65.10751
207.64        61.27232
208.10        61.81788
208.55        66.65736
209.01        73.38949
209.47        73.19814
209.93        64.42099
210.39        54.53951
210.85        48.22924
211.31        47.01796
211.77        51.07288
212.23        63.35602
212.69        99.40737
213.14        177.4538
213.60        204.9179
214.06        174.1387
214.52        144.1845
214.98        126.1977
215.44        113.6335
215.90        100.3459
216.36        88.63499
216.81        83.58213
217.27        87.13633
217.73        101.7188
218.19         124.211
218.65        132.1102
219.11        117.7064
219.57        96.07449
220.02        81.73578
220.48         81.9472
220.94        95.38925
221.40        123.0256
221.86        163.2011
222.32        187.7652
222.77        173.9782
223.23        141.5294
223.69        111.1898
224.15        94.17204
224.61         87.9393
225.06        86.53933
225.52        87.95648
225.98        90.06888
226.44        92.31264
226.90        95.53248
227.36        98.94025
227.81        100.7716
228.27        100.8339
228.73        99.21857
229.19        97.52183
229.65        97.81525
230.10        100.1059
230.56        103.8668
231.02        107.1344
231.48        106.8776
231.93        102.8502
232.39        96.93938
232.85        91.40276
233.31        89.14201
233.77        90.35581
234.22        93.92597
234.68        98.22765
235.14        100.7546
235.60        100.6985
236.05         98.8158
236.51        95.63364
236.97        92.68581
237.43        90.78718
237.88        89.60542
238.34        88.99907
238.80        89.01986
239.26        89.66649
239.71        91.78293
240.17        94.84828
240.63        97.91793
241.08        100.4215
241.54        101.3196
242.00        102.1726
242.46        106.6954
242.91         117.895
243.37        137.6698
243.83        165.8538
244.28        186.9211
244.74         180.249
245.20        148.2569
245.66        113.2781
246.11         93.4677
246.57        88.43729
247.03        92.16479
247.48        98.33411
247.94        96.82027
248.40        88.22327
248.85        78.59388
249.31        71.09182
249.77        66.37505
250.22        63.53313
250.68        61.07726
251.14        59.40827
251.59        60.33385
252.05        64.31381
252.51        70.48578
252.96        74.90337
253.42        74.55453
253.88        70.30196
254.33        63.67889
254.79        58.78029
255.25        58.83625
255.70        63.35953
256.16        70.91774
256.62        77.64298
257.07        77.84335
257.53        73.04333
257.99        66.79751
258.44        61.93792
258.90        61.02074
259.35        62.84657
259.81        66.30513
260.27        69.67127
260.72        70.85538
261.18        70.04327
261.63        67.95473
262.09        66.01061
262.55        65.11958
263.00        65.16589
263.46        65.84283
263.91        66.32993
264.37        65.98659
264.83        64.75552
265.28        62.99217
265.74        61.43112
266.19        60.60325
266.65        60.65459
267.11        61.23199
267.56        61.96328
268.02         62.2766
268.47        61.99622
268.93        61.35427
269.38        60.48746
269.84        59.68151
270.30        59.00802
270.75        58.34418
271.21        57.75566
271.66          57.279
272.12        56.90758
272.57        56.60881
273.03        56.24208
273.48        55.54268
273.94        54.54263
274.39        53.29155
274.85        52.05398
275.31        51.01101
275.76        50.17921
276.22         49.5606
276.67        49.00877
277.13        48.45366
277.58        47.79429
278.04        47.09157
278.49         46.3466
278.95        45.71395
279.40        45.14126
279.86        44.67868
280.31        44.12971
280.77        43.37174
281.22        42.35841
281.68        41.24747
282.13        40.20243
282.59        39.57015
283.04         39.3259
283.50        39.36933
283.95        39.45611
284.41         39.2312
284.86        38.61213
285.32        37.77154
285.77        36.86082
286.22        36.16475
286.68        35.73968
287.13        35.44353
287.59        35.22263
288.04        34.94354
288.50        34.59525
288.95         34.1978
289.41        33.76353
289.86        33.21852
290.32        32.61369
290.77        31.95133
291.22        31.33829
291.68        30.91907
292.13        30.70483
292.59        30.66866
293.04        30.72943
293.50         30.7822
293.95        30.77788
294.40        30.74197
294.86        30.70669
295.31         30.7141
295.77        30.78337
296.22        30.89082
296.68        31.00747
297.13        31.07409
297.58        31.09451
298.04        31.09871
298.49        31.14883
298.95        31.35541
299.40        31.72583
299.85        32.21914
300.31        32.75238
300.76        33.18883
301.21        33.49198
301.67        33.70457
302.12        33.85357
302.58        34.04325
303.03        34.26901
303.48        34.51639
303.94        34.75526
304.39        34.90947
304.84        34.98116
305.30         35.0097
305.75        35.01495
306.20        35.07825
306.66        35.21898
307.11        35.39084
307.57         35.5594
308.02        35.62679
308.47        35.58475
308.93        35.47063
309.38        35.31288
309.83        35.20168
310.29        35.15675
310.74        35.14687
311.19        35.13175
311.65        35.04189
312.10        34.86054
312.55        34.61803
313.00        34.36872
313.46        34.18718
313.91        34.07922
314.36        34.03191
314.82        34.00016
315.27        33.92283
315.72        33.78069
316.18        33.59937
316.63        33.41291
317.08        33.29019
317.53        33.24105
317.99        33.23384
318.44        33.22407
318.89        33.13077
319.35        32.93476
319.80        32.66281
320.25        32.36078
320.70        32.10079
321.16         31.9051
321.61        31.76984
322.06        31.66124
322.51        31.52647
322.97        31.34607
323.42        31.13371
323.87        30.93846
324.32        30.84441
324.78        30.85111
325.23         30.9487
325.68        31.01625
326.13        30.86188
326.59         30.4517
327.04        29.86489
327.49        29.26351
327.94        28.90176
328.39        28.83792
328.85        28.99041
329.30        29.25541
329.75        29.38077
330.20        29.28248
330.66        29.02459
331.11        28.71193
331.56        28.49179
332.01        28.40994
332.46        28.40936
332.92        28.42228
333.37        28.38704
333.82        28.26555
334.27        28.10137
334.72        27.92994
335.17        27.79787
335.63         27.7225
336.08        27.70055
336.53        27.72716
336.98        27.80862
337.43        27.93319
337.88        28.08492
338.34        28.23322
338.79         28.3552
339.24        28.42472
339.69        28.45175
340.14        28.41268
340.59        28.27768
341.05        28.06748
341.50        27.79793
341.95        27.55826
342.40        27.48158
342.85        27.59031
343.30        27.84188
343.75        28.13953
344.20        28.32108
344.66         28.3413
345.11        28.24185
345.56        28.08168
346.01        27.95997
346.46        27.91236
346.91        27.91132
347.36        27.93508
347.81        27.95397
348.26         27.9572
348.72        27.95738
349.17        27.96534
349.62        28.00657
350.07        28.07989
350.52        28.17261
350.97        28.23901
351.42        28.20989
351.87        28.07855
352.32        27.87526
352.77        27.66455
353.22        27.53971
353.67        27.52004
354.13        27.57634
354.58        27.66345
355.03        27.70646
355.48        27.67855
355.93        27.60037
356.38        27.49241
356.83        27.38589
357.28        27.28755
357.73        27.18008
358.18        27.05487
358.63        26.90379
359.08        26.72949
359.53        26.54716
359.98        26.35949
360.43        26.16275
360.88        25.95961
361.33        25.75129
361.78         25.5592
362.23        25.41882
362.68        25.33488
363.13        25.29512
363.58        25.26185
364.03        25.17574
364.48        25.02109
364.93        24.81078
365.38        24.58107
365.83        24.39429
366.28        24.26856
366.73        24.18882
367.18        24.11834
367.63        23.99895
368.08         23.8186
368.53        23.59652
368.98        23.37608
369.43         23.2235
369.88         23.1527
370.33        23.14338
370.78        23.14546
371.23         23.0774
371.68        22.92017
372.13        22.69925
372.58        22.46901
373.03         22.3166
373.48        22.25878
373.93        22.26006
374.38        22.27119
374.83        22.21536
375.28        22.07248
375.72        21.86953
376.17         21.6438
376.62        21.42014
377.07        21.21793
377.52        21.03438
377.97        20.88927
378.42         20.8184
378.87        20.82071
379.32        20.87274
379.77        20.94885
380.22        21.01012
380.67        21.03865
381.11        21.04879
381.56        20.99693
382.01         20.8411
382.46        20.59143
382.91        20.27528
383.36        19.97595
383.81        19.80527
384.26        19.77786
384.71        19.86357
385.15         19.9871
385.60        20.02125
386.05        19.92994
386.50        19.74945
386.95         19.5443
387.40        19.41536
387.85        19.38509
388.29        19.40591
388.74        19.44534
389.19        19.41585
389.64         19.3017
390.09        19.12516
390.54        18.93853
390.98        18.82168
391.43        18.80305
391.88        18.85105
392.33        18.90075
392.78        18.85985
393.23        18.71849
393.67        18.50621
394.12        18.30669
394.57        18.20386
395.02        18.21357
395.47         18.2974
395.91        18.40924
396.36         18.4605
396.81        18.43509
397.26        18.36618
397.71        18.27211
398.15        18.18956
398.60        18.15417
399.05         18.0784
399.50        17.99248
399.95        18.07652
400.39        18.27239
400.84        18.24714
401.29        18.01926
401.74        17.90338
402.18        17.91797
402.63        17.87506
403.08        17.77701
403.53        17.70909
403.97         17.6757
404.42        17.65983
404.87         17.6485
405.32         17.6176
405.76        17.56066
406.21         17.4935
406.66        17.43959
407.11        17.43846
407.55        17.50018
408.00        17.60181
408.45        17.70757
408.90        17.74535
409.34        17.69466
409.79        17.58231
410.24        17.44942
410.68        17.34904
411.13        17.30006
411.58        17.28537
412.03        17.28767
412.47        17.27904
412.92        17.24577
413.37        17.20663
413.81        17.16934
414.26         17.1577
414.71        17.16984
415.15        17.20077
415.60        17.23773
416.05        17.27566
416.49        17.31039
416.94        17.33994
417.39        17.36012
417.83        17.36419
418.28        17.34965
418.73        17.31304
419.17        17.26778
419.62        17.23643
420.07        17.22531
420.51        17.22974
420.96        17.22935
421.41        17.18782
421.85        17.09659
422.30        16.96324
422.74        16.82352
423.19        16.80535
423.64        16.89132
424.08        16.96002
424.53        16.97183
424.98         16.9921
425.42        17.02048
425.87        16.96238
426.31         16.8568
426.76        16.88935
427.21        17.02461
427.65         17.0037
428.10        16.86394
428.54        16.84161
428.99        16.95008
429.44        17.11838
429.88        17.27021
430.33        17.21885
430.77        17.01129
431.22        16.97981
431.66        17.13025
432.11        17.17971
432.56        17.13229
433.00        17.21769
433.45        17.34358
433.89        17.22223
434.34        16.96862
434.78        16.51934
435.23        16.83381
435.67         16.8591
436.12        16.83767
436.57        16.80457
437.01         16.7733
437.46        16.77453
437.90        16.79818
438.35        16.78629
438.79         16.7417
439.24        16.72682
439.68        16.74404
440.13        16.77352
440.57        16.79618
441.02         16.7946
441.46        16.76356
441.91        16.68718
442.35        16.58856
442.80        16.62631
443.24        16.75146
443.69        16.75204
444.13        16.64171
444.58        16.63652
445.02        16.73769
445.47        16.82288
445.91        16.87445
446.36         16.9276
446.80        16.97251
447.24        16.99919
447.69        17.00513
448.13        16.98065
448.58        16.93237
449.02        16.86467
449.47        16.79681
449.91        16.74927
450.36        16.73311
450.80        16.74027
451.25        16.76534
451.69        16.78744
452.13        16.80186
452.58        16.80937
453.02        16.81163
453.47        16.81447
453.91        16.81862
454.36        16.82443
454.80        16.81935
455.24        16.78391
455.69        16.72289
456.13        16.63321
456.58        16.55712
457.02        16.53031
457.46         16.5652
457.91        16.64803
458.35        16.72786
458.79        16.72786
459.24        16.65014
459.68        16.51274
460.13         16.3855
460.57        16.33099
461.01        16.37514
461.46        16.47769
461.90        16.61377
462.34        16.72751
462.79        16.79064
463.23        16.82597
463.68        16.81408
464.12        16.73631
464.56        16.59971
465.01        16.43678
465.45        16.27443
465.89        16.19365
466.34        16.20344
466.78        16.28007
467.22        16.39167
467.67        16.46288
468.11        16.47954
468.55        16.45416
468.99        16.41295
469.44        16.39759
469.88         16.4206
470.32        16.46416
470.77        16.51267
471.21        16.54706
471.65        16.55818
472.10        16.55609
472.54        16.54313
472.98        16.52743
473.42         16.5133
473.87         16.5054
474.31        16.49277
474.75        16.47527
475.20        16.45819
475.64        16.43685
476.08        16.42727
476.52         16.4444
476.97        16.48882
477.41        16.56167
477.85        16.64693
478.29        16.69341
478.74        16.70668
479.18        16.73994
479.62        16.79045
480.06        16.82718
480.50        16.85489
480.95        16.86857
481.39        16.86086
481.83        16.99117
482.27        17.00347
482.72        17.08362
483.16        17.15788
483.60        17.19285
484.04        17.17822
484.48        17.25343
484.93        17.39912
485.37        17.26761
485.81        17.40234
486.25        17.59252
486.69        16.58299
487.14        17.48697
487.58        18.50372
488.02        18.37246
488.46        17.72817
488.90        17.75477
489.34        17.86744
489.79        18.12514
490.23        18.12955
490.67         18.3018
491.11        18.54097
491.55        18.50219
491.99         18.2685
492.43         18.2244
492.88        18.40679
493.32        18.60555
493.76        18.76747
494.20        18.91188
494.64        19.02898
495.08        19.07963
495.52        19.09574
495.96        19.25375
496.41         19.5238
496.85        19.59164
497.29        19.48577
497.73        19.71061
498.17        19.97274
498.61         20.1496
499.05         20.1363
499.49        20.14273
499.93        20.13879
500.37        20.22435
500.82         20.3714
501.26        20.48105
501.70        20.54283
502.14        20.63063
502.58        20.74663
503.02        20.84934
503.46        20.93526
503.90        21.01756
504.34        21.08669
504.78        21.12706
505.22        21.13979
505.66        21.12926
506.10        21.12216
506.54         21.1623
506.98        21.25657
507.42        21.39006
507.86        21.53304
508.30        21.63481
508.74        21.68225
509.18        21.69352
509.62        21.68488
510.06        21.68419
510.50        21.70219
510.94        21.72657
511.38        21.76657
511.82        21.83728
512.26        21.93629
512.70        22.06169
513.14        22.17831
513.58        22.22765
514.02            22.2
514.46        22.11201
514.90        22.01271
515.34        21.98289
515.78        22.04093
516.22        22.16175
516.66        22.29912
517.10        22.37793
517.54        22.37807
517.98        22.32396
518.42        22.24749
518.86        22.19913
519.30         22.1939
519.74        22.21413
520.18        22.24358
520.62        22.25802
521.06        22.25093
521.50        22.23436
521.93        22.21636
522.37        22.19985
522.81        22.18997
523.25         22.1794
523.69         22.1702
524.13        22.16807
524.57        22.16966
525.01        22.17061
525.45        22.15602
525.89        22.10203
526.32        22.00451
526.76        21.88118
527.20        21.74881
527.64        21.63452
528.08        21.54956
528.52        21.48975
528.96        21.45613
529.40        21.44847
529.83        21.46181
530.27        21.49422
530.71        21.53255
531.15        21.55819
531.59        21.56348
532.03        21.54765
532.46        21.50961
532.90        21.46597
533.34        21.41832
533.78        21.35493
534.22        21.27845
534.66        21.21798
535.09        21.16261
535.53        21.06707
535.97        20.95004
536.41        20.89421
536.85        20.90547
537.28         20.9381
537.72        20.98429
538.16        21.04628
538.60        21.11438
539.04        21.18732
539.47        21.23966
539.91        21.24704
540.35        21.20618
540.79        21.13011
541.22        21.05854
541.66        21.06239
542.10        21.15322
542.54        21.30949
542.97        21.49029
543.41         21.6387
543.85         21.7352
544.29        21.80046
544.72        21.84929
545.16         21.9199
545.60        22.01961
546.04        22.13925
546.47        22.27927
546.91        22.43771
547.35        22.60687
547.79        22.78631
548.22        22.96423
548.66        23.11632
549.10         23.2661
549.53        23.40991
549.97        23.55039
550.41        23.63923
550.84        23.70454
551.28        23.81207
551.72        23.95416
552.15        24.13764
552.59        24.38846
553.03        24.34186
553.46        24.71033
553.90        24.82795
554.34        24.90266
554.77        24.94429
555.21        24.98131
555.65        25.03813
556.08        25.11481
556.52        25.19412
556.96         25.2623
557.39        25.36635
557.83        25.48358
558.27        25.47194
558.70        25.37234
559.14        25.40197
559.57        25.55493
560.01        25.69267
560.45        25.78762
560.88           25.88
561.32        25.97602
561.75        26.03839
562.19        26.08608
562.63        26.14395
563.06        26.21347
563.50        26.29124
563.93        26.35273
564.37        26.42761
564.80        26.52435
565.24        26.57423
565.68        26.52718
566.11        26.88115
566.55        26.67281
566.98         26.7053
567.42         26.7437
567.85        26.84059
568.29         27.0072
568.72        27.24327
569.16        27.54433
569.60        27.72913
570.03        27.88032
570.47          28.041
570.90        28.26069
571.34        28.18094
571.77        28.39236
572.21        28.66737
572.64         28.6686
573.08        28.87016
573.51         29.1183
573.95        29.13174
574.38        29.00941
574.82        29.21129
