SpectraSmart Spectrum 2.9.0.0
--------- Device Information -----------
Spectrum Name :  反射率_0
Saving Time :  2024/04/26 22:12:58
Spectro-Module Model Name : SE2030-DUVN
Spectro-Module Serial Number : OS361AC55029948
Wavelength Start : 200
Wavelength End : 1025
Wavelength Unit : Wavelength(nm)
Spectrum Unit : Reflectance(%)
-----------Spectrum Setting ------------
Integration Time : 20ms
Average : 10
Boxcar : 0
Background removal :  enabled
linearity correction :  enabled
SC :  disabled
Intensity correction :  disabled
DWT denoise :  enabled
savitzky-golay :  disabled
FFT :  disabled
Running average :  disabled
Kalman :  disabled
High pass :  disabled
---------------BEGIN--------------------
Wavelength(nm)             Reflectance(%)
200.29               0
200.75        53.22525
201.21        54.10574
201.67        55.36619
202.13         57.3126
202.58        60.05223
203.04        64.29295
203.50        70.08376
203.96        75.58951
204.42        79.16409
204.88        80.76315
205.34        80.00813
205.80        77.66489
206.26        74.54725
206.72        70.37732
207.18        67.25693
207.64        67.00591
208.10        69.70371
208.55        76.75544
209.01        85.23045
209.47         84.0263
209.93        71.65131
210.39        57.21595
210.85        47.98545
211.31        46.83529
211.77        54.18431
212.23        75.94324
212.69        134.5745
213.14        237.8427
213.60          241.98
214.06        175.9266
214.52        129.2121
214.98        108.1057
215.44        99.21425
215.90        93.52795
216.36        90.46838
216.81        90.78053
217.27        94.93562
217.73        106.2402
218.19        122.2493
218.65        125.9754
219.11        113.3007
219.57        95.82352
220.02        85.16428
220.48        87.86522
220.94        103.3262
221.40        133.4585
221.86        178.0886
222.32        210.0037
222.77        203.5014
223.23        175.9366
223.69        146.9735
224.15        128.0924
224.61        118.1469
225.06        112.0221
225.52        109.4418
225.98        109.7543
226.44        112.2569
226.90        117.1601
227.36        122.5263
227.81        124.6721
228.27        123.2115
228.73         119.127
229.19        115.2046
229.65        114.8357
230.10        118.0253
230.56        123.6205
231.02        128.8982
231.48        129.6355
231.93         125.325
232.39        118.5277
232.85        111.8267
233.31        108.4978
233.77        108.8872
234.22        111.6803
234.68        115.5896
235.14        118.7041
235.60        120.2883
236.05        121.0611
236.51        120.7559
236.97        119.2357
237.43        116.6632
237.88         113.039
238.34        109.1803
238.80        106.9015
239.26        106.8083
239.71         109.553
240.17        114.2784
240.63        118.9153
241.08        122.1473
241.54        123.1959
242.00        123.9518
242.46        128.7725
242.91        141.1995
243.37        162.6664
243.83        193.4915
244.28        218.8244
244.74         216.569
245.20        187.8276
245.66        153.2239
246.11        129.9994
246.57        118.5899
247.03        113.6214
247.48        111.1546
247.94         106.227
248.40        99.52834
248.85        93.77989
249.31        89.88857
249.77        87.01162
250.22        84.33236
250.68        80.83592
251.14        76.97585
251.59        75.32073
252.05        77.46446
252.51        82.77431
252.96        87.29309
253.42        87.90153
253.88        85.21896
254.33        80.54406
254.79        77.96991
255.25        80.81528
255.70        88.44076
256.16        99.21892
256.62        108.5125
257.07        109.3241
257.53        103.6419
257.99        96.01517
258.44         89.7389
258.90        87.86856
259.35        89.04115
259.81        92.11282
260.27        95.48312
260.72        97.26912
261.18         97.5552
261.63        96.64668
262.09        95.72437
262.55        95.24968
263.00        95.10224
263.46        95.30142
263.91        95.10776
264.37         94.1853
264.83        92.51643
265.28        90.35488
265.74        88.53606
266.19        87.58334
266.65        87.64789
267.11        88.32331
267.56        89.12074
268.02        89.28986
268.47        88.61133
268.93        87.40506
269.38        85.87112
269.84        84.43124
270.30        83.19983
270.75        82.01176
271.21        80.99189
271.66        80.23032
272.12        79.71389
272.57        79.37971
273.03        78.97022
273.48        78.00526
273.94          76.527
274.39        74.67197
274.85        72.86578
275.31         71.4577
275.76        70.47587
276.22         69.8453
276.67        69.37341
277.13        68.99565
277.58        68.53197
278.04        68.05309
278.49        67.38435
278.95         66.4771
279.40        65.26708
279.86        63.95436
280.31        62.54224
280.77        61.25578
281.22        60.07839
281.68        59.07691
282.13        58.25528
282.59        57.80191
283.04        57.61208
283.50        57.64485
283.95        57.65505
284.41        57.30756
284.86        56.52648
285.32          55.492
285.77        54.35067
286.22        53.42341
286.68        52.77957
287.13        52.26244
287.59        51.85779
288.04        51.45776
288.50        51.06673
288.95        50.68584
289.41        50.27911
289.86        49.66363
290.32        48.89597
290.77        47.99321
291.22         47.1586
291.68        46.67514
292.13        46.56249
292.59        46.75003
293.04        47.05248
293.50        47.20985
293.95        47.13863
294.40        46.92893
294.86        46.69735
295.31        46.61103
295.77        46.72758
296.22        46.96481
296.68        47.27335
297.13        47.55226
297.58        47.78261
298.04        48.01043
298.49        48.23833
298.95        48.49159
299.40         48.7643
299.85        49.03587
300.31        49.33181
300.76        49.67455
301.21        50.05979
301.67        50.48771
302.12        50.85772
302.58         51.0973
303.03        51.16543
303.48        51.13211
303.94        51.09026
304.39        51.12363
304.84        51.27188
305.30        51.50166
305.75        51.75449
306.20          52.015
306.66        52.27079
307.11        52.50452
307.57        52.67415
308.02        52.64291
308.47        52.42107
308.93        52.05839
309.38        51.66265
309.83        51.46783
310.29        51.51702
310.74        51.74138
311.19        51.99068
311.65        52.00864
312.10        51.73269
312.55        51.24724
313.00        50.72422
313.46        50.41782
313.91        50.36332
314.36        50.48921
314.82        50.63958
315.27        50.58096
315.72        50.25218
316.18        49.74929
316.63        49.20128
317.08        48.82536
317.53        48.67124
317.99        48.65871
318.44         48.6927
318.89        48.60618
319.35        48.35318
319.80        47.99533
320.25        47.59784
320.70        47.26111
321.16        47.01477
321.61         46.8371
322.06        46.69805
322.51         46.5585
322.97        46.39444
323.42         46.2226
323.87        46.05757
324.32        45.92711
324.78        45.81866
325.23        45.75096
325.68        45.65017
326.13        45.41433
326.59         45.0336
327.04        44.55687
327.49        44.10173
327.94        43.85994
328.39        43.86295
328.85        44.03407
329.30        44.27542
329.75          44.315
330.20        44.07557
330.66        43.62927
331.11        43.11821
331.56        42.73743
332.01        42.55129
332.46        42.49538
332.92        42.49657
333.37         42.4982
333.82        42.44265
334.27        42.36724
334.72        42.27584
335.17        42.16321
335.63        42.03391
336.08        41.91011
336.53        41.80804
336.98        41.77742
337.43        41.82992
337.88        41.94181
338.34        42.10301
338.79        42.33871
339.24        42.60908
339.69        42.89429
340.14        43.10714
340.59        43.11465
341.05         42.9117
341.50        42.54859
341.95        42.13412
342.40        41.83534
342.85        41.70361
343.30        41.69191
343.75        41.77564
344.20        41.90864
344.66        42.06212
345.11        42.24616
345.56        42.40039
346.01        42.42984
346.46        42.32516
346.91         42.1111
347.36        41.87266
347.81        41.75316
348.26        41.78249
348.72        41.91709
349.17        42.08473
349.62        42.18457
350.07        42.18576
350.52        42.12791
350.97        42.02392
351.42        41.89524
351.87        41.75994
352.32        41.60818
352.77        41.48093
353.22        41.43807
353.67        41.48592
354.13        41.61473
354.58        41.75567
355.03        41.78697
355.48        41.67758
355.93        41.45057
356.38        41.20333
356.83        41.08784
357.28        41.12342
357.73        41.25552
358.18          41.354
358.63        41.21058
359.08        40.78977
359.53        40.17817
359.98        39.51955
360.43        39.02048
360.88        38.73139
361.33        38.59011
361.78        38.51831
362.23        38.38968
362.68        38.16919
363.13        37.90575
363.58        37.63315
364.03        37.39762
364.48        37.21022
364.93        37.03858
365.38        36.87965
365.83        36.73994
366.28        36.61208
366.73        36.49635
367.18        36.35938
367.63        36.14397
368.08        35.84737
368.53        35.49703
368.98         35.1418
369.43        34.85907
369.88        34.67054
370.33        34.55064
370.78         34.4812
371.23        34.43113
371.68        34.37798
372.13        34.32275
372.58        34.23731
373.03        34.07804
373.48        33.83779
373.93        33.52723
374.38        33.18008
374.83        32.85783
375.28        32.58359
375.72        32.34097
376.17        32.14175
376.62        31.95675
377.07        31.78361
377.52        31.64099
377.97        31.52582
378.42        31.43496
378.87        31.36328
379.32        31.28842
379.77        31.23792
380.22        31.25666
380.67         31.3408
381.11         31.4914
381.56        31.58654
382.01        31.45743
382.46        31.09038
382.91        30.55998
383.36        30.04902
383.81        29.81108
384.26         29.8789
384.71        30.16663
385.15        30.51457
385.60        30.64932
386.05        30.49902
386.50        30.16221
386.95        29.75032
387.40        29.43649
387.85        29.27585
388.29        29.18655
388.74        29.18094
389.19        29.21268
389.64        29.25619
390.09        29.31779
390.54        29.35723
390.98        29.29465
391.43        29.13771
391.88         28.9121
392.33         28.6622
392.78        28.45427
393.23        28.30838
393.67        28.19389
394.12        28.13811
394.57        28.12456
395.02        28.14129
395.47        28.17943
395.91        28.21857
396.36         28.2075
396.81        28.15038
397.26        28.06699
397.71         27.9613
398.15        27.85987
398.60        27.80616
399.05        27.67763
399.50        27.53111
399.95        27.65255
400.39        27.95547
400.84         27.9302
401.29        27.58836
401.74        27.38606
402.18        27.35194
402.63         27.2088
403.08        26.99913
403.53        26.91135
403.97        26.95765
404.42        27.08597
404.87        27.23149
405.32        27.28672
405.76        27.22036
406.21        27.07807
406.66         26.9122
407.11        26.80791
407.55        26.79502
408.00        26.83481
408.45        26.89305
408.90        26.89805
409.34        26.82842
409.79        26.71693
410.24        26.60063
410.68        26.52052
411.13        26.49318
411.58        26.50097
412.03        26.51833
412.47        26.50728
412.92        26.44905
413.37        26.36661
413.81        26.28173
414.26        26.24838
414.71        26.26666
415.15         26.3313
415.60        26.40533
416.05        26.45162
416.49        26.45954
416.94        26.43546
417.39        26.40639
417.83        26.41162
418.28        26.45744
418.73        26.52424
419.17        26.58925
419.62         26.6186
420.07        26.60318
420.51         26.5505
420.96        26.47626
421.41        26.39737
421.85        26.31404
422.30        26.21453
422.74          26.098
423.19        26.07853
423.64        26.11776
424.08        26.05492
424.53        25.90061
424.98        25.87118
425.42         25.9939
425.87        26.08484
426.31         26.1289
426.76        26.29408
427.21        26.49441
427.65        26.36474
428.10        26.00915
428.54        25.86778
428.99        25.98082
429.44        26.20613
429.88        26.42844
430.33        26.36513
430.77        26.08771
431.22        26.11931
431.66        26.42302
432.11        26.52191
432.56        26.41777
433.00        26.36292
433.45        26.31133
433.89        26.29013
434.34        26.36646
434.78        25.77391
435.23        26.03082
435.67        25.99219
436.12        26.05613
436.57        26.03574
437.01         25.9463
437.46        25.91348
437.90         25.9291
438.35        25.91391
438.79        25.86038
439.24        25.82686
439.68        25.81284
440.13        25.80444
440.57        25.80646
441.02        25.82891
441.46        25.86184
441.91        25.89532
442.35        25.90161
442.80        25.95973
443.24          26.025
443.69        25.99239
444.13        25.87518
444.58        25.81618
445.02        25.82212
445.47         25.8245
445.91        25.82292
446.36        25.85587
446.80        25.91507
447.24         25.9896
447.69        26.06314
448.13        26.09945
448.58        26.09611
449.02        26.05764
449.47        26.00321
449.91        25.94957
450.36        25.91497
450.80        25.89398
451.25        25.89133
451.69        25.89552
452.13         25.9074
452.58         25.9202
453.02        25.94528
453.47        26.00421
453.91        26.09265
454.36        26.20434
454.80        26.28364
455.24        26.24377
455.69        26.08496
456.13         25.8261
456.58        25.57392
457.02        25.44737
457.46        25.48056
457.91        25.63221
458.35        25.80788
458.79        25.86457
459.24        25.79226
459.68        25.62909
460.13        25.46992
460.57        25.39375
461.01         25.4412
461.46        25.55603
461.90        25.72508
462.34        25.91029
462.79        26.07755
463.23        26.24343
463.68        26.34971
464.12         26.3176
464.56        26.14116
465.01        25.88754
465.45        25.60696
465.89         25.4363
466.34         25.3973
466.78        25.45004
467.22        25.56256
467.67        25.65022
468.11        25.69883
468.55        25.72111
468.99        25.73223
469.44        25.75309
469.88        25.79201
470.32        25.83167
470.77        25.86787
471.21        25.90372
471.65        25.93498
472.10        25.96677
472.54        25.98874
472.98        25.99126
473.42        25.97514
473.87        25.95427
474.31        25.92576
474.75        25.90936
475.20        25.91615
475.64        25.93167
476.08        25.96244
476.52        26.00397
476.97        26.05303
477.41        26.12213
477.85        26.20748
478.29        26.26401
478.74        26.30745
479.18         26.4066
479.62        26.53952
480.06        26.62768
480.50        26.66971
480.95        26.67514
481.39        26.63431
481.83        26.78726
482.27         26.7358
482.72        26.81194
483.16        26.86642
483.60        26.89855
484.04        26.91089
484.48        27.04747
484.93        27.24964
485.37        27.06171
485.81        27.47392
486.25         27.2617
486.69        26.61994
487.14        27.77609
487.58        28.66914
488.02        28.37189
488.46        27.69855
488.90        28.00997
489.34        28.22557
489.79        28.65748
490.23        28.67789
490.67        28.62855
491.11        28.53928
491.55        28.53499
491.99        28.65199
492.43        28.73214
492.88        28.78471
493.32        28.93597
493.76        29.16599
494.20        29.38223
494.64        29.57372
495.08        29.72799
495.52        29.84796
495.96        30.05391
496.41        30.31103
496.85        30.35075
497.29        30.19804
497.73        30.38268
498.17         30.5053
498.61        30.67692
499.05        30.75818
499.49        30.90213
499.93        31.01639
500.37        31.23838
500.82        31.50501
501.26        31.69997
501.70        31.80081
502.14        31.85993
502.58        31.91634
503.02        32.01145
503.46        32.15575
503.90        32.33312
504.34        32.49768
504.78        32.57565
505.22        32.55264
505.66         32.4571
506.10        32.34209
506.54        32.28973
506.98        32.32321
507.42         32.4196
507.86        32.54898
508.30        32.66031
508.74        32.73682
509.18        32.79603
509.62        32.84814
510.06        32.90889
510.50        32.98314
510.94        33.05896
511.38        33.13778
511.82        33.22514
512.26        33.31955
512.70        33.42185
513.14        33.51604
513.58        33.57535
514.02        33.59543
514.46        33.58195
514.90        33.56096
515.34        33.57579
515.78        33.63357
516.22        33.71929
516.66        33.80074
517.10        33.82542
517.54        33.78325
517.98        33.69617
518.42        33.59165
518.86          33.513
519.30        33.47486
519.74        33.46286
520.18        33.47371
520.62        33.50133
521.06        33.53981
521.50        33.59389
521.93        33.64648
522.37        33.65668
522.81        33.62273
523.25         33.5513
523.69        33.47423
524.13         33.4446
524.57        33.46897
525.01        33.52531
525.45        33.57845
525.89        33.57089
526.32        33.48638
526.76        33.35873
527.20        33.20506
527.64        33.05426
528.08         32.9221
528.52        32.80051
528.96         32.7113
529.40        32.68771
529.83        32.72806
530.27        32.82449
530.71        32.92591
531.15        32.95256
531.59        32.88648
532.03        32.74664
532.46         32.5781
532.90        32.47768
533.34        32.46136
533.78         32.4843
534.22        32.50489
534.66        32.49942
535.09        32.43108
535.53         32.2481
535.97        32.00669
536.41        31.87539
536.85         31.8783
537.28        31.94014
537.72        32.02815
538.16        32.11308
538.60        32.17763
539.04        32.23215
539.47        32.28099
539.91        32.35183
540.35        32.44204
540.79        32.53931
541.22        32.63704
541.66         32.7385
542.10        32.83791
542.54        32.93937
542.97        33.03052
543.41        33.10545
543.85         33.1631
544.29        33.21349
544.72        33.27305
545.16        33.38825
545.60        33.56112
546.04        33.78337
546.47        34.03762
546.91        34.28845
547.35        34.51654
547.79        34.72426
548.22        34.91177
548.66        35.07866
549.10        35.26516
549.53        35.44546
549.97        35.61444
550.41         35.6945
550.84        35.72554
551.28        35.80922
551.72         35.9388
552.15        36.13239
552.59        36.43452
553.03        36.30294
553.46        36.80476
553.90        36.95158
554.34        37.05365
554.77        37.12525
555.21        37.21326
555.65        37.33801
556.08        37.48919
556.52        37.67809
556.96        37.88329
557.39        37.95551
557.83        38.21088
558.27        38.16054
558.70        37.97079
559.14        37.95948
559.57        38.12486
560.01        38.25955
560.45        38.34025
560.88        38.45203
561.32        38.60115
561.75        38.75055
562.19        38.89967
562.63        38.96395
563.06         38.9597
563.50        39.09625
563.93        39.20207
564.37        39.27485
564.80        39.29412
565.24        39.24488
565.68        39.08188
566.11        39.55388
566.55        39.25199
566.98        39.33716
567.42        39.44431
567.85          39.649
568.29        39.94024
568.72        40.25806
569.16        40.61577
569.60        40.81918
570.03        40.98829
570.47        41.18172
570.90        41.48269
571.34        41.21317
571.77        41.45233
572.21        41.91894
572.64        42.00336
573.08        42.24867
573.51        42.09608
573.95        42.09743
574.38         42.3213
574.82        42.41855
