SpectraSmart Spectrum 2.9.0.0
--------- Device Information -----------
Spectrum Name :  反射率_0
Saving Time :  2024/04/26 22:09:18
Spectro-Module Model Name : SE2030-DUVN
Spectro-Module Serial Number : OS361AC55029948
Wavelength Start : 200
Wavelength End : 1025
Wavelength Unit : Wavelength(nm)
Spectrum Unit : Reflectance(%)
-----------Spectrum Setting ------------
Integration Time : 20ms
Average : 10
Boxcar : 0
Background removal :  enabled
linearity correction :  enabled
SC :  disabled
Intensity correction :  disabled
DWT denoise :  enabled
savitzky-golay :  disabled
FFT :  disabled
Running average :  disabled
Kalman :  disabled
High pass :  disabled
---------------BEGIN--------------------
Wavelength(nm)             Reflectance(%)
200.29               0
200.75        38.75365
201.21        43.14582
201.67        46.84732
202.13        49.01958
202.58         49.7348
203.04        49.66742
203.50        48.89068
203.96        47.53836
204.42        45.97184
204.88        44.17624
205.34        42.83442
205.80         43.0719
206.26        44.70506
206.72        46.88247
207.18          48.805
207.64        49.89381
208.10        50.17495
208.55        50.25781
209.01        48.81126
209.47         44.5224
209.93        39.47493
210.39        35.91026
210.85         34.5321
211.31        35.45089
211.77        39.11096
212.23        48.23005
212.69        73.70844
213.14        127.7488
213.60        144.7915
214.06        121.6762
214.52         99.8101
214.98        86.20353
215.44        76.07175
215.90        65.36303
216.36        55.78002
216.81        50.95808
217.27        52.46722
217.73        61.70621
218.19        77.08975
218.65        84.57127
219.11        77.95061
219.57        65.80372
220.02        57.74737
220.48        59.20861
220.94         69.8409
221.40        90.93811
221.86        121.0422
222.32        138.5218
222.77        126.6258
223.23        100.4543
223.69        77.20193
224.15         66.3171
224.61        64.86176
225.06        67.37955
225.52        70.72517
225.98        71.54957
226.44        69.63754
226.90        66.53831
227.36        63.07984
227.81        60.56688
228.27        59.63263
228.73        59.42567
229.19        59.97358
229.65        61.46497
230.10        63.69255
230.56        66.70856
231.02        69.44028
231.48        70.11189
231.93        68.54778
232.39        65.79421
232.85        63.19822
233.31         62.6274
233.77        64.20382
234.22        67.18427
234.68        70.60757
235.14        73.04678
235.60        73.98764
236.05        73.91035
236.51        72.74545
236.97        70.62091
237.43        67.83536
237.88        64.44997
238.34         61.1684
238.80        59.32591
239.26         59.3803
239.71        61.86771
240.17         66.2411
240.63        70.69664
241.08        73.98136
241.54        75.41255
242.00        76.39687
242.46        80.60474
242.91        90.83403
243.37        108.2671
243.83        132.5511
244.28        150.2796
244.74        143.7845
245.20        115.8554
245.66        84.85973
246.11        64.88161
246.57        55.85125
247.03         53.1816
247.48        54.24289
247.94        54.89202
248.40        54.18305
248.85        53.55504
249.31        53.33668
249.77        53.23529
250.22        53.10201
250.68        52.52308
251.14        52.07362
251.59        53.49273
252.05        57.24138
252.51        62.42865
252.96        65.98615
253.42        65.72053
253.88        62.42315
254.33        57.31265
254.79        53.83433
255.25        54.68674
255.70        59.37263
256.16        66.55711
256.62        72.72462
257.07        72.73081
257.53        67.98841
257.99        61.78976
258.44        56.64645
258.90        54.75757
259.35        55.09612
259.81        56.80708
260.27        58.52979
260.72        58.69559
261.18        57.50105
261.63        55.44956
262.09        53.70527
262.55        53.01546
263.00        53.21264
263.46        53.98336
263.91        54.51896
264.37        54.10148
264.83        52.70836
265.28        50.74945
265.74        48.94355
266.19        47.87022
266.65        47.66755
267.11        47.97013
267.56        48.49227
268.02        48.79038
268.47        48.69881
268.93        48.40285
269.38        47.85426
269.84         47.0381
270.30        45.99355
270.75        44.70726
271.21         43.4792
271.66        42.71798
272.12        42.48888
272.57        42.65265
273.03         42.8645
273.48        42.53859
273.94        41.61869
274.39        40.28701
274.85         38.9366
275.31        37.96344
275.76        37.42085
276.22        37.18635
276.67        37.05287
277.13        36.83484
277.58         36.4186
278.04        35.91038
278.49        35.30659
278.95        34.71835
279.40        34.12466
279.86        33.56996
280.31        32.98421
280.77        32.39058
281.22        31.75956
281.68          31.166
282.13        30.63713
282.59        30.29633
283.04        30.10964
283.50        30.05096
283.95        30.01565
284.41        29.85943
284.86         29.5465
285.32        29.15127
285.77        28.73205
286.22        28.43414
286.68        28.28108
287.13        28.18963
287.59        28.12444
288.04        27.98531
288.50        27.77456
288.95        27.50634
289.41        27.21452
289.86        26.87787
290.32        26.54207
290.77        26.19658
291.22        25.90654
291.68        25.75484
292.13        25.74276
292.59        25.86362
293.04        26.05635
293.50         26.2426
293.95        26.39017
294.40        26.52164
294.86        26.67738
295.31        26.91514
295.77        27.25107
296.22        27.65076
296.68        28.07678
297.13        28.45838
297.58        28.78806
298.04        29.09503
298.49        29.41058
298.95        29.79946
299.40        30.26496
299.85        30.77849
300.31        31.31451
300.76        31.82659
301.21        32.29714
301.67        32.74864
302.12        33.14669
302.58        33.49606
303.03        33.77864
303.48        34.01787
303.94        34.25414
304.39        34.51663
304.84        34.82256
305.30        35.16586
305.75        35.50186
306.20        35.81524
306.66         36.1006
307.11        36.34529
307.57        36.54562
308.02        36.64923
308.47        36.66443
308.93        36.61029
309.38        36.51986
309.83        36.49405
310.29        36.55094
310.74        36.66199
311.19         36.7587
311.65        36.72176
312.10        36.52524
312.55        36.21183
313.00         35.8791
313.46        35.66901
313.91        35.59951
314.36        35.63885
314.82        35.69624
315.27        35.63484
315.72        35.42012
316.18        35.10765
316.63           34.78
317.08        34.57926
317.53        34.53399
317.99          34.589
318.44        34.66769
318.89        34.63695
319.35        34.45853
319.80        34.17117
320.25        33.83561
320.70        33.54889
321.16        33.33718
321.61        33.18364
322.06        33.03933
322.51        32.82853
322.97        32.53292
323.42        32.18893
323.87          31.861
324.32        31.65372
324.78        31.57667
325.23        31.61037
325.68        31.65871
326.13         31.5702
326.59        31.30538
327.04        30.92279
327.49        30.50558
327.94        30.18959
328.39        30.00583
328.85        29.89526
329.30        29.83451
329.75         29.7247
330.20        29.53785
330.66        29.30855
331.11        29.06717
331.56        28.83134
332.01        28.61356
332.46        28.39716
332.92        28.19075
333.37        28.06229
333.82         28.0041
334.27        28.00614
334.72        28.01813
335.17        27.95121
335.63        27.78309
336.08        27.55741
336.53        27.32008
336.98        27.15952
337.43        27.10269
337.88        27.11626
338.34        27.17964
338.79        27.28537
339.24        27.40113
339.69        27.52738
340.14        27.61051
340.59        27.56692
341.05        27.39321
341.50        27.11075
341.95        26.79659
342.40        26.57185
342.85         26.4686
343.30        26.45536
343.75        26.48496
344.20        26.47785
344.66        26.41324
345.11        26.31633
345.56         26.2097
346.01        26.12658
346.46        26.08139
346.91        26.06449
347.36        26.06498
347.81        26.07137
348.26        26.07823
348.72        26.08535
349.17        26.10287
349.62        26.15987
350.07        26.25265
350.52        26.36679
350.97        26.44874
351.42        26.41561
351.87        26.25795
352.32        26.01128
352.77        25.74598
353.22        25.56322
353.67        25.48718
354.13        25.49024
354.58        25.53102
355.03        25.54182
355.48        25.49804
355.93        25.41826
356.38        25.32301
356.83        25.24137
357.28        25.17898
357.73        25.12151
358.18        25.04652
358.63        24.92537
359.08        24.75427
359.53        24.54431
359.98        24.32828
360.43        24.15032
360.88        24.01715
361.33        23.91879
361.78        23.81715
362.23        23.65102
362.68        23.41612
363.13        23.14144
363.58        22.87941
364.03        22.70878
364.48        22.64412
364.93        22.65325
365.38        22.69861
365.83        22.71955
366.28        22.69158
366.73        22.63077
367.18        22.53279
367.63        22.39264
368.08        22.21653
368.53        22.00393
368.98         21.7857
369.43          21.614
369.88        21.49889
370.33        21.42842
370.78        21.36986
371.23        21.26441
371.68        21.09946
372.13        20.89901
372.58        20.68998
373.03        20.51393
373.48        20.38411
373.93        20.28328
374.38        20.20966
374.83        20.16268
375.28        20.13178
375.72        20.10671
376.17        20.07323
376.62        19.98365
377.07        19.83442
377.52        19.64462
377.97        19.44166
378.42        19.27534
378.87        19.16299
379.32        19.08681
379.77        19.04862
380.22        19.04879
380.67        19.07656
381.11        19.13662
381.56        19.17404
382.01        19.11544
382.46        18.95384
382.91        18.72167
383.36        18.48631
383.81        18.34231
384.26        18.30453
384.71        18.34043
385.15        18.41005
385.60        18.44755
386.05        18.42859
386.50         18.3765
386.95        18.29612
387.40        18.19578
387.85        18.08659
388.29        17.95509
388.74        17.84598
389.19        17.78136
389.64        17.76095
390.09        17.77317
390.54         17.7891
390.98        17.75507
391.43         17.6716
391.88        17.55604
392.33        17.43197
392.78        17.33256
393.23        17.26626
393.67        17.21311
394.12        17.18486
394.57        17.16509
395.02        17.14749
395.47        17.13046
395.91        17.11264
396.36         17.0801
396.81        17.04221
397.26        17.00657
397.71        16.96928
398.15        16.93608
398.60        16.92856
399.05        16.87208
399.50        16.80031
399.95        16.88705
400.39        17.07982
400.84        17.06671
401.29        16.85151
401.74         16.7088
402.18        16.65565
402.63        16.52528
403.08        16.35499
403.53        16.27665
403.97        16.30076
404.42        16.39086
404.87        16.49194
405.32        16.51226
405.76        16.42856
406.21        16.27963
406.66        16.11555
407.11        16.01563
407.55        16.00552
408.00        16.05407
408.45        16.12986
408.90        16.16938
409.34        16.15095
409.79        16.09794
410.24        16.03906
410.68        16.00885
411.13        16.02023
411.58        16.05876
412.03        16.10099
412.47        16.11012
412.92        16.07265
413.37        16.00933
413.81        15.94529
414.26        15.92985
414.71        15.96504
415.15        16.03689
415.60        16.11676
416.05        16.16841
416.49        16.17752
416.94        16.15371
417.39        16.10207
417.83        16.02893
418.28        15.94099
418.73        15.83653
419.17        15.73731
419.62        15.67929
420.07        15.66958
420.51        15.69543
420.96        15.73314
421.41        15.73987
421.85        15.70045
422.30        15.62433
422.74        15.52531
423.19        15.49433
423.64        15.51522
424.08        15.48427
424.53        15.40414
424.98        15.40195
425.42        15.49131
425.87        15.56274
426.31        15.60428
426.76         15.7126
427.21        15.83263
427.65        15.74483
428.10        15.50997
428.54        15.38747
428.99        15.40674
429.44        15.49434
429.88        15.58278
430.33        15.50639
430.77        15.30766
431.22        15.28813
431.66        15.45014
432.11        15.53071
432.56        15.52869
433.00        15.64858
433.45        15.80422
433.89        15.72861
434.34        15.52129
434.78        15.12232
435.23        15.40597
435.67        15.40331
436.12        15.33891
436.57        15.24945
437.01        15.16174
437.46        15.12804
437.90        15.14573
438.35        15.15529
438.79         15.1471
439.24        15.15762
439.68        15.18476
440.13        15.21792
440.57        15.24065
441.02        15.24394
441.46        15.22577
441.91        15.15193
442.35        15.05466
442.80        15.12765
443.24        15.31022
443.69        15.32995
444.13        15.19714
444.58        15.16986
445.02        15.25153
445.47        15.29803
445.91        15.29706
446.36        15.30517
446.80        15.31844
447.24        15.32036
447.69        15.32199
448.13         15.3347
448.58        15.36222
449.02        15.39951
449.47         15.4308
449.91        15.42241
450.36        15.37459
450.80        15.29703
451.25        15.21865
451.69        15.17394
452.13        15.17334
452.58        15.20355
453.02        15.24585
453.47        15.27211
453.91        15.27331
454.36        15.26079
454.80        15.23689
455.24        15.20399
455.69        15.17035
456.13        15.12344
456.58        15.08783
457.02        15.07715
457.46        15.09967
457.91        15.15061
458.35          15.196
458.79        15.18449
459.24        15.12252
459.68        15.01916
460.13        14.92986
460.57        14.89997
461.01        14.94972
461.46        15.04544
461.90         15.1672
462.34        15.26761
462.79        15.32302
463.23        15.35453
463.68        15.34282
464.12        15.26869
464.56        15.13964
465.01        14.98702
465.45        14.84204
465.89        14.78797
466.34        14.83312
466.78        14.95191
467.22        15.10496
467.67        15.20451
468.11        15.23138
468.55        15.20175
468.99        15.14739
469.44         15.1202
469.88        15.13598
470.32         15.1739
470.77        15.21863
471.21        15.25088
471.65        15.26157
472.10        15.26363
472.54        15.25543
472.98        15.23736
473.42        15.21385
473.87        15.19156
474.31         15.1712
474.75        15.16936
475.20        15.19267
475.64        15.23005
476.08        15.28191
476.52        15.34035
476.97        15.39996
477.41        15.46645
477.85        15.53535
478.29        15.57684
478.74         15.6007
479.18        15.65095
479.62        15.71434
480.06        15.74657
480.50         15.7489
480.95         15.7221
481.39        15.67544
481.83         15.7789
482.27        15.80462
482.72        15.92499
483.16        16.04714
483.60          16.126
484.04        16.15703
484.48        16.17818
484.93        16.21936
485.37        16.22699
485.81        16.64914
486.25        16.62327
486.69        15.78098
487.14        16.34137
487.58        17.37634
488.02        17.31894
488.46        16.92364
488.90        17.07056
489.34        17.16854
489.79        17.36316
490.23        17.31376
490.67        17.47272
491.11        17.75702
491.55        17.82016
491.99        17.70584
492.43        17.72416
492.88        17.89425
493.32        18.03297
493.76        18.12339
494.20        18.23759
494.64        18.37901
495.08        18.49222
495.52        18.57658
495.96        18.75371
496.41        18.98402
496.85        18.98312
497.29        18.81047
497.73        18.99708
498.17        19.27062
498.61        19.49745
499.05         19.5622
499.49        19.64298
499.93        19.69949
500.37        19.84208
500.82        20.03815
501.26        20.15855
501.70        20.22934
502.14        20.29546
502.58        20.38981
503.02        20.50559
503.46        20.64489
503.90         20.8086
504.34        20.96149
504.78        21.04529
505.22        21.04885
505.66        20.99061
506.10        20.91445
506.54          20.891
506.98        20.93901
507.42        21.03934
507.86        21.16164
508.30         21.2543
508.74        21.30224
509.18        21.32285
509.62        21.33449
510.06        21.36619
510.50        21.42565
510.94        21.49892
511.38        21.57683
511.82        21.64682
512.26        21.70392
512.70        21.75492
513.14        21.79684
513.58        21.82387
514.02        21.83704
514.46        21.83615
514.90        21.83614
515.34        21.86186
515.78         21.9168
516.22        21.99387
516.66        22.06948
517.10        22.10508
517.54        22.09291
517.98        22.04562
518.42         21.9881
518.86        21.96037
519.30        21.97271
519.74        22.01218
520.18        22.06028
520.62        22.08816
521.06        22.08725
521.50        22.06653
521.93        22.03779
522.37        22.01149
522.81        21.99551
523.25        21.98484
523.69         21.9718
524.13        21.94643
524.57        21.90466
525.01        21.84594
525.45        21.78087
525.89        21.72613
526.32        21.68233
526.76        21.65265
527.20        21.61282
527.64        21.52644
528.08        21.39317
528.52        21.22986
528.96        21.07893
529.40        21.00549
529.83        21.01964
530.27        21.09735
530.71        21.19553
531.15        21.24693
531.59        21.23108
532.03        21.16741
532.46         21.0705
532.90        20.97961
533.34        20.90578
533.78        20.82814
534.22        20.75346
534.66        20.71821
535.09        20.70896
535.53        20.67842
535.97        20.62703
536.41        20.60682
536.85        20.61901
537.28        20.62866
537.72        20.64441
538.16        20.69649
538.60        20.78317
539.04        20.89214
539.47        20.99365
539.91        21.05699
540.35        21.07286
540.79        21.05535
541.22        21.03031
541.66        21.04632
542.10        21.11276
542.54        21.21578
542.97        21.33493
543.41        21.44643
543.85        21.53956
544.29        21.62613
544.72        21.70781
545.16        21.80141
545.60        21.90776
546.04        22.02437
546.47        22.15741
546.91        22.31325
547.35        22.48762
547.79        22.67765
548.22        22.86743
548.66        23.02803
549.10        23.18143
549.53        23.32323
549.97        23.46417
550.41        23.56884
550.84        23.66521
551.28        23.81448
551.72        23.98948
552.15        24.16633
552.59        24.36785
553.03        24.24344
553.46        24.53127
553.90        24.60985
554.34        24.69622
554.77        24.78776
555.21        24.89256
555.65        25.00208
556.08        25.10458
556.52        25.18987
556.96        25.25538
557.39        25.36504
557.83        25.50078
558.27        25.51609
558.70        25.43664
559.14        25.45802
559.57        25.57096
560.01        25.64444
560.45        25.67924
560.88        25.74918
561.32        25.86456
561.75        25.99827
562.19        26.12997
562.63        26.17261
563.06        26.14097
563.50        26.16395
563.93        26.22947
564.37        26.28668
564.80        26.35143
565.24        26.41463
565.68        26.40677
566.11        26.77351
566.55        26.55156
566.98        26.52815
567.42        26.50556
567.85        26.65175
568.29        26.95341
568.72        27.25386
569.16        27.52723
569.60        27.69159
570.03        27.83601
570.47        27.90251
570.90        27.96142
571.34        27.88597
571.77        28.14438
572.21        28.30205
572.64        28.43489
573.08        28.68884
573.51        28.82947
573.95        28.85025
574.38        28.78395
574.82        28.95006
