SpectraSmart Spectrum 2.9.0.0
--------- Device Information -----------
Spectrum Name :  反射率_0
Saving Time :  2024/04/26 22:07:20
Spectro-Module Model Name : SE2030-DUVN
Spectro-Module Serial Number : OS361AC55029948
Wavelength Start : 200
Wavelength End : 1025
Wavelength Unit : Wavelength(nm)
Spectrum Unit : Reflectance(%)
-----------Spectrum Setting ------------
Integration Time : 20ms
Average : 10
Boxcar : 0
Background removal :  enabled
linearity correction :  enabled
SC :  disabled
Intensity correction :  disabled
DWT denoise :  enabled
savitzky-golay :  disabled
FFT :  disabled
Running average :  disabled
Kalman :  disabled
High pass :  disabled
---------------BEGIN--------------------
Wavelength(nm)             Reflectance(%)
200.29               0
200.75        34.94741
201.21        36.25274
201.67        38.89359
202.13        41.68351
202.58        44.48827
203.04        48.50266
203.50        53.99887
203.96         59.7804
204.42        64.48958
204.88         67.3611
205.34        67.96523
205.80        67.20734
206.26        65.59608
206.72        62.82254
207.18        60.03723
207.64        57.92636
208.10        56.32343
208.55        55.80091
209.01        54.66842
209.47        50.32598
209.93        44.55205
210.39        40.18365
210.85        38.88479
211.31        41.79624
211.77        50.33098
212.23        70.51329
212.69        122.1809
213.14        213.1995
213.60        217.5162
214.06        159.3025
214.52         117.042
214.98        96.01195
215.44        84.62927
215.90        75.46299
216.36        68.75564
216.81        66.41165
217.27        69.34818
217.73        79.85859
218.19        96.27184
218.65        103.4084
219.11        95.40161
219.57         81.7878
220.02        72.69398
220.48        73.96101
220.94        84.97179
221.40        106.5313
221.86        138.1756
222.32        159.8351
222.77        153.3082
223.23        132.2051
223.69        110.4445
224.15        95.72589
224.61        87.33224
225.06        81.79311
225.52        79.38548
225.98        80.21675
226.44        83.67016
226.90          89.578
227.36        95.89993
227.81         98.8092
228.27        97.78064
228.73        93.97392
229.19         90.0713
229.65         89.2955
230.10        91.74932
230.56        96.33907
231.02        100.7897
231.48        101.5621
231.93        98.20456
232.39        92.86263
232.85         87.6209
233.31        85.12498
233.77        85.63386
234.22        88.02704
234.68        91.27792
235.14        93.91254
235.60        95.33944
236.05        96.16405
236.51        95.97272
236.97        94.22281
237.43        90.97952
237.88        86.38676
238.34        81.68304
238.80        79.25443
239.26        79.92725
239.71        84.29763
240.17        91.38528
240.63        97.99335
241.08        101.8803
241.54        102.2148
242.00        101.2574
242.46        104.5114
242.91        116.0112
243.37        137.5002
243.83        169.0227
244.28        194.2355
244.74         190.317
245.20         158.897
245.66        123.6678
246.11        104.5833
246.57        101.5948
247.03        108.6129
247.48        116.8959
247.94        112.7153
248.40        98.18872
248.85        82.08824
249.31         70.3716
249.77        65.66809
250.22        66.91843
250.68        72.68945
251.14        81.63044
251.59        87.99778
252.05        88.10147
252.51        84.70177
252.96        79.68835
253.42        75.42513
253.88        72.35471
254.33        69.46498
254.79        68.50816
255.25        70.65789
255.70        75.38582
256.16        82.16838
256.62        88.06181
257.07        88.53651
257.53        84.93183
257.99        79.93832
258.44        75.78797
258.90        74.79816
259.35        75.88426
259.81        78.33783
260.27        80.72546
260.72        81.35898
261.18        80.48814
261.63        78.53703
262.09        76.82635
262.55         76.1007
263.00        76.17836
263.46        76.83825
263.91        77.17957
264.37         76.5164
264.83        74.82259
265.28        72.51628
265.74        70.44088
266.19        69.22049
266.65        69.01368
267.11        69.38425
267.56        69.97697
268.02        70.24721
268.47        70.00101
268.93        69.49854
269.38        68.68088
269.84        67.54432
270.30        66.14644
270.75        64.45322
271.21        62.90926
271.66        62.12094
272.12        62.15723
272.57         62.7831
273.03        63.39372
273.48        62.97511
273.94        61.43039
274.39        59.10556
274.85        56.69977
275.31        54.97216
275.76        54.05071
276.22        53.71766
276.67        53.61457
277.13        53.39633
277.58        52.86324
278.04        52.17064
278.49        51.35306
278.95         50.6125
279.40        49.91796
279.86        49.31463
280.31         48.5939
280.77        47.64599
281.22        46.43483
281.68        45.13657
282.13        43.96911
282.59        43.36041
283.04        43.27961
283.50        43.60058
283.95        43.97443
284.41        43.88077
284.86        43.20182
285.32         42.1686
285.77        41.04478
286.22        40.28489
286.68        39.97926
287.13          39.932
287.59        39.99839
288.04        39.89893
288.50        39.59259
288.95        39.13819
289.41        38.64178
289.86        38.15413
290.32        37.74826
290.77        37.37388
291.22         37.0381
291.68         36.7389
292.13        36.46483
292.59        36.25046
293.04        36.12986
293.50        36.17804
293.95        36.38913
294.40        36.73758
294.86        37.15451
295.31        37.51944
295.77        37.81257
296.22        38.05476
296.68        38.30302
297.13        38.62771
297.58        39.05568
298.04         39.5583
298.49        40.10416
298.95        40.66926
299.40        41.22139
299.85        41.76274
300.31        42.27916
300.76        42.73127
301.21        43.11511
301.67         43.4499
302.12        43.71928
302.58        43.97462
303.03        44.19901
303.48        44.41413
303.94        44.63585
304.39        44.83795
304.84        45.03431
305.30        45.23734
305.75        45.42942
306.20        45.64923
306.66        45.90373
307.11        46.15677
307.57        46.37944
308.02        46.46502
308.47        46.41892
308.93        46.28723
309.38        46.12277
309.83        46.06783
310.29        46.14843
310.74        46.31082
311.19          46.484
311.65        46.54443
312.10        46.45032
312.55        46.24126
313.00        45.97314
313.46        45.72638
313.91        45.51021
314.36        45.31332
314.82        45.10833
315.27        44.86969
315.72        44.59203
316.18        44.30623
316.63        44.03164
317.08        43.81223
317.53        43.65207
317.99        43.52411
318.44        43.40566
318.89        43.24883
319.35        43.03674
319.80        42.78028
320.25        42.48743
320.70        42.17316
321.16        41.84589
321.61        41.52222
322.06        41.20352
322.51        40.89674
322.97        40.60281
323.42        40.32497
323.87        40.09151
324.32        39.95223
324.78         39.8912
325.23        39.91197
325.68        39.90558
326.13        39.70378
326.59        39.27596
327.04         38.6901
327.49        38.07909
327.94        37.65756
328.39        37.47301
328.85        37.44884
329.30        37.51879
329.75         37.4823
330.20        37.27891
330.66        36.96466
331.11        36.62082
331.56        36.34593
332.01        36.17046
332.46        36.04403
332.92        35.92679
333.37         35.8176
333.82        35.68486
334.27        35.55345
334.72         35.3998
335.17        35.17552
335.63         34.8795
336.08         34.5464
336.53        34.24707
336.98        34.11368
337.43        34.17124
337.88        34.37008
338.34        34.62184
338.79        34.80905
339.24          34.867
339.69        34.83115
340.14        34.70466
340.59        34.50108
341.05        34.25778
341.50        33.97503
341.95        33.72408
342.40        33.61563
342.85        33.66693
343.30        33.84018
343.75        34.06853
344.20        34.23669
344.66        34.30387
345.11        34.29457
345.56         34.2103
346.01        34.06016
346.46        33.86856
346.91        33.64598
347.36        33.43924
347.81        33.32439
348.26        33.31654
348.72        33.39259
349.17         33.5226
349.62        33.66828
350.07        33.80265
350.52        33.92991
350.97        34.00079
351.42        33.94139
351.87         33.7489
352.32        33.45089
352.77        33.13333
353.22         32.9242
353.67        32.85028
354.13        32.87761
354.58         32.9436
355.03        32.93961
355.48        32.83279
355.93        32.65633
356.38        32.45576
356.83        32.29707
357.28        32.19427
357.73        32.12096
358.18         32.0413
358.63        31.90391
359.08        31.70033
359.53         31.4545
359.98        31.20222
360.43        30.99133
360.88        30.82904
361.33        30.69524
361.78        30.56432
362.23        30.39815
362.68         30.1892
363.13        29.95659
363.58        29.71084
364.03        29.46484
364.48        29.22524
364.93        28.98603
365.38         28.7648
365.83         28.5921
366.28        28.47155
366.73        28.39485
367.18        28.32475
367.63        28.20156
368.08        28.01073
368.53          27.766
368.98        27.50493
369.43        27.28809
369.88         27.1319
370.33        27.02319
370.78        26.92472
371.23        26.77609
371.68        26.56505
372.13        26.31065
372.58        26.06746
373.03        25.91852
373.48        25.87808
373.93         25.9179
374.38        25.96517
374.83         25.9067
375.28        25.71688
375.72        25.42328
376.17        25.11792
376.62        24.90759
377.07        24.81881
377.52        24.82256
377.97        24.84874
378.42        24.78806
378.87        24.61628
379.32        24.36449
379.77        24.11864
380.22        24.00144
380.67        24.03035
381.11        24.17545
381.56        24.31071
382.01        24.24981
382.46        23.96311
382.91        23.53225
383.36        23.10709
383.81        22.89235
384.26        22.92094
384.71        23.12095
385.15        23.38423
385.60        23.53139
386.05        23.50432
386.50        23.35962
386.95        23.15452
387.40        22.97816
387.85        22.86182
388.29        22.76088
388.74        22.68915
389.19        22.61575
389.64        22.53117
390.09        22.44271
390.54        22.35521
390.98        22.26617
391.43        22.19082
391.88        22.12807
392.33        22.06344
392.78        21.97731
393.23        21.86971
393.67        21.73571
394.12        21.62827
394.57         21.5825
395.02        21.60039
395.47        21.66119
395.91        21.72389
396.36        21.70686
396.81        21.60752
397.26         21.4612
397.71        21.30537
398.15        21.20755
398.60         21.2064
399.05        21.18622
399.50        21.15975
399.95        21.30598
400.39        21.54761
400.84        21.50158
401.29        21.18937
401.74        20.98355
402.18        20.91397
402.63         20.7641
403.08        20.56361
403.53        20.45075
403.97        20.43718
404.42        20.49239
404.87        20.57546
405.32        20.61451
405.76        20.58635
406.21        20.51709
406.66        20.44349
407.11         20.4281
407.55        20.48855
408.00        20.59345
408.45        20.69638
408.90        20.70839
409.34        20.60721
409.79         20.4299
410.24        20.23886
410.68        20.11271
411.13        20.07623
411.58        20.10837
412.03        20.16772
412.47        20.18372
412.92        20.13046
413.37        20.03718
413.81         19.9479
414.26         19.9432
414.71         20.0284
415.15        20.18387
415.60        20.34621
416.05        20.42459
416.49        20.39367
416.94        20.27877
417.39        20.13859
417.83        20.06333
418.28        20.07241
418.73         20.1312
419.17        20.20249
419.62        20.22605
420.07        20.18738
420.51        20.11378
420.96         20.0189
421.41        19.91581
421.85        19.81106
422.30        19.69197
422.74        19.58593
423.19        19.62448
423.64        19.77944
424.08         19.9123
424.53        19.97293
424.98        20.02995
425.42        20.07837
425.87        20.00412
426.31        19.85185
426.76        19.83947
427.21        19.93125
427.65        19.83463
428.10        19.60486
428.54        19.53222
428.99        19.63482
429.44         19.8189
429.88        20.00953
430.33        20.00922
430.77        19.86711
431.22        19.96504
431.66        20.25957
432.11        20.34824
432.56        20.22487
433.00        20.13149
433.45        20.04047
433.89        19.90534
434.34        19.83677
434.78        19.42585
435.23        19.78261
435.67        19.86576
436.12        19.94666
436.57        19.93897
437.01        19.85473
437.46        19.79399
437.90        19.75543
438.35        19.65609
438.79         19.5228
439.24        19.46509
439.68        19.49265
440.13        19.57656
440.57        19.67707
441.02        19.74394
441.46        19.75658
441.91        19.68184
442.35        19.55284
442.80        19.60837
443.24        19.77283
443.69         19.6997
444.13        19.43054
444.58        19.33978
445.02        19.44165
445.47        19.53787
445.91        19.59689
446.36        19.66356
446.80        19.72158
447.24        19.75821
447.69        19.77787
448.13        19.78099
448.58        19.77386
449.02        19.75254
449.47         19.7242
449.91        19.69027
450.36        19.65861
450.80        19.62717
451.25        19.60096
451.69        19.57239
452.13        19.54311
452.58         19.5119
453.02        19.48029
453.47        19.45302
453.91        19.43151
454.36           19.42
454.80        19.40528
455.24        19.36552
455.69        19.30505
456.13        19.21694
456.58        19.14806
457.02        19.13842
457.46            19.2
457.91        19.31598
458.35        19.42155
458.79        19.42039
459.24        19.31416
459.68        19.12681
460.13        18.94809
460.57        18.86361
461.01        18.90643
461.46        19.02953
461.90        19.19534
462.34        19.32456
462.79        19.38177
463.23        19.39696
463.68        19.36393
464.12        19.28639
464.56        19.17432
465.01        19.05301
465.45        18.92917
465.89        18.86551
466.34        18.86823
466.78        18.91864
467.22        19.00013
467.67        19.06096
468.11        19.09488
468.55         19.1062
468.99        19.10273
469.44        19.09688
469.88        19.09444
470.32        19.08554
470.77        19.07613
471.21        19.08086
471.65        19.09961
472.10         19.1356
472.54        19.16668
472.98        19.16305
473.42        19.12206
473.87        19.05985
474.31        18.99662
474.75        18.98224
475.20        19.02798
475.64        19.10785
476.08        19.19688
476.52        19.24627
476.97        19.24436
477.41        19.21701
477.85        19.18598
478.29        19.15806
478.74        19.16031
479.18         19.2343
479.62         19.3556
480.06        19.45355
480.50        19.52003
480.95         19.5609
481.39        19.57143
481.83        19.73611
482.27        19.76283
482.72        19.87511
483.16        19.97924
483.60        20.01843
484.04        19.98118
484.48        20.02108
484.93        20.16045
485.37        19.98421
485.81        20.19361
486.25        20.38875
486.69        19.93692
487.14        20.52223
487.58        21.44062
488.02        21.01911
488.46        20.60106
488.90        20.65073
489.34        20.70369
489.79        21.08181
490.23        21.33438
490.67        21.61718
491.11        21.82268
491.55        21.74905
491.99        21.50087
492.43        21.43194
492.88        21.59343
493.32        21.79653
493.76        21.98676
494.20        22.17149
494.64        22.33706
495.08        22.44092
495.52        22.50263
495.96        22.69877
496.41        22.98836
496.85        23.01244
497.29        22.82015
497.73        23.02562
498.17        23.29273
498.61        23.47139
499.05        23.44897
499.49        23.48336
499.93         23.5383
500.37        23.72863
500.82        23.99447
501.26        24.17371
501.70        24.24477
502.14        24.30555
502.58        24.39401
503.02        24.52087
503.46          24.693
503.90        24.90406
504.34        25.10471
504.78        25.21358
505.22        25.21444
505.66        25.13471
506.10        25.03122
506.54        24.99475
506.98        25.04923
507.42        25.16744
507.86        25.31373
508.30         25.4277
508.74         25.4904
509.18        25.52385
509.62        25.54049
510.06        25.55972
510.50        25.58925
510.94        25.61642
511.38        25.64987
511.82        25.70611
512.26         25.7862
512.70        25.88944
513.14        25.98453
513.58        26.03255
514.02        26.02838
514.46        25.95767
514.90        25.85948
515.34        25.93225
515.78        25.97631
516.22         26.1385
516.66            26.3
517.10        26.37741
517.54        26.34853
517.98        26.24412
518.42        26.11511
518.86        26.03715
519.30        26.03182
519.74        26.07409
520.18        26.13167
520.62        26.15425
521.06         26.1286
521.50        26.07496
521.93        26.01367
522.37        25.96631
522.81        25.94541
523.25        25.93944
523.69        25.94217
524.13        25.94683
524.57        25.94687
525.01         25.9406
525.45         25.9233
525.89        25.88712
526.32        25.82746
526.76        25.75371
527.20        25.66221
527.64        25.55083
528.08        25.42482
528.52        25.28914
528.96        25.16415
529.40        25.07958
529.83        25.03942
530.27        25.03655
530.71        25.04538
531.15        25.02656
531.59        24.97006
532.03        24.88567
532.46        24.78868
532.90        24.72143
533.34        24.68924
533.78        24.66725
534.22        24.64196
534.66        24.62342
535.09        24.59025
535.53        24.49389
535.97        24.36123
536.41        24.29714
536.85        24.31315
537.28        24.35655
537.72        24.41483
538.16        24.48612
538.60        24.55964
539.04        24.63452
539.47         24.6969
539.91        24.74139
540.35        24.76496
540.79        24.77494
541.22        24.78512
541.66        24.82691
542.10        24.90518
542.54        25.01138
542.97        25.13793
543.41        25.28238
543.85        25.43551
544.29        25.59988
544.72         25.7575
545.16        25.89907
545.60         26.0196
546.04        26.12532
546.47         26.2388
546.91        26.39583
547.35        26.59867
547.79         26.8262
548.22        27.05104
548.66        27.24429
549.10         27.4199
549.53        27.53963
549.97        27.62873
550.41        27.70265
550.84         27.8027
551.28        27.97038
551.72        28.17673
552.15        28.40976
552.59        28.69335
553.03        28.60793
553.46        29.00574
553.90        29.12571
554.34        29.21904
554.77        29.29065
555.21        29.36872
555.65        29.47457
556.08          29.602
556.52         29.7283
556.96        29.83648
557.39        29.98085
557.83         30.1341
558.27        30.13094
558.70         30.0095
559.14        30.01179
559.57         30.1338
560.01        30.22048
560.45        30.27032
560.88        30.37596
561.32        30.54999
561.75        30.73126
562.19        30.90528
562.63         31.0452
563.06        31.13588
563.50         31.1856
563.93        31.19241
564.37        31.23613
564.80        31.34377
565.24        31.42573
565.68         31.3967
566.11        31.82944
566.55        31.58256
566.98        31.54918
567.42        31.50042
567.85        31.72705
568.29        32.17249
568.72        32.46782
569.16        32.63782
569.60        32.79601
570.03        33.04832
570.47        33.26181
570.90        33.50162
571.34        33.30535
571.77        33.73404
572.21        33.91182
572.64        34.06087
573.08        34.27494
573.51        34.27454
573.95        34.30992
574.38        34.34352
574.82        34.82338
