SpectraSmart Spectrum 2.9.0.0
--------- Device Information -----------
Spectrum Name :  反射率_0
Saving Time :  2024/04/26 22:12:27
Spectro-Module Model Name : SE2030-DUVN
Spectro-Module Serial Number : OS361AC55029948
Wavelength Start : 200
Wavelength End : 1025
Wavelength Unit : Wavelength(nm)
Spectrum Unit : Reflectance(%)
-----------Spectrum Setting ------------
Integration Time : 20ms
Average : 10
Boxcar : 0
Background removal :  enabled
linearity correction :  enabled
SC :  disabled
Intensity correction :  disabled
DWT denoise :  enabled
savitzky-golay :  disabled
FFT :  disabled
Running average :  disabled
Kalman :  disabled
High pass :  disabled
---------------BEGIN--------------------
Wavelength(nm)             Reflectance(%)
200.29               0
200.75        43.31105
201.21        43.68895
201.67        44.24925
202.13        43.68555
202.58        41.73797
203.04        38.98406
203.50        36.38079
203.96        36.65279
204.42        41.54626
204.88         50.3692
205.34        60.53816
205.80         67.3576
206.26        68.96062
206.72        66.31863
207.18        62.01631
207.64        58.20808
208.10        54.97453
208.55        52.02083
209.01        47.68689
209.47        41.58367
209.93        36.68309
210.39        34.55331
210.85        35.26106
211.31        39.15432
211.77        47.83624
212.23         67.5356
212.69        116.8984
213.14        201.5399
213.60        201.7151
214.06        144.0575
214.52        103.9253
214.98         85.5872
215.44        77.38706
215.90        72.14031
216.36        68.91657
216.81        67.39863
217.27        67.71648
217.73        71.95457
218.19        78.91323
218.65        80.34117
219.11         74.4864
219.57        66.44863
220.02        62.38609
220.48         66.6885
220.94        79.51926
221.40        102.7595
221.86        135.8376
222.32        157.4182
222.77        148.8988
223.23        124.7854
223.69        100.7578
224.15        85.51477
224.61        77.75118
225.06        73.38654
225.52         71.7635
225.98        72.08301
226.44        73.70263
226.90        76.74165
227.36        79.86366
227.81        80.56226
228.27        78.69251
228.73        75.11697
229.19        71.60249
229.65        70.21007
230.10        71.03515
230.56        73.40671
231.02        76.11929
231.48        77.29533
231.93        76.49983
232.39        74.78915
232.85        73.06973
233.31        72.57844
233.77        73.42916
234.22        75.11774
234.68        77.00289
235.14        78.22386
235.60        78.46667
236.05        78.02216
236.51        76.93908
236.97         75.5523
237.43        74.10767
237.88        72.64677
238.34         71.2411
238.80        70.19186
239.26        69.64074
239.71        70.10137
240.17         71.3905
240.63         73.5597
241.08        76.65053
241.54         79.8623
242.00        84.14352
242.46        91.86439
242.91        105.5412
243.37        127.5899
243.83        157.2219
244.28        177.2281
244.74        166.2175
245.20        127.4978
245.66        87.93642
246.11          68.968
246.57        69.66108
247.03        83.41978
247.48          100.23
247.94        102.5491
248.40        90.74921
248.85        74.87316
249.31        62.40574
249.77        57.20344
250.22        58.32578
250.68        64.14371
251.14        72.37403
251.59         75.5336
252.05        70.29996
252.51        61.12307
252.96        52.58747
253.42        48.78281
253.88        49.24297
254.33        51.50199
254.79        54.90772
255.25        58.65229
255.70        62.37534
256.16        66.37964
256.62        69.31495
257.07        69.04823
257.53        66.63271
257.99         63.4259
258.44        60.53627
258.90        59.36623
259.35        59.18344
259.81        59.73647
260.27        60.31718
260.72        60.15206
261.18        59.43765
261.63        58.25663
262.09        57.28119
262.55        56.73848
263.00        56.51934
263.46        56.61914
263.91        56.58162
264.37        56.15263
264.83        55.30592
265.28        54.18025
265.74         53.2545
266.19        52.81346
266.65        52.94286
267.11        53.38182
267.56        53.88076
268.02        54.04708
268.47        53.75833
268.93        53.19637
269.38        52.37937
269.84        51.40608
270.30        50.34149
270.75        49.15544
271.21        48.10228
271.66        47.50269
272.12         47.3887
272.57        47.62346
273.03        47.86836
273.48        47.54846
273.94        46.61146
274.39         45.2295
274.85        43.77946
275.31        42.62334
275.76        41.82891
276.22        41.31614
276.67        40.93789
277.13        40.60232
277.58        40.20218
278.04        39.80747
278.49        39.36175
278.95        38.90905
279.40        38.39322
279.86        37.87511
280.31        37.27411
280.77        36.61536
281.22        35.87219
281.68        35.13434
282.13        34.44178
282.59        33.94921
283.04        33.62572
283.50        33.44393
283.95        33.30578
284.41        33.07919
284.86        32.72908
285.32        32.33304
285.77        31.92199
286.22        31.60697
286.68          31.405
287.13        31.23355
287.59        31.08993
288.04        30.92274
288.50          30.739
288.95        30.52822
289.41         30.2781
289.86         29.8929
290.32        29.41559
290.77         28.8687
291.22         28.3679
291.68        28.06785
292.13        27.98632
292.59        28.09139
293.04        28.30378
293.50        28.51839
293.95        28.68562
294.40        28.83311
294.86        28.98397
295.31        29.16635
295.77         29.3964
296.22        29.65025
296.68        29.91341
297.13        30.15413
297.58        30.37365
298.04        30.58238
298.49        30.81256
298.95        31.12995
299.40        31.52979
299.85         31.9884
300.31        32.43853
300.76        32.76597
301.21        32.95572
301.67        33.06302
302.12         33.1338
302.58        33.29611
303.03        33.55171
303.48        33.87511
303.94        34.23793
304.39        34.56591
304.84         34.8457
305.30        35.10309
305.75        35.31088
306.20         35.4817
306.66        35.62652
307.11        35.72438
307.57        35.79063
308.02        35.80555
308.47        35.78196
308.93        35.73418
309.38        35.67146
309.83        35.65206
310.29        35.68531
310.74        35.75568
311.19         35.8143
311.65          35.775
312.10         35.6192
312.55        35.37405
313.00        35.12219
313.46        34.98646
313.91         34.9766
314.36        35.06361
314.82        35.15572
315.27        35.11398
315.72        34.90444
316.18        34.58381
316.63        34.23603
317.08        34.00648
317.53        33.92723
317.99        33.94499
318.44         33.9949
318.89        33.96013
319.35        33.80749
319.80        33.57645
320.25         33.3101
320.70        33.07596
321.16        32.89426
321.61        32.75222
322.06        32.62932
322.51          32.498
322.97        32.34483
323.42        32.18573
323.87        32.03759
324.32         31.9306
324.78        31.85674
325.23        31.81957
325.68        31.76394
326.13        31.61188
326.59        31.34959
327.04        31.01457
327.49        30.67005
327.94        30.41972
328.39        30.28359
328.85        30.21668
329.30        30.19237
329.75        30.10239
330.20        29.91687
330.66        29.66509
331.11        29.39618
331.56        29.16137
332.01        28.98123
332.46        28.83689
332.92        28.70518
333.37        28.59748
333.82        28.49391
334.27        28.39961
334.72        28.31856
335.17        28.25091
335.63        28.19386
336.08        28.16542
336.53         28.1435
336.98        28.10422
337.43         28.0445
337.88        27.96065
338.34         27.8977
338.79        27.96314
339.24        28.15599
339.69        28.43985
340.14        28.70134
340.59        28.75939
341.05        28.58748
341.50        28.24779
341.95        27.86053
342.40        27.60929
342.85        27.54659
343.30        27.61686
343.75        27.76408
344.20        27.89775
344.66        27.97894
345.11        28.02518
345.56        28.03519
346.01        28.00388
346.46        27.94121
346.91        27.85766
347.36        27.75047
347.81        27.62444
348.26         27.4898
348.72        27.34374
349.17        27.24848
349.62        27.31098
350.07        27.53623
350.52         27.8929
350.97         28.2293
351.42        28.30041
351.87        28.06494
352.32        27.60442
352.77        27.11189
353.22        26.87657
353.67        26.95816
354.13        27.26963
354.58        27.64904
355.03        27.82522
355.48        27.72154
355.93        27.42557
356.38        27.07105
356.83        26.85635
357.28        26.82601
357.73        26.90632
358.18        26.99952
358.63        26.95471
359.08         26.7359
359.53        26.40764
359.98        26.04586
360.43        25.75396
360.88        25.55873
361.33        25.42216
361.78        25.31244
362.23        25.18364
362.68        25.02166
363.13         24.8491
363.58        24.67046
364.03        24.48627
364.48        24.30071
364.93        24.11029
365.38        23.93254
365.83        23.80043
366.28        23.71963
366.73        23.67976
367.18        23.65505
367.63        23.60385
368.08         23.5132
368.53        23.39207
368.98        23.25581
369.43        23.12925
369.88        23.02124
370.33        22.92731
370.78        22.83509
371.23        22.72667
371.68        22.59841
372.13        22.45295
372.58        22.31614
373.03        22.22729
373.48          22.188
373.93         22.1828
374.38        22.16057
374.83        22.04151
375.28        21.81484
375.72        21.50815
376.17        21.19739
376.62        20.96784
377.07        20.84363
377.52        20.80136
377.97        20.80529
378.42        20.79829
378.87        20.75876
379.32        20.69586
379.77        20.63241
380.22        20.60113
380.67         20.6046
381.11        20.63705
381.56        20.64031
382.01        20.54388
382.46          20.346
382.91        20.08561
383.36        19.84448
383.81        19.73328
384.26        19.76506
384.71        19.89832
385.15        20.06525
385.60         20.1531
386.05        20.12486
386.50        20.01678
386.95         19.8575
387.40        19.69461
387.85        19.55079
388.29         19.4001
388.74        19.27972
389.19        19.19643
389.64        19.14597
390.09        19.12456
390.54        19.10586
390.98        19.03832
391.43         18.9277
391.88        18.79259
392.33        18.65981
392.78        18.56792
393.23        18.52384
393.67        18.50069
394.12        18.50987
394.57        18.53307
395.02        18.56046
395.47        18.58916
395.91        18.60331
396.36        18.56521
396.81         18.4826
397.26        18.37316
397.71        18.25786
398.15        18.17906
398.60        18.16759
399.05        18.13437
399.50        18.09523
399.95        18.20749
400.39         18.4082
400.84         18.3688
401.29        18.11304
401.74        17.96819
402.18        17.95943
402.63        17.89589
403.08        17.78971
403.53        17.74194
403.97        17.75507
404.42        17.80202
404.87        17.85199
405.32        17.85192
405.76        17.78666
406.21        17.68228
406.66        17.56526
407.11        17.47915
407.55        17.44145
408.00        17.43184
408.45        17.43752
408.90        17.42803
409.34        17.39352
409.79        17.34757
410.24        17.30478
410.68         17.2788
411.13        17.27678
411.58        17.29032
412.03        17.30269
412.47        17.28956
412.92        17.24041
413.37        17.17022
413.81        17.09828
414.26        17.06647
414.71        17.07596
415.15        17.12095
415.60        17.17492
416.05        17.20574
416.49        17.20492
416.94        17.18164
417.39        17.15373
417.83        17.14741
418.28        17.16781
418.73        17.20039
419.17        17.23895
419.62        17.27579
420.07        17.30379
420.51        17.32006
420.96        17.31541
421.41        17.27113
421.85        17.18387
422.30        17.06127
422.74        16.91917
423.19        16.85586
423.64        16.85371
424.08        16.80224
424.53        16.71099
424.98        16.72506
425.42        16.85888
425.87        16.99041
426.31        17.08968
426.76        17.23686
427.21        17.36903
427.65        17.25346
428.10        16.97716
428.54        16.86168
428.99        16.94315
429.44        17.11108
429.88        17.27839
430.33        17.26567
430.77        17.09892
431.22        17.07411
431.66          17.194
432.11        17.20821
432.56        17.12544
433.00        17.14633
433.45        17.20893
433.89        17.10413
434.34        16.95285
434.78        16.65306
435.23        17.12423
435.67          17.237
436.12        17.22057
436.57        17.13613
437.01        17.01617
437.46        16.92524
437.90        16.87266
438.35        16.79301
438.79        16.70935
439.24        16.71253
439.68        16.80678
440.13        16.96782
440.57          17.137
441.02        17.23049
441.46         17.2243
441.91        17.10155
442.35        16.93079
442.80        16.97493
443.24        17.17708
443.69        17.21852
444.13        17.09586
444.58        17.07707
445.02        17.15918
445.47        17.18511
445.91        17.15668
446.36        17.15932
446.80        17.19183
447.24        17.23052
447.69        17.25939
448.13        17.24758
448.58        17.19568
449.02        17.11546
449.47        17.03637
449.91        16.99318
450.36        17.00004
450.80        17.04279
451.25        17.10442
451.69        17.14774
452.13        17.16336
452.58        17.15423
453.02        17.13439
453.47         17.1295
453.91        17.14402
454.36        17.17394
454.80        17.18687
455.24        17.13152
455.69        17.01082
456.13        16.83679
456.58        16.68281
457.02        16.62941
457.46        16.69625
457.91        16.85176
458.35        17.01914
458.79        17.08053
459.24        17.02494
459.68        16.88235
460.13        16.73277
460.57        16.65272
461.01        16.67457
461.46        16.75405
461.90        16.86848
462.34         16.9671
462.79         17.0231
463.23        17.05943
463.68        17.05714
464.12        16.99556
464.56        16.87861
465.01        16.73794
465.45        16.59218
465.89        16.51286
466.34        16.50868
466.78        16.55828
467.22        16.64074
467.67        16.70033
468.11        16.72833
468.55        16.73206
468.99        16.72523
469.44        16.72877
469.88        16.75012
470.32        16.77802
470.77        16.80798
471.21        16.83861
471.65        16.86554
472.10        16.89293
472.54        16.91406
472.98        16.92363
473.42        16.92154
473.87        16.91544
474.31        16.90121
474.75        16.88904
475.20        16.88662
475.64        16.88681
476.08        16.89572
476.52        16.91339
476.97        16.93849
477.41        16.97664
477.85        17.02922
478.29        17.07221
478.74        17.11636
479.18         17.2076
479.62        17.31908
480.06        17.38006
480.50        17.38873
480.95        17.35467
481.39         17.2954
481.83        17.41069
482.27        17.44588
482.72        17.57973
483.16        17.71756
483.60        17.79162
484.04        17.79117
484.48         17.8605
484.93        17.98899
485.37        17.83382
485.81        18.01902
486.25        18.03992
486.69        17.45064
487.14        18.17509
487.58        19.37914
488.02        19.13085
488.46        18.40367
488.90        18.46798
489.34         18.6934
489.79        19.02516
490.23        19.00654
490.67        19.09899
491.11        19.25065
491.55        19.27055
491.99        19.21409
492.43        19.25027
492.88        19.39997
493.32        19.58356
493.76        19.76903
494.20         19.9469
494.64         20.1102
495.08        20.22278
495.52         20.2934
495.96        20.46859
496.41        20.70961
496.85        20.69941
497.29        20.49382
497.73        20.65905
498.17        20.89714
498.61        21.07063
499.05        21.07017
499.49        21.11368
499.93        21.16434
500.37        21.32746
500.82        21.55793
501.26        21.72462
501.70        21.80948
502.14        21.89414
502.58        21.99787
503.02        22.10737
503.46        22.22504
503.90        22.35459
504.34        22.46936
504.78        22.52456
505.22        22.51601
505.66        22.46326
506.10        22.40697
506.54         22.4113
506.98        22.49143
507.42        22.62496
507.86        22.78717
508.30        22.93606
508.74        23.05329
509.18           23.15
509.62        23.21855
510.06         23.2484
510.50        23.24306
510.94        23.20441
511.38        23.16149
511.82        23.16243
512.26        23.21919
512.70         23.3232
513.14        23.44424
513.58        23.53003
514.02        23.56618
514.46        23.56409
514.90         23.5522
515.34        23.57781
515.78        23.64867
516.22        23.74544
516.66         23.8321
517.10        23.85309
517.54        23.79821
517.98         23.6911
518.42        23.56651
518.86         23.4782
519.30        23.44331
519.74        23.44588
520.18        23.47278
520.62        23.50224
521.06        23.52479
521.50        23.54799
521.93        23.56766
522.37        23.56716
522.81        23.54783
523.25        23.50959
523.69        23.46457
524.13         23.4348
524.57        23.42305
525.01        23.42028
525.45        23.41417
525.89        23.38449
526.32        23.32352
526.76        23.24552
527.20        23.15337
527.64        23.05296
528.08        22.95077
528.52        22.84815
528.96        22.75681
529.40        22.69429
529.83        22.66203
530.27        22.65544
530.71        22.65928
531.15        22.65062
531.59        22.62228
532.03        22.57874
532.46        22.52159
532.90        22.47074
533.34        22.42724
533.78        22.37401
534.22        22.31297
534.66        22.27466
535.09         22.2444
535.53        22.17245
535.97        22.06858
536.41        22.00506
536.85        21.98803
537.28        21.97754
537.72        21.97984
538.16        22.02038
538.60        22.09641
539.04        22.19979
539.47        22.29931
539.91        22.36195
540.35         22.3781
540.79        22.36053
541.22        22.34136
541.66        22.38039
542.10         22.4866
542.54        22.64085
542.97        22.80863
543.41        22.94506
543.85        23.03564
544.29        23.10051
544.72        23.15491
545.16        23.23723
545.60        23.35464
546.04         23.4992
546.47         23.6708
546.91        23.86523
547.35        24.07203
547.79        24.28821
548.22        24.49956
548.66        24.67931
549.10        24.85176
549.53        25.01267
549.97        25.16318
550.41        25.24966
550.84        25.30291
551.28        25.39529
551.72        25.52387
552.15        25.70319
552.59        25.96436
553.03        25.92019
553.46        26.32565
553.90        26.46508
554.34        26.55838
554.77         26.6157
555.21        26.67429
555.65        26.77184
556.08        26.90616
556.52        27.05015
556.96        27.17199
557.39         27.2975
557.83        27.39884
558.27        27.33465
558.70        27.16338
559.14        27.14035
559.57        27.26823
560.01        27.39368
560.45        27.49095
560.88        27.60703
561.32        27.74528
561.75        27.86365
562.19        27.96618
562.63         28.0534
563.06        28.12153
563.50        28.17371
563.93        28.19926
564.37        28.25632
564.80        28.36066
565.24          28.431
565.68        28.40393
566.11        28.79733
566.55          28.576
566.98        28.60693
567.42        28.64122
567.85        28.74622
568.29        28.93827
568.72        29.19657
569.16        29.50702
569.60        29.76065
570.03        29.92557
570.47        30.09947
570.90        30.28383
571.34        30.31428
571.77         30.3191
572.21        30.83043
572.64        30.53276
573.08        31.02654
573.51        30.96299
573.95         31.0986
574.38         31.2402
574.82        31.40159
