SpectraSmart Spectrum 2.9.0.0
--------- Device Information -----------
Spectrum Name :  反射率_0
Saving Time :  2024/04/26 21:28:54
Spectro-Module Model Name : SE2030-DUVN
Spectro-Module Serial Number : OS361AC55029948
Wavelength Start : 200
Wavelength End : 1025
Wavelength Unit : Wavelength(nm)
Spectrum Unit : Reflectance(%)
-----------Spectrum Setting ------------
Integration Time : 20ms
Average : 10
Boxcar : 0
Background removal :  enabled
linearity correction :  enabled
SC :  disabled
Intensity correction :  disabled
DWT denoise :  enabled
savitzky-golay :  disabled
FFT :  disabled
Running average :  disabled
Kalman :  disabled
High pass :  disabled
---------------BEGIN--------------------
Wavelength(nm)             Reflectance(%)
200.29               0
200.75        40.19539
201.21        39.64168
201.67        38.83792
202.13        37.79184
202.58        36.38472
203.04        34.74206
203.50        33.02408
203.96        31.94704
204.42         32.1764
204.88        33.70002
205.34        36.18836
205.80        38.74741
206.26        40.56561
206.72        41.34409
207.18         41.2492
207.64        40.47004
208.10        39.06086
208.55        37.22172
209.01        33.84945
209.47        29.21025
209.93        25.68683
210.39        23.96852
210.85        24.16979
211.31        26.50597
211.77        31.90888
212.23        44.58917
212.69        75.90165
213.14        126.0154
213.60        119.0486
214.06        79.61246
214.52        54.91758
214.98        45.96456
215.44        44.65919
215.90        46.21957
216.36        49.04267
216.81        51.02541
217.27        51.71883
217.73        52.95429
218.19        53.39948
218.65        49.02258
219.11        41.81061
219.57        35.15192
220.02        32.66033
220.48        36.70035
220.94        47.46656
221.40         67.1175
221.86         95.2636
222.32        113.7877
222.77        107.0411
223.23        86.97774
223.69        67.39901
224.15        56.28356
224.61         52.1316
225.06        50.96309
225.52        51.61502
225.98        52.94904
226.44        54.50183
226.90        56.74165
227.36        58.72736
227.81        58.63967
228.27        56.53024
228.73        53.06539
229.19        49.84426
229.65        48.72643
230.10         49.7665
230.56        52.34436
231.02        55.23032
231.48        56.46274
231.93         55.6087
232.39        53.67664
232.85        51.69086
233.31        51.01163
233.77        51.78568
234.22        53.53676
234.68        55.49901
235.14        56.61518
235.60         56.5577
236.05        55.63662
236.51         54.2847
236.97         53.4753
237.43        53.62585
237.88        54.54665
238.34        55.71862
238.80        56.51994
239.26         56.7542
239.71        56.83378
240.17        56.81322
240.63        57.56273
241.08        59.72267
241.54        62.80627
242.00        66.85303
242.46        72.12292
242.91        79.55746
243.37        89.83987
243.83        103.4237
244.28        115.1096
244.74        116.0275
245.20         105.689
245.66        91.47023
246.11        79.72189
246.57        71.23271
247.03        64.04236
247.48        58.44296
247.94        55.65458
248.40        55.63141
248.85        57.20382
249.31        58.76892
249.77        58.57323
250.22        56.30872
250.68        51.74787
251.14        45.97323
251.59        43.49531
252.05        46.84866
252.51        54.11449
252.96        60.31605
253.42        61.31028
253.88        57.89316
254.33        52.10902
254.79        48.00904
255.25        48.88398
255.70        54.23576
256.16        62.38745
256.62        69.49802
257.07        69.92076
257.53        65.07629
257.99        58.62537
258.44         53.2704
258.90        51.29695
259.35        51.68079
259.81        53.45072
260.27        55.27684
260.72        55.63635
261.18        54.64557
261.63        52.76494
262.09        51.03772
262.55        50.08842
263.00        49.80219
263.46        49.97408
263.91        49.90803
264.37        49.01252
264.83          47.308
265.28         45.1516
265.74        43.26368
266.19        42.25761
266.65        42.23818
267.11        42.83533
267.56        43.64468
268.02        44.02369
268.47        43.77641
268.93        43.14277
269.38         42.2387
269.84        41.30062
270.30        40.41539
270.75        39.48393
271.21        38.64759
271.66        38.08363
272.12        37.79975
272.57         37.7322
273.03        37.65292
273.48         37.1639
273.94        36.25417
274.39        35.05243
274.85        33.85125
275.31        32.92263
275.76        32.31051
276.22        31.94475
276.67        31.71232
277.13        31.53995
277.58        31.33305
278.04        31.13373
278.49        30.86247
278.95        30.51192
279.40        30.03523
279.86        29.50552
280.31        28.89927
280.77        28.29248
281.22        27.67929
281.68        27.11369
282.13        26.61367
282.59        26.27555
283.04        26.07363
283.50         25.9987
283.95        25.97322
284.41        25.88634
284.86        25.70384
285.32        25.46896
285.77         25.2231
286.22        25.08539
286.68        25.06734
287.13        25.09516
287.59        25.10665
288.04         24.9673
288.50        24.68114
288.95        24.28187
289.41        23.86056
289.86        23.48656
290.32        23.21695
290.77         23.0193
291.22        22.89775
291.68        22.84281
292.13        22.84043
292.59        22.91339
293.04        23.05457
293.50        23.26867
293.95        23.54083
294.40         23.8596
294.86        24.21776
295.31        24.60184
295.77        25.00897
296.22        25.43155
296.68        25.85613
297.13        26.25173
297.58        26.62073
298.04        26.97069
298.49         27.3335
298.95        27.77566
299.40        28.29555
299.85        28.87005
300.31        29.44008
300.76         29.9066
301.21        30.25163
301.67        30.51844
302.12        30.73814
302.58        31.01323
303.03        31.34062
303.48        31.70415
303.94        32.07833
304.39        32.39581
304.84        32.65181
305.30        32.87653
305.75        33.06178
306.20        33.24577
306.66        33.44116
307.11        33.61663
307.57        33.77092
308.02        33.86041
308.47        33.88842
308.93        33.87629
309.38        33.82765
309.83        33.79216
310.29        33.78006
310.74        33.77372
311.19        33.74969
311.65        33.66529
312.10        33.50853
312.55        33.29528
313.00        33.06516
313.46        32.87266
313.91         32.7181
314.36        32.59638
314.82        32.46682
315.27        32.27532
315.72        32.01066
316.18        31.70036
316.63        31.38827
317.08         31.1551
317.53        31.01267
317.99        30.92793
318.44        30.84921
318.89        30.68297
319.35        30.40632
319.80        30.04815
320.25        29.65702
320.70        29.31013
321.16        29.02998
321.61        28.80791
322.06        28.60953
322.51        28.38117
322.97        28.10598
323.42        27.80395
323.87        27.52017
324.32        27.32999
324.78        27.23361
325.23        27.21703
325.68        27.18583
326.13        26.99335
326.59        26.61091
327.04        26.10137
327.49        25.57133
327.94        25.18699
328.39        24.98646
328.85        24.91011
329.30        24.90982
329.75        24.84965
330.20        24.68495
330.66        24.45225
331.11        24.19595
331.56        23.96482
332.01         23.7753
332.46        23.59937
332.92        23.41579
333.37        23.23716
333.82        23.04975
334.27        22.86551
334.72        22.68347
335.17        22.49265
335.63         22.2957
336.08        22.11663
336.53        21.96568
336.98        21.86708
337.43        21.82566
337.88        21.82176
338.34        21.85981
338.79        21.96977
339.24        22.13048
339.69        22.32553
340.14        22.47091
340.59        22.43746
341.05        22.21491
341.50        21.84717
341.95        21.44679
342.40        21.18785
342.85        21.11294
343.30        21.16881
343.75        21.28687
344.20        21.35149
344.66        21.32642
345.11        21.24915
345.56        21.13249
346.01        20.99549
346.46        20.85642
346.91        20.70834
347.36        20.57947
347.81         20.5199
348.26        20.53562
348.72        20.61314
349.17        20.71291
349.62        20.78023
350.07        20.79482
350.52        20.76696
350.97        20.70207
351.42        20.61398
351.87        20.51177
352.32        20.39352
352.77        20.26843
353.22        20.14781
353.67        20.03632
354.13        19.93981
354.58        19.85505
355.03        19.78012
355.48        19.71424
355.93        19.65406
356.38        19.60612
356.83        19.58071
357.28        19.57172
357.73        19.56838
358.18         19.5409
358.63        19.44466
359.08        19.27458
359.53        19.05094
359.98        18.80814
360.43        18.59481
360.88        18.42519
361.33         18.2885
361.78        18.17517
362.23         18.0689
362.68        17.96403
363.13        17.86636
363.58        17.77358
364.03        17.68057
364.48        17.58252
364.93        17.47304
365.38        17.35364
365.83        17.23023
366.28        17.10647
366.73         16.9871
367.18        16.86234
367.63        16.71593
368.08        16.54802
368.53        16.36256
368.98        16.19068
369.43        16.08116
369.88        16.03883
370.33        16.04682
370.78        16.05434
371.23        15.97692
371.68        15.79758
372.13        15.54745
372.58        15.28057
373.03        15.08316
373.48        14.97945
373.93        14.94035
374.38        14.94063
374.83        14.93976
375.28        14.91701
375.72        14.87773
376.17        14.82119
376.62        14.72489
377.07         14.5919
377.52        14.43161
377.97        14.26473
378.42        14.13156
378.87        14.04387
379.32        13.98569
379.77        13.95859
380.22        13.96157
380.67        13.98539
381.11        14.03592
381.56        14.05956
382.01         13.9816
382.46        13.79614
382.91        13.53329
383.36        13.27631
383.81        13.14041
384.26        13.14347
384.71         13.2546
385.15        13.39882
385.60        13.45243
386.05        13.38329
386.50        13.23253
386.95        13.07183
387.40        13.01177
387.85        13.06999
388.29        13.18765
388.74        13.31884
389.19        13.37666
389.64         13.3414
390.09        13.23903
390.54        13.09603
390.98        12.95208
391.43          12.836
391.88        12.73994
392.33        12.65617
392.78        12.57249
393.23        12.48863
393.67        12.40735
394.12        12.35777
394.57        12.35417
395.02        12.39626
395.47        12.47124
395.91        12.55461
396.36         12.5972
396.81        12.59249
397.26        12.55282
397.71        12.49692
398.15        12.46233
398.60        12.47133
399.05         12.4591
399.50          12.428
399.95        12.47368
400.39        12.55335
400.84        12.45097
401.29        12.20334
401.74        12.06218
402.18        12.05371
402.63        12.04398
403.08        12.02936
403.53        12.05792
403.97        12.12328
404.42        12.20922
404.87        12.29303
405.32        12.33663
405.76        12.32749
406.21         12.2795
406.66        12.21248
407.11        12.16192
407.55        12.14103
408.00         12.1352
408.45        12.13064
408.90        12.09732
409.34        12.02983
409.79        11.94486
410.24        11.86385
410.68         11.8092
411.13        11.78915
411.58         11.7947
412.03        11.81084
412.47        11.81353
412.92        11.79187
413.37        11.75721
413.81        11.72198
414.26        11.71375
414.71        11.73341
415.15        11.77467
415.60        11.82047
416.05        11.84991
416.49        11.85616
416.94        11.84422
417.39        11.82365
417.83        11.80888
418.28        11.80242
418.73        11.79632
419.17        11.78882
419.62        11.77815
420.07        11.76249
420.51        11.74124
420.96        11.70954
421.41        11.65678
421.85        11.58044
422.30        11.48505
422.74        11.38102
423.19        11.33449
423.64        11.33285
424.08        11.30391
424.53        11.24707
424.98        11.25087
425.42        11.32326
425.87        11.38187
426.31        11.42165
426.76        11.52123
427.21        11.64072
427.65        11.61667
428.10        11.47844
428.54        11.39607
428.99        11.38896
429.44        11.40815
429.88        11.42616
430.33        11.35697
430.77        11.23572
431.22        11.27062
431.66        11.43804
432.11        11.49832
432.56        11.44073
433.00        11.42946
433.45        11.42791
433.89        11.29579
434.34        11.12691
434.78         10.8605
435.23        11.10392
435.67         11.1315
436.12        11.09412
436.57        11.02679
437.01        10.95236
437.46        10.91305
437.90        10.91128
438.35        10.90388
438.79        10.88385
439.24        10.87812
439.68        10.88563
440.13         10.8956
440.57        10.90762
441.02        10.93233
441.46        10.96635
441.91        10.97668
442.35        10.95566
442.80        11.00137
443.24        11.06619
443.69        10.96775
444.13        10.75449
444.58        10.67552
445.02        10.74531
445.47        10.83994
445.91        10.91629
446.36         10.9594
446.80        10.95216
447.24        10.90394
447.69         10.8365
448.13        10.77847
448.58        10.74371
449.02        10.72133
449.47        10.71268
449.91        10.71583
450.36        10.72931
450.80        10.75166
451.25        10.77545
451.69        10.78174
452.13        10.76745
452.58        10.73545
453.02        10.69205
453.47        10.65069
453.91        10.61684
454.36        10.59026
454.80        10.56708
455.24        10.53887
455.69        10.50792
456.13        10.46967
456.58        10.44286
457.02        10.43747
457.46          10.458
457.91        10.49669
458.35        10.52646
458.79        10.50608
459.24         10.4408
459.68        10.34141
460.13        10.24961
460.57        10.19854
461.01        10.20584
461.46        10.24844
461.90        10.31987
462.34        10.39843
462.79        10.46705
463.23        10.53195
463.68        10.56905
464.12        10.54716
464.56        10.46522
465.01        10.35315
465.45        10.22805
465.89        10.14117
466.34        10.10154
466.78        10.09276
467.22        10.11428
467.67        10.15359
468.11        10.20734
468.55          10.273
468.99        10.33229
469.44        10.35464
469.88        10.33452
470.32        10.27779
470.77        10.20865
471.21        10.17128
471.65        10.17628
472.10        10.21517
472.54        10.26524
472.98        10.29424
473.42        10.29388
473.87        10.27756
474.31        10.25606
474.75        10.25588
475.20        10.28361
475.64        10.32408
476.08        10.36474
476.52        10.38145
476.97         10.3702
477.41        10.34652
477.85        10.32461
478.29        10.31171
478.74         10.3219
479.18        10.37364
479.62        10.45355
480.06        10.52318
480.50        10.57578
480.95         10.6152
481.39        10.62889
481.83        10.70082
482.27        10.67406
482.72        10.68163
483.16        10.69583
483.60        10.71087
484.04        10.71079
484.48        10.82123
484.93        11.05826
485.37        11.00669
485.81        10.99119
486.25        11.51896
486.69         11.0302
487.14        11.28856
487.58        11.84896
488.02        11.65799
488.46        11.49285
488.90        11.51945
489.34        11.37223
489.79        11.51824
490.23        11.70069
490.67        11.91418
491.11        12.08245
491.55        12.10157
491.99        12.01265
492.43        12.00264
492.88        12.09258
493.32        12.15722
493.76        12.19558
494.20        12.27977
494.64        12.41463
495.08        12.55466
495.52        12.68232
495.96         12.8525
496.41        13.02954
496.85        13.02515
497.29        12.88953
497.73        13.00291
498.17        13.18372
498.61        13.33454
499.05        13.37659
499.49        13.43344
499.93        13.47771
500.37        13.58545
500.82        13.72764
501.26        13.81815
501.70        13.84952
502.14        13.87462
502.58         13.9227
503.02        14.01284
503.46        14.14932
503.90        14.32457
504.34        14.49516
504.78        14.58798
505.22        14.58804
505.66        14.52051
506.10        14.43189
506.54        14.39698
506.98        14.43707
507.42         14.5295
507.86        14.65189
508.30        14.76592
508.74        14.85607
509.18        14.93493
509.62        15.00001
510.06        15.04691
510.50        15.07694
510.94         15.0863
511.38        15.09002
511.82        15.11494
512.26         15.1672
512.70        15.24347
513.14        15.32213
513.58        15.36654
514.02        15.36853
514.46        15.33608
514.90        15.29916
515.34        15.30621
515.78        15.36572
516.22        15.46222
516.66        15.55412
517.10        15.57545
517.54          15.514
517.98        15.39349
518.42        15.26107
518.86        15.19117
519.30        15.20224
519.74        15.27014
520.18        15.35812
520.62        15.40822
521.06        15.40415
521.50        15.36471
521.93          15.311
522.37        15.27114
522.81        15.25666
523.25        15.25352
523.69        15.25279
524.13        15.24311
524.57        15.21955
525.01        15.18739
525.45        15.14529
525.89         15.0899
526.32        15.02126
526.76         14.9441
527.20        14.86537
527.64        14.79763
528.08        14.74407
528.52        14.70252
528.96        14.66702
529.40        14.62704
529.83        14.57987
530.27        14.52925
530.71        14.47899
531.15        14.43692
531.59        14.40476
532.03        14.37792
532.46        14.35067
532.90        14.32499
533.34        14.29736
533.78        14.26148
534.22        14.21745
534.66         14.1819
535.09        14.14748
535.53        14.08479
535.97         14.0068
536.41         13.9705
536.85        13.98168
537.28         14.0097
537.72        14.05461
538.16        14.12591
538.60        14.21611
539.04        14.31882
539.47        14.40709
539.91        14.44994
540.35        14.44193
540.79        14.39754
541.22        14.34682
541.66        14.34371
542.10        14.40033
542.54        14.50165
542.97        14.62847
543.41        14.75461
543.85        14.86784
544.29        14.97811
544.72         15.0821
545.16        15.18547
545.60        15.28846
546.04        15.39039
546.47         15.5015
546.91         15.6369
547.35        15.79518
547.79        15.96953
548.22        16.14463
548.66        16.29391
549.10        16.43114
549.53        16.55636
549.97        16.67558
550.41        16.75977
550.84        16.83054
551.28        16.93479
551.72        17.06251
552.15        17.21102
552.59        17.39976
553.03        17.37324
553.46        17.65142
553.90        17.77621
554.34         17.8979
554.77        18.01497
555.21        18.13541
555.65        18.25652
556.08        18.36984
556.52        18.46657
556.96        18.53822
557.39        18.62353
557.83        18.70921
558.27        18.69046
558.70        18.60283
559.14        18.61408
559.57        18.72341
560.01        18.83066
560.45        18.91278
560.88        18.99308
561.32        19.07501
561.75        19.13199
562.19        19.18235
562.63        19.25138
563.06        19.33952
563.50        19.43975
563.93        19.52446
564.37        19.60136
564.80        19.67487
565.24        19.70025
565.68           19.65
566.11        19.90721
566.55        19.76346
566.98        19.81081
567.42        19.87428
567.85        19.98968
568.29        20.16442
568.72        20.39979
569.16        20.68527
569.60        20.88441
570.03        21.06155
570.47        21.21581
570.90         21.3859
571.34        21.41994
571.77        21.65791
572.21        21.83478
572.64         22.0116
573.08        22.17027
573.51        22.32988
573.95        22.41494
574.38        22.47448
574.82        22.70979
