SpectraSmart Spectrum 2.9.0.0
--------- Device Information -----------
Spectrum Name :  反射率_0
Saving Time :  2024/04/26 22:10:33
Spectro-Module Model Name : SE2030-DUVN
Spectro-Module Serial Number : OS361AC55029948
Wavelength Start : 200
Wavelength End : 1025
Wavelength Unit : Wavelength(nm)
Spectrum Unit : Reflectance(%)
-----------Spectrum Setting ------------
Integration Time : 20ms
Average : 10
Boxcar : 0
Background removal :  enabled
linearity correction :  enabled
SC :  disabled
Intensity correction :  disabled
DWT denoise :  enabled
savitzky-golay :  disabled
FFT :  disabled
Running average :  disabled
Kalman :  disabled
High pass :  disabled
---------------BEGIN--------------------
Wavelength(nm)             Reflectance(%)
200.29               0
200.75        35.57202
201.21        33.87621
201.67        33.55754
202.13        34.93581
202.58        37.92467
203.04        43.15639
203.50        50.43044
203.96        57.10566
204.42        60.78676
204.88        61.13062
205.34        58.45682
205.80        55.09615
206.26        52.31466
206.72        49.55773
207.18        47.47598
207.64        46.36029
208.10        46.02979
208.55         47.2126
209.01        48.67777
209.47        47.24751
209.93        43.05927
210.39        38.74918
210.85        36.57483
211.31        37.84383
211.77        43.39461
212.23         57.3517
212.69        93.07336
213.14        153.8028
213.60        151.7257
214.06        109.0903
214.52        80.28463
214.98        67.75269
215.44        62.87821
215.90        60.44172
216.36        59.31067
216.81        58.45355
217.27        57.75598
217.73        58.58352
218.19        60.45531
218.65        60.24734
219.11         57.8147
219.57        54.76723
220.02        53.93336
220.48         58.0806
220.94        67.57178
221.40        83.98619
221.86        106.6906
222.32         120.408
222.77        112.4863
223.23        93.69106
223.69        75.44391
224.15        63.88383
224.61        57.80083
225.06        54.22126
225.52        52.42849
225.98        51.51013
226.44        51.03918
226.90        51.29041
227.36        51.48571
227.81        50.32214
228.27        47.93814
228.73        44.75707
229.19        42.13559
229.65        41.64146
230.10        43.22655
230.56        46.34211
231.02        49.55247
231.48        50.55285
231.93        49.00473
232.39         46.1485
232.85        43.41848
233.31        42.70739
233.77        44.19054
234.22        47.13375
234.68         50.6131
235.14         53.3087
235.60        54.78083
236.05        55.52465
236.51        55.65826
236.97        55.45915
237.43        55.17683
237.88        54.70288
238.34        54.47647
238.80        55.61049
239.26        58.59613
239.71        64.06418
240.17        71.53599
240.63        78.99306
241.08        84.82782
241.54        88.16441
242.00        90.27071
242.46        94.95268
242.91        105.3235
243.37        122.3082
243.83        146.7512
244.28        168.8571
244.74        172.0583
245.20        155.7556
245.66        133.1476
246.11        115.9145
246.57        105.2741
247.03         98.0816
247.48        92.10445
247.94        85.50399
248.40        79.50446
248.85        75.02551
249.31        72.72168
249.77        72.18159
250.22        72.80743
250.68        74.35943
251.14         75.9786
251.59        75.30013
252.05        72.06591
252.51        68.35839
252.96        65.20255
253.42        63.68644
253.88        63.62421
254.33        63.99851
254.79        66.05262
255.25        70.65963
255.70         77.2767
256.16        85.35271
256.62        91.67847
257.07        91.45329
257.53        86.43438
257.99        79.85111
258.44        74.20634
258.90        71.85931
259.35        71.67001
259.81        72.85838
260.27        74.13773
260.72        74.05688
261.18        72.84327
261.63        70.85094
262.09        69.12219
262.55         68.1513
263.00        67.77997
263.46        67.86094
263.91        67.72897
264.37        66.95521
264.83        65.50197
265.28        63.62929
265.74        61.93515
266.19        60.77962
266.65         60.2798
267.11        60.12632
267.56        60.08987
268.02        59.83187
268.47         59.2318
268.93           58.46
269.38        57.46444
269.84         56.2344
270.30        54.80553
270.75        53.17649
271.21        51.64951
271.66        50.61348
272.12        50.12387
272.57        50.02716
273.03        49.97657
273.48        49.38551
273.94        48.21049
274.39         46.6391
274.85        45.06326
275.31        43.85478
275.76        43.06926
276.22        42.60258
276.67        42.27856
277.13        41.97641
277.58        41.56792
278.04        41.11932
278.49        40.57121
278.95        39.96809
279.40         39.2675
279.86        38.55816
280.31        37.76036
280.77        36.90148
281.22        35.96877
281.68        35.05389
282.13        34.25531
282.59        33.80646
283.04        33.67311
283.50        33.79964
283.95        33.97845
284.41        33.89675
284.86        33.49067
285.32        32.90662
285.77        32.30524
286.22        31.98725
286.68        32.00146
287.13        32.19117
287.59        32.46386
288.04        32.62848
288.50        32.64911
288.95        32.56006
289.41        32.38202
289.86        32.06061
290.32        31.66485
290.77        31.20845
291.22        30.82119
291.68         30.6808
292.13        30.81379
292.59        31.19476
293.04        31.74598
293.50         32.3575
293.95        32.96943
294.40        33.60122
294.86         34.2597
295.31        34.94852
295.77        35.67549
296.22        36.41551
296.68         37.1563
297.13         37.8701
297.58        38.56639
298.04        39.25775
298.49        39.98302
298.95        40.82294
299.40        41.76437
299.85        42.76644
300.31        43.75422
300.76        44.59473
301.21        45.26613
301.67        45.83329
302.12         46.3078
302.58        46.78417
303.03        47.26337
303.48        47.74867
303.94        48.28605
304.39        48.89403
304.84          49.579
305.30        50.33026
305.75        51.04988
306.20         51.6558
306.66        52.13754
307.11        52.50146
307.57        52.78786
308.02        52.99034
308.47        53.14384
308.93        53.25541
309.38        53.36403
309.83        53.60061
310.29        53.97672
310.74        54.44803
311.19        54.89028
311.65        55.08596
312.10        54.98339
312.55        54.65444
313.00        54.24982
313.46        53.99868
313.91        53.93682
314.36        54.00535
314.82        54.09711
315.27        54.05456
315.72        53.82616
316.18        53.48335
316.63        53.08073
317.08        52.72007
317.53        52.43264
317.99        52.18186
318.44        51.94666
318.89        51.68239
319.35        51.37769
319.80        51.05054
320.25        50.73009
320.70        50.45827
321.16        50.23738
321.61        50.06721
322.06        49.89354
322.51        49.63613
322.97        49.27279
323.42        48.83131
323.87        48.38872
324.32        48.07939
324.78        47.91203
325.23        47.87514
325.68        47.83636
326.13         47.5874
326.59        47.08545
327.04          46.418
327.49        45.72657
327.94         45.2364
328.39         44.9953
328.85         44.9119
329.30        44.92144
329.75        44.81573
330.20        44.53393
330.66        44.13742
331.11        43.70996
331.56        43.34464
332.01        43.07421
332.46        42.85059
332.92        42.64568
333.37        42.48946
333.82        42.35087
334.27        42.24274
334.72        42.12128
335.17        41.90347
335.63         41.5761
336.08        41.18882
336.53        40.81069
336.98        40.57626
337.43        40.51455
337.88         40.5667
338.34        40.67323
338.79        40.77588
339.24        40.81289
339.69        40.80328
340.14        40.68407
340.59        40.35813
341.05        39.84999
341.50        39.21045
341.95        38.58732
342.40        38.20501
342.85        38.11315
343.30        38.23798
343.75        38.49368
344.20        38.73119
344.66        38.88641
345.11        38.99136
345.56        39.00842
346.01        38.88585
346.46        38.63678
346.91        38.27803
347.36        37.90897
347.81         37.6965
348.26        37.67198
348.72        37.78537
349.17        37.95173
349.62        38.04229
350.07        38.01661
350.52        37.92421
350.97        37.76544
351.42         37.5451
351.87        37.28593
352.32        36.98265
352.77         36.7192
353.22        36.62119
353.67        36.70037
354.13        36.92491
354.58        37.16771
355.03        37.20911
355.48        36.99889
355.93         36.6016
356.38        36.16527
356.83        35.91664
357.28        35.89811
357.73        36.02938
358.18        36.17902
358.63        36.13556
359.08        35.84748
359.53        35.39639
359.98        34.88301
360.43        34.44944
360.88        34.13564
361.33        33.89525
361.78        33.69343
362.23        33.47926
362.68        33.23926
363.13        33.00357
363.58        32.77869
364.03        32.56461
364.48        32.36284
364.93        32.16313
365.38        31.97982
365.83        31.84448
366.28        31.75644
366.73        31.69939
367.18        31.63727
367.63        31.51303
368.08        31.31483
368.53        31.06481
368.98        30.78708
369.43        30.52013
369.88        30.28072
370.33        30.05937
370.78         29.8678
371.23        29.72477
371.68         29.6307
372.13        29.58239
372.58        29.54653
373.03         29.4674
373.48        29.32734
373.93          29.131
374.38        28.90938
374.83        28.71854
375.28        28.57144
375.72        28.44753
376.17        28.32399
376.62        28.12967
377.07        27.86079
377.52        27.54978
377.97        27.25568
378.42        27.07528
378.87        27.02728
379.32        27.06637
379.77        27.14485
380.22        27.19377
380.67        27.18406
381.11        27.13986
381.56        27.02584
382.01        26.81991
382.46        26.54098
382.91        26.21572
383.36        25.90834
383.81        25.70363
384.26        25.61282
384.71        25.61074
385.15        25.66287
385.60        25.70614
386.05        25.71415
386.50        25.70028
386.95        25.65681
387.40        25.57704
387.85        25.46564
388.29        25.30613
388.74        25.15596
389.19         25.0362
389.64        24.94983
390.09        24.88812
390.54        24.82615
390.98        24.71642
391.43        24.56961
391.88        24.40348
392.33        24.24813
392.78        24.14398
393.23        24.09586
393.67        24.07408
394.12         24.0816
394.57        24.07658
395.02        24.04701
395.47        23.99487
395.91        23.92914
396.36         23.8535
396.81        23.78732
397.26        23.73455
397.71        23.68493
398.15        23.63815
398.60        23.62213
399.05        23.53922
399.50        23.43295
399.95        23.53942
400.39        23.78478
400.84        23.73368
401.29        23.40588
401.74        23.20819
402.18        23.16718
402.63        23.04054
403.08        22.85416
403.53        22.74988
403.97        22.73569
404.42        22.78016
404.87        22.83005
405.32        22.79565
405.76        22.65767
406.21        22.45556
406.66        22.25778
407.11        22.17327
407.55        22.23001
408.00        22.38353
408.45        22.56271
408.90         22.6306
409.34        22.54522
409.79        22.35332
410.24        22.12938
410.68        21.97159
411.13        21.90902
411.58        21.91107
412.03        21.92974
412.47        21.88703
412.92        21.76102
413.37        21.59591
413.81        21.44259
414.26        21.38796
414.71        21.43835
415.15        21.56893
415.60         21.7282
416.05        21.84723
416.49        21.89832
416.94        21.89611
417.39        21.85855
417.83        21.81328
418.28        21.77138
418.73        21.72022
419.17        21.66889
419.62        21.63522
420.07         21.6226
420.51        21.62597
420.96        21.63189
421.41        21.61084
421.85        21.54982
422.30        21.44969
422.74         21.3233
423.19        21.28527
423.64        21.30848
424.08        21.25352
424.53        21.11658
424.98        21.05766
425.42        21.09526
425.87        21.08649
426.31        21.03871
426.76        21.11491
427.21        21.25544
427.65         21.1657
428.10        20.90736
428.54         20.8112
428.99        20.90814
429.44        21.04975
429.88        21.17577
430.33        21.21144
430.77        21.15702
431.22        21.18732
431.66        21.30217
432.11        21.32306
432.56        21.25903
433.00        21.27803
433.45        21.29278
433.89        21.07976
434.34         20.8014
434.78        20.33455
435.23        20.82668
435.67        20.93385
436.12        20.93895
436.57        20.90519
437.01        20.84961
437.46        20.80725
437.90        20.77588
438.35        20.69117
438.79        20.58189
439.24        20.56362
439.68        20.64326
440.13        20.78131
440.57         20.9368
441.02        21.04594
441.46        21.07982
441.91        21.04693
442.35        20.95924
442.80        20.94717
443.24        20.97749
443.69        20.90628
444.13        20.75905
444.58        20.71691
445.02        20.78555
445.47         20.8741
445.91        20.96122
446.36        21.05713
446.80        21.14369
447.24         21.2156
447.69        21.25837
448.13        21.24257
448.58        21.17429
449.02        21.06319
449.47        20.94516
449.91        20.86686
450.36        20.84759
450.80        20.86868
451.25         20.9205
451.69        20.97144
452.13        21.01153
452.58        21.04351
453.02        21.05892
453.47        21.04774
453.91        21.00956
454.36         20.9504
454.80        20.87309
455.24        20.78452
455.69        20.69732
456.13        20.59818
456.58        20.52253
457.02        20.48887
457.46        20.50551
457.91        20.56398
458.35        20.60964
458.79        20.56247
459.24        20.42988
459.68        20.23021
460.13        20.04574
460.57        19.94924
461.01        19.97112
461.46        20.06653
461.90        20.20673
462.34        20.32629
462.79        20.39278
463.23        20.43273
463.68        20.42537
464.12        20.35192
464.56        20.21803
465.01        20.05746
465.45        19.89462
465.89        19.81855
466.34        19.83851
466.78        19.92804
467.22        20.05095
467.67        20.12082
468.11        20.12349
468.55        20.07387
468.99        20.00521
469.44        19.96983
469.88        19.98412
470.32        20.02773
470.77        20.08224
471.21        20.12333
471.65        20.14041
472.10        20.14686
472.54         20.1447
472.98        20.14232
473.42        20.14365
473.87        20.15145
474.31        20.15619
474.75        20.16388
475.20        20.18026
475.64        20.19778
476.08        20.22318
476.52        20.25511
476.97        20.29267
477.41        20.34483
477.85        20.41266
478.29        20.46686
478.74        20.52176
479.18        20.63308
479.62        20.77796
480.06         20.8815
480.50        20.93535
480.95        20.96418
481.39        20.97687
481.83        21.13685
482.27        21.11669
482.72        21.38935
483.16        21.42996
483.60         21.5083
484.04        21.48158
484.48        21.57773
484.93        21.77287
485.37        21.52834
485.81        21.62603
486.25        21.85616
486.69        21.11241
487.14        22.12572
487.58        23.31978
488.02        23.12178
488.46        22.57666
488.90         22.7336
489.34        22.82876
489.79        23.31009
490.23        23.57574
490.67        23.62489
491.11        23.46827
491.55        23.40452
491.99        23.50867
492.43        23.62349
492.88        23.76488
493.32        24.04045
493.76        24.39044
494.20        24.67444
494.64        24.87111
495.08        24.96929
495.52        25.00045
495.96        25.17593
496.41        25.46076
496.85        25.46913
497.29        25.25879
497.73        25.47977
498.17         25.7749
498.61        26.05186
499.05        26.15773
499.49         26.2677
499.93        26.32625
500.37        26.50683
500.82        26.77205
501.26        26.97244
501.70        27.09259
502.14        27.23257
502.58        27.39404
503.02        27.52365
503.46        27.62006
503.90        27.70147
504.34        27.76831
504.78        27.82072
505.22        27.86288
505.66        27.89429
506.10        27.93048
506.54        27.99682
506.98        28.09613
507.42        28.22027
507.86        28.34631
508.30        28.43566
508.74        28.47894
509.18        28.48801
509.62         28.4817
510.06        28.49215
510.50        28.52901
510.94         28.5816
511.38        28.64492
511.82        28.70929
512.26        28.77194
512.70        28.84229
513.14         28.9115
513.58        28.96399
514.02        28.99793
514.46        29.01054
514.90        29.02903
515.34        29.10024
515.78        29.22561
516.22        29.38525
516.66        29.52495
517.10        29.55816
517.54        29.47059
517.98        29.29738
518.42        29.09336
518.86        28.94644
519.30        28.88443
519.74        28.88085
520.18        28.92023
520.62        28.97513
521.06        29.03147
521.50        29.10174
521.93          29.164
522.37        29.17036
522.81        29.11789
523.25        29.01101
523.69        28.89557
524.13        28.84838
524.57        28.87967
525.01        28.96241
525.45        29.03958
525.89        29.01774
526.32        28.87528
526.76        28.65744
527.20        28.41171
527.64        28.21279
528.08        28.08598
528.52         28.0094
528.96        27.97444
529.40        27.96719
529.83        27.97495
530.27        28.00266
530.71        28.02838
531.15        28.01836
531.59        27.96505
532.03        27.87249
532.46        27.75555
532.90        27.66178
533.34        27.59806
533.78        27.53916
534.22        27.47597
534.66         27.4264
535.09        27.36851
535.53        27.24899
535.97        27.09067
536.41        26.99784
536.85        26.98291
537.28        26.99297
537.72        27.02847
538.16        27.10964
538.60        27.22869
539.04        27.37601
539.47        27.51998
539.91        27.63116
540.35        27.69763
540.79        27.72972
541.22        27.75084
541.66        27.80981
542.10        27.91456
542.54        28.05144
542.97        28.19866
543.41        28.33348
543.85        28.44568
544.29        28.54942
544.72        28.64801
545.16        28.76477
545.60        28.90021
546.04         29.0497
546.47        29.21953
546.91        29.41494
547.35        29.62823
547.79        29.85588
548.22        30.07366
548.66        30.23854
549.10        30.38016
549.53        30.49709
549.97        30.61173
550.41          30.689
550.84        30.76537
551.28        30.93404
551.72        31.16317
552.15         31.3704
552.59        31.56968
553.03        31.53024
553.46        31.83507
553.90        31.94587
554.34        32.02917
554.77        32.18224
555.21         32.2651
555.65        32.40615
556.08        32.54939
556.52        32.67452
556.96        32.77132
557.39        32.91584
557.83        33.08126
558.27        33.07684
558.70        32.93609
559.14        32.91273
559.57        33.00005
560.01        33.03506
560.45         33.0218
560.88        33.06833
561.32        33.19179
561.75        33.32519
562.19        33.45807
562.63        33.56697
563.06          33.638
563.50        33.68325
563.93        33.68922
564.37        33.72278
564.80         33.8048
565.24        33.83934
565.68        33.75808
566.11         34.1878
566.55        33.90135
566.98        33.92563
567.42        33.96343
567.85        34.08126
568.29        34.29233
568.72        34.59046
569.16        34.95621
569.60        35.17138
570.03        35.34146
570.47        35.47108
570.90        35.60656
571.34        35.58215
571.77        35.58036
572.21         35.9588
572.64        36.14684
573.08        36.42961
573.51        36.35673
573.95        36.31768
574.38        36.37681
574.82         36.5763
