SpectraSmart Spectrum 2.9.0.0
--------- Device Information -----------
Spectrum Name :  反射率_0
Saving Time :  2024/04/26 21:26:50
Spectro-Module Model Name : SE2030-DUVN
Spectro-Module Serial Number : OS361AC55029948
Wavelength Start : 200
Wavelength End : 1025
Wavelength Unit : Wavelength(nm)
Spectrum Unit : Reflectance(%)
-----------Spectrum Setting ------------
Integration Time : 20ms
Average : 10
Boxcar : 0
Background removal :  enabled
linearity correction :  enabled
SC :  disabled
Intensity correction :  disabled
DWT denoise :  enabled
savitzky-golay :  disabled
FFT :  disabled
Running average :  disabled
Kalman :  disabled
High pass :  disabled
---------------BEGIN--------------------
Wavelength(nm)             Reflectance(%)
200.29               0
200.75        48.64734
201.21         47.0432
201.67        45.58061
202.13        44.41954
202.58        43.43783
203.04        42.88614
203.50        43.31624
203.96        45.67568
204.42        50.32123
204.88        56.93464
205.34        63.41865
205.80        66.38557
206.26        65.09639
206.72        60.66788
207.18        55.79539
207.64         52.6841
208.10        51.35714
208.55        51.69742
209.01        52.55589
209.47        51.53514
209.93        48.71412
210.39        46.30895
210.85        45.65657
211.31        47.75204
211.77         53.7286
212.23        67.65856
212.69        103.7125
213.14        170.5662
213.60        178.5552
214.06        139.7002
214.52        110.0912
214.98        95.03698
215.44        86.64202
215.90          79.504
216.36        73.95348
216.81        71.51341
217.27        73.08652
217.73        80.78773
218.19        93.60084
218.65        100.1612
219.11        95.79589
219.57        87.00156
220.02        82.30093
220.48        88.11514
220.94        104.9731
221.40        135.1313
221.86        178.3826
222.32         208.307
222.77        200.3531
223.23        172.0389
223.69        142.2891
224.15         121.788
224.61        109.6259
225.06        101.2419
225.52        96.90195
225.98         96.5308
226.44        99.32412
226.90         105.174
227.36        111.5694
227.81        113.9419
228.27        111.7747
228.73        106.4591
229.19        101.4685
229.65        100.9523
230.10        104.9758
230.56        112.1243
231.02        119.0955
231.48        120.7146
231.93        116.3058
232.39        108.7418
232.85        101.2952
233.31        98.12457
233.77        99.61356
234.22        104.0836
234.68        109.5831
235.14        113.1245
235.60        113.6875
236.05        112.2972
236.51        109.2107
236.97        105.4492
237.43        101.7818
237.88        97.97948
238.34        94.68141
238.80        93.27044
239.26        94.15054
239.71        98.18414
240.17        104.3977
240.63        109.9211
241.08        112.8831
241.54         112.396
242.00        110.6341
242.46        112.8328
242.91         122.791
243.37         141.781
243.83        170.9317
244.28        198.1873
244.74        203.1055
245.20        184.1727
245.66          157.41
246.11        137.7675
246.57        126.4594
247.03        119.3173
247.48         112.314
247.94        101.4538
248.40        89.64285
248.85        80.13593
249.31        74.34663
249.77        71.92282
250.22        71.86423
250.68        73.39176
251.14         76.3232
251.59        79.41551
252.05        81.49969
252.51         83.1991
252.96        82.88914
253.42        79.80209
253.88         74.8784
254.33        68.86542
254.79        65.37798
255.25        67.27156
255.70        73.90007
256.16        83.83856
256.62         92.8933
257.07        94.58191
257.53        90.36391
257.99        84.15726
258.44        78.98836
258.90         77.7274
259.35        79.16167
259.81        82.24094
260.27        85.39021
260.72        86.73721
261.18        86.44845
261.63        84.99283
262.09        83.62407
262.55        82.95557
263.00        82.86587
263.46        83.24475
263.91        83.35598
264.37        82.78286
264.83        81.47758
265.28        79.70573
265.74        78.19114
266.19        77.37145
266.65        77.39254
267.11        77.89668
267.56         78.5218
268.02        78.71828
268.47        78.30875
268.93        77.53804
269.38         76.4872
269.84        75.37886
270.30        74.28912
270.75        73.12708
271.21         72.0848
271.66        71.36981
272.12        70.99191
272.57        70.82768
273.03        70.60525
273.48        69.83743
273.94         68.5277
274.39        66.82178
274.85        65.06319
275.31        63.49791
275.76        62.18408
276.22        61.12092
276.67        60.24415
277.13         59.6426
277.58        59.18628
278.04        58.87246
278.49        58.50729
278.95         57.9888
279.40        57.20452
279.86        56.31635
280.31        55.25104
280.77        54.10434
281.22        52.86553
281.68        51.64869
282.13        50.54313
282.59        49.82661
283.04        49.44498
283.50        49.34204
283.95        49.29788
284.41         49.0055
284.86        48.37952
285.32        47.55956
285.77        46.66452
286.22        45.95885
286.68        45.48977
287.13        45.12373
287.59        44.78658
288.04        44.29881
288.50        43.66989
288.95        42.93748
289.41        42.20771
289.86        41.52214
290.32         40.9546
290.77        40.45889
291.22        40.05088
291.68        39.73381
292.13        39.48038
292.59        39.30318
293.04        39.19254
293.50         39.1665
293.95        39.19928
294.40        39.27442
294.86         39.3506
295.31        39.35238
295.77        39.28392
296.22        39.17335
296.68        39.06756
297.13        39.01437
297.58        39.04497
298.04        39.14291
298.49        39.33241
298.95        39.67202
299.40        40.13476
299.85        40.68865
300.31        41.22532
300.76        41.56141
301.21        41.66871
301.67        41.61898
302.12        41.48457
302.58        41.45323
303.03        41.54025
303.48        41.71161
303.94        41.93632
304.39        42.12307
304.84         42.2584
305.30        42.37908
305.75        42.45526
306.20        42.50009
306.66        42.52916
307.11        42.51966
307.57        42.49192
308.02        42.42421
308.47        42.33201
308.93        42.22844
309.38        42.12282
309.83        42.08273
310.29        42.11297
310.74        42.18713
311.19        42.24134
311.65         42.1656
312.10        41.93677
312.55         41.5953
313.00        41.23111
313.46        40.97668
313.91        40.84701
314.36         40.8115
314.82        40.80037
315.27        40.71257
315.72        40.51655
316.18        40.25751
316.63        39.97397
317.08        39.74234
317.53        39.58016
317.99        39.45293
318.44        39.33729
318.89        39.18643
319.35        38.98577
319.80        38.75167
320.25        38.49808
320.70        38.24542
321.16        37.99997
321.61        37.76968
322.06        37.54292
322.51        37.30684
322.97        37.05455
323.42        36.79203
323.87        36.55087
324.32        36.38665
324.78        36.29274
325.23        36.27704
325.68        36.24299
326.13        36.03999
326.59        35.64536
327.04         35.1232
327.49        34.60995
327.94        34.32438
328.39         34.3102
328.85        34.48736
329.30        34.76093
329.75        34.88337
330.20        34.77565
330.66        34.50241
331.11        34.16528
331.56        33.90433
332.01        33.76598
332.46        33.69085
332.92        33.63879
333.37        33.60204
333.82        33.54508
334.27        33.49636
334.72        33.42371
335.17        33.26141
335.63        33.00541
336.08         32.6942
336.53        32.40702
336.98        32.29087
337.43        32.37836
337.88        32.61816
338.34        32.92405
338.79        33.18028
339.24        33.31664
339.69        33.35705
340.14        33.29767
340.59         33.1425
341.05         32.9216
341.50        32.64024
341.95        32.35186
342.40        32.13784
342.85        32.02534
343.30        32.00309
343.75        32.05853
344.20         32.1627
344.66         32.2967
345.11        32.45232
345.56        32.59813
346.01        32.69032
346.46        32.71711
346.91        32.68454
347.36         32.6057
347.81        32.50986
348.26        32.41118
348.72        32.30922
349.17        32.21374
349.62        32.15181
350.07        32.12866
350.52        32.14527
350.97        32.17299
351.42        32.16158
351.87        32.10108
352.32        32.00346
352.77        31.90659
353.22        31.86763
353.67        31.89309
354.13        31.96039
354.58          32.023
355.03        32.00592
355.48        31.89119
355.93         31.7054
356.38        31.49416
356.83        31.32495
357.28        31.21081
357.73        31.12369
358.18        31.03455
358.63        30.90025
359.08        30.70757
359.53        30.47497
359.98        30.20905
360.43        29.91245
360.88        29.59287
361.33        29.25634
361.78        28.92127
362.23        28.61983
362.68        28.36646
363.13        28.15846
363.58        27.99228
364.03        27.85681
364.48        27.74103
364.93        27.63983
365.38        27.54054
365.83        27.42643
366.28        27.29001
366.73        27.13009
367.18        26.94616
367.63         26.7406
368.08        26.51816
368.53        26.28452
368.98        26.04827
369.43        25.82084
369.88        25.60817
370.33        25.41086
370.78        25.23652
371.23        25.09509
371.68        24.98857
372.13        24.91587
372.58        24.85847
373.03        24.78693
373.48        24.68917
373.93        24.56095
374.38        24.42152
374.83         24.3071
375.28        24.22035
375.72        24.14299
376.17        24.04751
376.62        23.86146
377.07        23.58284
377.52        23.24679
377.97        22.91656
378.42        22.69658
378.87        22.61262
379.32        22.62329
379.77        22.68906
380.22         22.7504
380.67        22.77996
381.11        22.79844
381.56         22.7641
382.01        22.63602
382.46        22.42092
382.91        22.14131
383.36        21.86599
383.81         21.6895
384.26        21.62714
384.71        21.65598
385.15        21.72611
385.60        21.75183
386.05        21.70566
386.50        21.60808
386.95        21.49462
387.40        21.42216
387.85        21.39968
388.29        21.38904
388.74        21.37736
389.19        21.29859
389.64        21.14375
390.09        20.93215
390.54        20.70471
390.98        20.52453
391.43        20.42432
391.88        20.38337
392.33        20.36526
392.78        20.31586
393.23        20.22466
393.67         20.1008
394.12        19.99344
394.57        19.93335
395.02        19.92557
395.47        19.94923
395.91        19.98046
396.36         19.9699
396.81        19.91803
397.26        19.84594
397.71        19.76893
398.15        19.72059
398.60        19.73068
399.05        19.70275
399.50        19.65653
399.95        19.76841
400.39        19.97274
400.84        19.91365
401.29        19.61896
401.74        19.44654
402.18        19.42463
402.63        19.34492
403.08        19.22476
403.53        19.17823
403.97        19.20733
404.42         19.2831
404.87        19.35767
405.32        19.35015
405.76        19.24316
406.21        19.07425
406.66        18.89726
407.11        18.79861
407.55        18.80432
408.00         18.8786
408.45        18.98392
408.90        19.04323
409.34        19.02783
409.79        18.96377
410.24        18.87769
410.68        18.80055
411.13        18.74758
411.58        18.70658
412.03         18.6658
412.47        18.61191
412.92        18.54026
413.37        18.46874
413.81        18.41413
414.26        18.41328
414.71        18.46416
415.15         18.5599
415.60           18.67
416.05        18.75759
416.49        18.80685
416.94        18.82001
417.39        18.81012
417.83        18.79889
418.28        18.79235
418.73         18.7823
419.17        18.76463
419.62          18.734
420.07         18.6926
420.51        18.64465
420.96        18.60078
421.41        18.57019
421.85        18.54812
422.30        18.52322
422.74        18.48773
423.19        18.51488
423.64         18.5737
424.08        18.54941
424.53         18.4451
424.98        18.41142
425.42        18.46877
425.87        18.48986
426.31        18.47264
426.76        18.54844
427.21        18.66202
427.65        18.55901
428.10        18.31348
428.54        18.23146
428.99        18.34043
429.44        18.54033
429.88        18.74655
430.33        18.75489
430.77        18.60534
431.22        18.66199
431.66        18.90076
432.11        18.95647
432.56        18.82379
433.00        18.76709
433.45        18.73293
433.89        18.51015
434.34        18.25353
434.78        17.86263
435.23        18.32217
435.67        18.41539
436.12        18.38594
436.57         18.2984
437.01        18.19654
437.46        18.16218
437.90        18.19926
438.35        18.22453
438.79        18.22746
439.24        18.25943
439.68        18.31776
440.13        18.38984
440.57        18.44912
441.02        18.47025
441.46        18.44795
441.91        18.34772
442.35        18.21401
442.80        18.28864
443.24         18.5011
443.69         18.5195
444.13        18.35999
444.58        18.33978
445.02        18.46072
445.47        18.54181
445.91        18.55906
446.36          18.567
446.80        18.55784
447.24        18.51978
447.69        18.46498
448.13        18.40564
448.58        18.35304
449.02        18.30539
449.47        18.26903
449.91        18.24177
450.36        18.22782
450.80        18.22346
451.25        18.22966
451.69        18.23461
452.13        18.23675
452.58        18.23364
453.02        18.22279
453.47        18.20445
453.91        18.17927
454.36        18.15131
454.80        18.11536
455.24        18.06273
455.69        18.00018
456.13        17.91933
456.58        17.85538
457.02        17.83134
457.46        17.85753
457.91        17.92499
458.35        17.98503
458.79        17.96592
459.24        17.87267
459.68        17.71945
460.13        17.58138
460.57        17.52637
461.01        17.58109
461.46        17.70471
461.90        17.86117
462.34        17.97451
462.79        18.01277
463.23        18.00474
463.68        17.95064
464.12        17.86463
464.56        17.75883
465.01        17.65371
465.45        17.55056
465.89        17.50094
466.34        17.50762
466.78        17.55289
467.22        17.62118
467.67        17.66487
468.11        17.67803
468.55        17.66532
468.99        17.63102
469.44        17.58154
469.88        17.52482
470.32        17.45839
470.77        17.39966
471.21        17.37969
471.65        17.40215
472.10        17.46238
472.54        17.53247
472.98        17.57371
473.42        17.57489
473.87        17.54903
474.31         17.5068
474.75        17.48281
475.20        17.48897
475.64        17.51036
476.08        17.53234
476.52        17.52294
476.97        17.47856
477.41        17.42003
477.85        17.38037
478.29        17.38595
478.74         17.4581
479.18        17.62304
479.62        17.82618
480.06        17.95145
480.50        17.98106
480.95        17.93972
481.39        17.84923
481.83        17.91314
482.27        17.88089
482.72        17.95597
483.16         18.0502
483.60        18.08978
484.04        18.05393
484.48        18.11141
484.93        18.28934
485.37        18.11376
485.81        18.28137
486.25        18.57804
486.69        18.52095
487.14        18.93686
487.58        19.39841
488.02        18.85448
488.46        18.57528
488.90         18.7337
489.34        18.57505
489.79        18.75168
490.23        18.83791
490.67        18.96015
491.11        19.06651
491.55        19.07509
491.99        19.02996
492.43        19.05308
492.88        19.16399
493.32         19.2955
493.76        19.42928
494.20        19.56873
494.64        19.70737
495.08        19.82869
495.52        19.92789
495.96        20.05149
496.41        20.17982
496.85        20.19249
497.29         20.1071
497.73        20.20521
498.17        20.23073
498.61        20.36524
499.05        20.49037
499.49        20.54732
499.93        20.49092
500.37        20.57427
500.82         20.7652
501.26        20.89177
501.70        20.94129
502.14         21.0013
502.58          21.099
503.02        21.23672
503.46        21.41415
503.90        21.62398
504.34        21.81171
504.78        21.88948
505.22        21.84259
505.66        21.70309
506.10        21.53914
506.54        21.45935
506.98        21.49432
507.42        21.61368
507.86        21.77991
508.30        21.92911
508.74        22.03466
509.18        22.11094
509.62         22.1636
510.06        22.20159
510.50        22.22971
510.94        22.24348
511.38         22.2392
511.82        22.21497
512.26        22.17664
512.70        22.13224
513.14        22.10509
513.58         22.1293
514.02        22.20856
514.46        22.32759
514.90        22.45749
515.34        22.55127
515.78        22.59383
516.22        22.59797
516.66        22.57129
517.10        22.52874
517.54        22.48023
517.98          22.422
518.42         22.3703
518.86        22.35151
519.30        22.36887
519.74        22.41628
520.18         22.4702
520.62        22.49018
521.06        22.46792
521.50        22.41692
521.93        22.35713
522.37        22.31487
522.81        22.30226
523.25        22.30649
523.69        22.32256
524.13        22.34422
524.57        22.36395
525.01        22.38103
525.45        22.38247
525.89         22.3462
526.32        22.26913
526.76        22.16821
527.20        22.05641
527.64        21.95729
528.08        21.87945
528.52          21.814
528.96        21.77065
529.40        21.76326
529.83        21.78675
530.27        21.83714
530.71         21.8754
531.15        21.84059
531.59        21.72486
532.03        21.54967
532.46        21.36123
532.90        21.24895
533.34        21.22901
533.78        21.26192
534.22        21.31521
534.66        21.36355
535.09        21.37633
535.53         21.3229
535.97        21.22053
536.41        21.15148
536.85        21.12842
537.28        21.10523
537.72        21.09746
538.16        21.14826
538.60        21.25497
539.04        21.40291
539.47        21.54339
539.91        21.61381
540.35        21.59969
540.79         21.5265
541.22        21.43727
541.66        21.40942
542.10         21.4608
542.54        21.56706
542.97         21.7033
543.41          21.839
543.85        21.95724
544.29        22.07097
544.72        22.17087
545.16        22.25644
545.60        22.32716
546.04        22.38604
546.47        22.45371
546.91        22.56378
547.35        22.71918
547.79        22.90388
548.22        23.09483
548.66        23.26089
549.10        23.41457
549.53        23.53437
549.97        23.63132
550.41        23.69052
550.84         23.7436
551.28        23.83812
551.72         23.9603
552.15        24.11403
552.59        24.32588
553.03         24.2396
553.46        24.57043
553.90        24.66174
554.34        24.72385
554.77        24.76336
555.21        24.81556
555.65         24.9157
556.08        25.06012
556.52        25.22306
556.96        25.36825
557.39        25.51023
557.83        25.61972
558.27        25.56369
558.70        25.40193
559.14        25.38255
559.57         25.5098
560.01        25.63855
560.45        25.73489
560.88        25.82807
561.32        25.92041
561.75        25.97838
562.19        26.02308
562.63        26.08153
563.06        26.15461
563.50        26.23617
563.93        26.29635
564.37        26.35786
564.80        26.42889
565.24        26.44489
565.68        26.36425
566.11        26.69316
566.55        26.47819
566.98        26.51525
567.42        26.56676
567.85        26.67648
568.29        26.85559
568.72        27.10613
569.16        27.41827
569.60         27.6304
570.03        27.82995
570.47        27.98425
570.90        28.12918
571.34        28.17022
571.77         28.4175
572.21        28.57515
572.64        28.64038
573.08        28.94841
573.51        28.89843
573.95        28.91552
574.38        28.87945
574.82        29.45747
