SpectraSmart Spectrum 2.9.0.0
--------- Device Information -----------
Spectrum Name :  反射率_0
Saving Time :  2024/04/26 22:09:50
Spectro-Module Model Name : SE2030-DUVN
Spectro-Module Serial Number : OS361AC55029948
Wavelength Start : 200
Wavelength End : 1025
Wavelength Unit : Wavelength(nm)
Spectrum Unit : Reflectance(%)
-----------Spectrum Setting ------------
Integration Time : 20ms
Average : 10
Boxcar : 0
Background removal :  enabled
linearity correction :  enabled
SC :  disabled
Intensity correction :  disabled
DWT denoise :  enabled
savitzky-golay :  disabled
FFT :  disabled
Running average :  disabled
Kalman :  disabled
High pass :  disabled
---------------BEGIN--------------------
Wavelength(nm)             Reflectance(%)
200.29               0
200.75        40.28725
201.21        37.84401
201.67        36.18422
202.13        36.64742
202.58        39.37973
203.04        44.54529
203.50        52.28411
203.96        60.85422
204.42        68.09811
204.88        73.61709
205.34        75.90311
205.80        74.09325
206.26        69.00501
206.72        61.42162
207.18        54.46581
207.64        50.33177
208.10        48.73341
208.55         49.8911
209.01        51.96368
209.47        49.90894
209.93         43.6202
210.39        37.25592
210.85        33.79133
211.31        34.57885
211.77        40.25748
212.23        54.98548
212.69        92.78054
213.14        156.1628
213.60        152.8181
214.06         107.988
214.52         77.9832
214.98        64.96375
215.44        59.95089
215.90        57.24619
216.36        56.53117
216.81        58.23162
217.27        62.82303
217.73        72.88868
218.19        86.05301
218.65        87.96199
219.11        75.68692
219.57        59.49541
220.02        49.41976
220.48        50.33912
220.94        61.45436
221.40        84.19169
221.86        117.8092
222.32        140.1749
222.77        132.0817
223.23        108.0068
223.69        84.60035
224.15        71.38665
224.61        66.52429
225.06        65.28542
225.52        65.93671
225.98        66.64175
226.44        67.03815
226.90        67.98177
227.36        69.16359
227.81        69.78046
228.27        69.82958
228.73        69.11155
229.19        68.64142
229.65        69.81198
230.10        72.53934
230.56        76.42209
231.02        79.77091
231.48        79.91473
231.93        76.66407
232.39        71.69616
232.85        66.96151
233.31        64.98256
233.77        65.96474
234.22        68.90965
234.68         72.6536
235.14        75.45744
235.60        76.69409
236.05        76.97855
236.51        76.22056
236.97        74.48019
237.43         72.0286
237.88        68.83573
238.34        65.74675
238.80        64.46935
239.26        65.58482
239.71        69.66351
240.17        75.87653
240.63        81.46961
241.08        84.48509
241.54         84.1399
242.00        82.21693
242.46        83.14764
242.91        89.90829
243.37        103.2596
243.83        122.9735
244.28        137.4911
244.74        132.0408
245.20        109.6835
245.66        86.03822
246.11        73.20107
246.57        71.20026
247.03        75.70745
247.48        82.79358
247.94        85.52733
248.40        83.15705
248.85        79.07033
249.31        75.77117
249.77        74.11906
250.22        73.67226
250.68        73.41528
251.14        72.90007
251.59        71.51182
252.05        69.59789
252.51        68.57587
252.96        67.08786
253.42         63.9022
253.88        59.49961
254.33        54.43437
254.79        51.75058
255.25        53.86681
255.70        60.12603
256.16        69.19899
256.62        77.03465
257.07        77.59897
257.53        72.49583
257.99        65.59209
258.44        59.95817
258.90         58.2567
259.35         59.3144
259.81        62.00113
260.27        64.71146
260.72         65.5292
261.18        64.62491
261.63        62.66152
262.09        60.88707
262.55        60.06668
263.00        60.08244
263.46        60.65038
263.91        61.05906
264.37        60.77732
264.83        59.73825
265.28        58.22655
265.74        56.84267
266.19        55.97587
266.65        55.74951
267.11        55.86755
267.56        56.06591
268.02        55.94602
268.47        55.39292
268.93        54.60423
269.38        53.63571
269.84         52.6326
270.30        51.65069
270.75        50.62894
271.21        49.73886
271.66        49.17756
272.12        48.95635
272.57        48.97916
273.03        48.98446
273.48        48.52346
273.94        47.57981
274.39        46.28054
274.85        44.96054
275.31        43.92281
275.76        43.20917
276.22        42.74973
276.67        42.39462
277.13        42.05184
277.58          41.611
278.04        41.14203
278.49        40.58129
278.95        39.96878
279.40        39.26233
279.86        38.54728
280.31        37.77408
280.77        37.00912
281.22        36.23254
281.68        35.51824
282.13        34.89162
282.59        34.48898
283.04        34.26691
283.50        34.19655
283.95        34.15927
284.41        33.99293
284.86        33.65142
285.32        33.21427
285.77        32.73463
286.22        32.35895
286.68        32.11516
287.13        31.92189
287.59        31.75566
288.04        31.52908
288.50        31.25347
288.95        30.93743
289.41        30.61941
289.86        30.27547
290.32        29.95033
290.77        29.62738
291.22        29.35928
291.68        29.21021
292.13        29.17324
292.59        29.24259
293.04        29.36971
293.50        29.50012
293.95        29.60707
294.40        29.71254
294.86        29.83604
295.31        29.99953
295.77        30.22017
296.22        30.47949
296.68        30.78369
297.13        31.12682
297.58        31.50906
298.04        31.92982
298.49        32.37355
298.95        32.83231
299.40        33.28894
299.85        33.74302
300.31        34.18482
300.76        34.59079
301.21        34.96025
301.67        35.30899
302.12        35.63061
302.58        35.97754
303.03        36.32823
303.48        36.68607
303.94        37.03716
304.39         37.3258
304.84        37.55201
305.30         37.7338
305.75        37.86931
306.20        38.01275
306.66        38.18384
307.11        38.36082
307.57         38.5151
308.02        38.55076
308.47        38.47454
308.93        38.32508
309.38        38.18223
309.83        38.21746
310.29        38.45253
310.74        38.82375
311.19        39.19273
311.65        39.32832
312.10        39.17399
312.55        38.80684
313.00        38.37403
313.46        38.09567
313.91        38.01381
314.36        38.07336
314.82        38.17278
315.27        38.15861
315.72          37.985
316.18        37.71483
316.63        37.41922
317.08        37.22072
317.53        37.14383
317.99        37.13532
318.44        37.13067
318.89         37.0187
319.35        36.77243
319.80        36.43388
320.25        36.06022
320.70        35.73954
321.16        35.49852
321.61        35.32465
322.06        35.18673
322.51        35.03706
322.97        34.85508
323.42         34.6587
323.87        34.47545
324.32        34.35396
324.78        34.28753
325.23        34.27512
325.68        34.23737
326.13        34.05742
326.59        33.71595
327.04        33.26633
327.49         32.8083
327.94        32.50171
328.39         32.3787
328.85        32.37684
329.30        32.44215
329.75        32.40938
330.20         32.2291
330.66        31.94814
331.11         31.6314
331.56        31.35557
332.01        31.14983
332.46        30.97961
332.92        30.82914
333.37        30.72792
333.82         30.6547
334.27        30.61676
334.72        30.58003
335.17         30.4782
335.63        30.30003
336.08         30.0861
336.53        29.87858
336.98        29.76312
337.43        29.76015
337.88        29.82663
338.34        29.94461
338.79        30.11451
339.24        30.29647
339.69        30.48859
340.14        30.59486
340.59        30.46513
341.05        30.09978
341.50        29.55799
341.95        29.00052
342.40        28.67351
342.85        28.63528
343.30        28.81195
343.75        29.09845
344.20        29.31584
344.66         29.4005
345.11        29.39724
345.56        29.32544
346.01        29.21893
346.46        29.10164
346.91        28.96192
347.36        28.81937
347.81        28.71501
348.26        28.65853
348.72         28.6454
349.17        28.66879
349.62        28.72244
350.07        28.79678
350.52        28.89463
350.97        28.97236
351.42        28.96311
351.87        28.85699
352.32        28.66795
352.77        28.47081
353.22        28.37856
353.67         28.4099
354.13        28.53653
354.58        28.66734
355.03        28.65031
355.48        28.45574
355.93         28.1381
356.38        27.81013
356.83        27.63971
357.28        27.65631
357.73        27.79621
358.18        27.95919
358.63        27.98418
359.08        27.82573
359.53         27.5397
359.98        27.18806
360.43        26.85947
360.88        26.58334
361.33        26.33356
361.78        26.10208
362.23         25.8798
362.68        25.66781
363.13        25.48472
363.58        25.32913
364.03        25.18921
364.48        25.06096
364.93        24.93852
365.38        24.83517
365.83        24.77699
366.28        24.76267
366.73        24.77863
367.18        24.78551
367.63        24.72392
368.08        24.58332
368.53        24.38335
368.98        24.16626
369.43         23.9999
369.88        23.90236
370.33        23.85358
370.78        23.82405
371.23        23.76491
371.68        23.65881
372.13        23.51881
372.58        23.36127
373.03        23.21024
373.48        23.07358
373.93        22.94559
374.38        22.81181
374.83        22.65198
375.28        22.46667
375.72        22.26139
376.17        22.07975
376.62        21.95686
377.07        21.89823
377.52        21.89067
377.97        21.89867
378.42        21.86677
378.87        21.78064
379.32        21.65302
379.77        21.51808
380.22        21.42672
380.67        21.38528
381.11        21.38078
381.56        21.36228
382.01        21.26964
382.46        21.09706
382.91        20.88061
383.36        20.66613
383.81        20.51098
384.26        20.42544
384.71        20.38785
385.15        20.38301
385.60        20.38901
386.05         20.3904
386.50        20.38959
386.95        20.37114
387.40        20.31256
387.85         20.2149
388.29        20.07665
388.74        19.94111
389.19         19.8218
389.64        19.72246
390.09        19.63252
390.54        19.55462
390.98        19.48733
391.43         19.4414
391.88        19.41903
392.33        19.39721
392.78        19.34136
393.23        19.24962
393.67        19.12142
394.12        19.01613
394.57        18.98475
395.02        19.03233
395.47        19.13365
395.91        19.23779
396.36        19.24772
396.81        19.15335
397.26        18.99188
397.71        18.81118
398.15        18.69217
398.60        18.67487
399.05        18.65461
399.50         18.6291
399.95        18.73444
400.39        18.90141
400.84        18.80327
401.29        18.48488
401.74        18.31301
402.18        18.31956
402.63        18.29472
403.08        18.23476
403.53        18.21809
403.97        18.23947
404.42        18.28357
404.87        18.31393
405.32        18.26784
405.76        18.13687
406.21        17.95279
406.66        17.77537
407.11        17.70078
407.55        17.75309
408.00        17.89314
408.45        18.06631
408.90        18.16304
409.34        18.14515
409.79        18.04944
410.24        17.91632
410.68        17.79712
411.13        17.71549
411.58         17.6557
412.03        17.61225
412.47        17.58215
412.92          17.558
413.37        17.54799
413.81        17.55566
414.26        17.59922
414.71        17.67046
415.15        17.76551
415.60        17.84697
416.05        17.86835
416.49        17.81895
416.94         17.7103
417.39        17.58127
417.83        17.49122
418.28         17.4551
418.73        17.45682
419.17        17.47583
419.62        17.47631
420.07        17.44988
420.51        17.40903
420.96        17.36698
421.41         17.3383
421.85         17.3211
422.30        17.30007
422.74        17.27199
423.19        17.31386
423.64        17.39742
424.08        17.41368
424.53        17.35601
424.98        17.34931
425.42        17.40775
425.87        17.41464
426.31        17.37683
426.76         17.4331
427.21        17.53489
427.65        17.43821
428.10        17.20537
428.54        17.11255
428.99        17.18405
429.44        17.33233
429.88        17.48424
430.33        17.45785
430.77        17.29409
431.22        17.32934
431.66        17.54124
432.11         17.5902
432.56        17.47248
433.00        17.43687
433.45        17.43144
433.89        17.25283
434.34        17.04012
434.78        16.69288
435.23        17.14107
435.67        17.26511
436.12        17.29092
436.57         17.2714
437.01         17.2192
437.46        17.16351
437.90        17.10424
438.35        16.98937
438.79        16.84906
439.24        16.78691
439.68        16.81446
440.13        16.90093
440.57        17.01482
441.02        17.11688
441.46        17.18456
441.91        17.18371
442.35        17.12608
442.80        17.19994
443.24        17.33738
443.69        17.23909
444.13         16.9621
444.58        16.86769
445.02        16.97492
445.47        17.10194
445.91        17.19737
446.36        17.26284
446.80        17.27724
447.24        17.24294
447.69        17.18982
448.13          17.158
448.58        17.16259
449.02        17.18777
449.47        17.21824
449.91        17.22151
450.36        17.19615
450.80        17.15233
451.25         17.1105
451.69        17.08911
452.13        17.09458
452.58        17.11442
453.02        17.13829
453.47        17.15322
453.91         17.1541
454.36        17.15044
454.80        17.13299
455.24        17.08513
455.69        17.01528
456.13         16.9196
456.58        16.84428
457.02        16.83221
457.46        16.89479
457.91         17.0119
458.35        17.12802
458.79        17.15907
459.24        17.10253
459.68        16.97804
460.13        16.84815
460.57        16.76337
461.01        16.75224
461.46        16.78165
461.90        16.84646
462.34        16.92397
462.79        16.99557
463.23        17.07451
463.68        17.12869
464.12        17.11496
464.56        17.02831
465.01        16.90638
465.45        16.77148
465.89        16.70155
466.34        16.70812
466.78        16.76689
467.22        16.85906
467.67        16.93277
468.11        16.97966
468.55        17.00679
468.99        17.02269
469.44        17.03946
469.88        17.06259
470.32        17.08246
470.77        17.10134
471.21        17.12877
471.65        17.16337
472.10        17.20737
472.54        17.24557
472.98         17.2596
473.42        17.24671
473.87        17.21766
474.31        17.18065
474.75        17.16498
475.20        17.18063
475.64        17.21407
476.08        17.25357
476.52        17.27133
476.97        17.26213
477.41        17.24268
477.85        17.23558
478.29        17.25135
478.74        17.30963
479.18        17.44416
479.62        17.61235
480.06        17.71887
480.50        17.75243
480.95        17.72827
481.39        17.66826
481.83        17.78258
482.27        17.81844
482.72        17.95906
483.16        18.10498
483.60        18.20253
484.04        18.23746
484.48        18.29895
484.93        18.40812
485.37        18.32488
485.81        18.57693
486.25        18.59445
486.69        17.75933
487.14        18.22824
487.58        19.39358
488.02        19.29982
488.46        18.96662
488.90        19.12818
489.34        19.13022
489.79        19.37854
490.23        19.45623
490.67        19.57343
491.11        19.68577
491.55        19.73472
491.99        19.75608
492.43        19.82619
492.88        19.95366
493.32        20.08408
493.76        20.20277
494.20        20.32893
494.64        20.46549
495.08        20.56797
495.52        20.63931
495.96        20.81475
496.41        21.05591
496.85        21.05946
497.29        20.88226
497.73        21.08845
498.17        21.37279
498.61        21.59739
499.05        21.64537
499.49        21.73014
499.93        21.81063
500.37        21.99881
500.82        22.24244
501.26        22.39765
501.70        22.44764
502.14        22.47971
502.58        22.53325
503.02        22.62602
503.46        22.76511
503.90        22.94394
504.34        23.10945
504.78        23.17245
505.22        23.11793
505.66        22.98108
506.10        22.82548
506.54         22.7505
506.98        22.78524
507.42         22.9017
507.86         23.0688
508.30        23.23345
508.74        23.37227
509.18         23.4969
509.62         23.6069
510.06        23.70194
510.50        23.78245
510.94         23.8421
511.38        23.88195
511.82        23.90914
512.26        23.92817
512.70        23.94195
513.14        23.95791
513.58        23.98481
514.02        24.02521
514.46        24.07802
514.90        24.13573
515.34        24.18555
515.78         24.2218
516.22        24.24346
516.66        24.25513
517.10        24.26538
517.54        24.27578
517.98        24.28543
518.42        24.28239
518.86        24.24807
519.30        24.18299
519.74        24.09637
520.18        24.01493
520.62        23.97863
521.06        23.99533
521.50         24.0532
521.93        24.12543
522.37        24.15857
522.81        24.14145
523.25        24.08659
523.69        24.01697
524.13         23.9693
524.57        23.95152
525.01         23.9496
525.45        23.94493
525.89        23.90923
526.32        23.83388
526.76        23.73723
527.20         23.6334
527.64        23.54428
528.08        23.47792
528.52        23.42912
528.96        23.39312
529.40        23.36255
529.83        23.33305
530.27        23.30666
530.71        23.28314
531.15        23.26434
531.59        23.24904
532.03        23.23384
532.46        23.20684
532.90        23.16694
533.34        23.11155
533.78        23.03308
534.22        22.94474
534.66         22.8947
535.09        22.87132
535.53        22.81467
535.97        22.73175
536.41        22.69272
536.85        22.70071
537.28        22.71808
537.72        22.73985
538.16        22.77346
538.60        22.81629
539.04        22.86711
539.47        22.91937
539.91        22.97897
540.35        23.04187
540.79        23.10632
541.22        23.17799
541.66        23.27437
542.10         23.3922
542.54        23.52509
542.97        23.65215
543.41        23.75099
543.85        23.81575
544.29        23.86021
544.72        23.89872
545.16        23.96937
545.60        24.07768
546.04        24.21691
546.47        24.38538
546.91        24.57429
547.35        24.77191
547.79        24.97692
548.22        25.17268
548.66        25.32899
549.10        25.47165
549.53        25.59702
549.97         25.7151
550.41          25.786
550.84        25.84285
551.28        25.95361
551.72        26.10258
552.15        26.28417
552.59        26.52562
553.03        26.43956
553.46        26.80542
553.90        26.90669
554.34        26.97318
554.77        27.01243
555.21        27.06336
555.65        27.16585
556.08        27.31645
556.52         27.4864
556.96        27.63859
557.39        27.79199
557.83        27.91501
558.27        27.86267
558.70        27.69337
559.14        27.66763
559.57        27.78801
560.01        27.89767
560.45          27.972
560.88        28.06086
561.32        28.17042
561.75        28.26162
562.19        28.33817
562.63        28.40083
563.06        28.44564
563.50        28.46995
563.93        28.47407
564.37        28.53903
564.80        28.68037
565.24        28.80034
565.68        28.80619
566.11        29.20341
566.55        28.93946
566.98         28.8574
567.42        28.75421
567.85        28.86535
568.29        29.16912
568.72        29.42612
569.16        29.64025
569.60        29.80424
570.03        30.00632
570.47        30.19322
570.90        30.41447
571.34        30.27453
571.77        30.54785
572.21        30.79947
572.64         30.7314
573.08        31.04182
573.51        31.23657
573.95        31.25098
574.38        31.08758
574.82        31.32173
