SpectraSmart Spectrum 2.9.0.0
--------- Device Information -----------
Spectrum Name :  反射率_0
Saving Time :  2024/04/26 22:05:47
Spectro-Module Model Name : SE2030-DUVN
Spectro-Module Serial Number : OS361AC55029948
Wavelength Start : 200
Wavelength End : 1025
Wavelength Unit : Wavelength(nm)
Spectrum Unit : Reflectance(%)
-----------Spectrum Setting ------------
Integration Time : 20ms
Average : 10
Boxcar : 0
Background removal :  enabled
linearity correction :  enabled
SC :  disabled
Intensity correction :  disabled
DWT denoise :  enabled
savitzky-golay :  disabled
FFT :  disabled
Running average :  disabled
Kalman :  disabled
High pass :  disabled
---------------BEGIN--------------------
Wavelength(nm)             Reflectance(%)
200.29               0
200.75        26.70702
201.21        28.62333
201.67        30.65737
202.13        31.31709
202.58        30.39826
203.04        28.33394
203.50        26.05142
203.96        26.33019
204.42        30.72405
204.88        38.47241
205.34        46.54988
205.80          49.644
206.26         46.7442
206.72        40.36856
207.18        33.63677
207.64        28.67272
208.10        25.32812
208.55         22.5836
209.01         20.5887
209.47        21.54915
209.93        25.30188
210.39        29.77946
210.85        33.43057
211.31        36.44336
211.77        39.92117
212.23        45.57549
212.69        57.56782
213.14        76.30058
213.60        71.53905
214.06        56.01138
214.52        45.91474
214.98        40.34187
215.44        36.36091
215.90        32.39149
216.36        29.30125
216.81        28.64746
217.27        31.41493
217.73        38.89751
218.19        49.22594
218.65        51.55548
219.11        43.08788
219.57        31.35127
220.02        24.35583
220.48        26.15471
220.94        36.42625
221.40        56.64836
221.86        85.65775
222.32        102.8814
222.77         92.4473
223.23        68.83694
223.69        47.57984
224.15        37.24075
224.61        35.49408
225.06        37.38483
225.52        40.96559
225.98        44.60307
226.44        47.79414
226.90        51.25718
227.36        53.98087
227.81        53.93844
228.27        51.21593
228.73        46.65516
229.19        42.14934
229.65        39.84007
230.10        39.86584
230.56         41.6154
231.02        43.92215
231.48         44.8999
231.93        44.13998
232.39        42.54521
232.85        41.11557
233.31        41.20552
233.77        42.87392
234.22        45.53848
234.68        48.25722
235.14        49.69377
235.60         49.4451
236.05        47.92775
236.51        45.56333
236.97        43.37073
237.43        41.93042
237.88        41.08195
238.34         40.8535
238.80        41.39455
239.26        42.78421
239.71        45.66634
240.17        49.64724
240.63        53.37248
241.08        55.95802
241.54        56.74623
242.00        57.30767
242.46        61.65409
242.91        72.84705
243.37        92.87232
243.83        122.7798
244.28        150.2323
244.74        155.2561
245.20        136.2852
245.66        109.1274
246.11        88.73167
246.57        76.38873
247.03        67.94593
247.48         61.3628
247.94          55.024
248.40        49.90387
248.85        46.97244
249.31        45.75531
249.77          45.138
250.22        44.64844
250.68         44.1287
251.14        43.87523
251.59        44.95303
252.05        47.58568
252.51        50.83417
252.96        52.85218
253.42         52.5313
253.88        50.31013
254.33        46.91977
254.79        44.37601
255.25        43.96276
255.70        45.52749
256.16         48.5941
256.62        51.53961
257.07        51.92327
257.53        50.33595
257.99        48.01593
258.44        46.16034
258.90        46.18192
259.35         47.3506
259.81        49.22099
260.27        50.71313
260.72        50.54821
261.18        49.00385
261.63        46.60407
262.09        44.42137
262.55        43.15522
263.00        42.70848
263.46        42.82022
263.91        42.88622
264.37        42.37921
264.83        41.25555
265.28         39.7777
265.74        38.45132
266.19        37.64727
266.65        37.45207
267.11        37.60413
267.56        37.85452
268.02        37.81808
268.47        37.38687
268.93        36.72348
269.38        35.90125
269.84        35.07573
270.30        34.29869
270.75        33.50816
271.21        32.80619
271.66        32.30373
272.12        32.00913
272.57         31.8847
273.03        31.75895
273.48        31.34358
273.94        30.62788
274.39        29.66966
274.85        28.72713
275.31        28.04507
275.76        27.64127
276.22        27.45585
276.67        27.28765
277.13        26.91736
277.58        26.27888
278.04        25.49288
278.49        24.68481
278.95        24.13174
279.40        23.83442
279.86        23.74121
280.31        23.66994
280.77        23.44886
281.22        23.01826
281.68        22.49905
282.13         21.9761
282.59        21.62365
283.04        21.44682
283.50        21.39848
283.95         21.3995
284.41        21.33806
284.86        21.18268
285.32        20.98889
285.77        20.79478
286.22        20.69829
286.68        20.71026
287.13        20.76304
287.59        20.81391
288.04        20.76631
288.50        20.61969
288.95        20.39277
289.41        20.13642
289.86        19.86947
290.32        19.64069
290.77        19.44642
291.22        19.31729
291.68        19.28724
292.13        19.35403
292.59        19.51572
293.04        19.76991
293.50        20.12489
293.95        20.55827
294.40        21.06279
294.86        21.57716
295.31        22.00415
295.77        22.33468
296.22        22.58904
296.68         22.8531
297.13        23.25372
297.58        23.82125
298.04        24.51468
298.49         25.2549
298.95        25.92835
299.40        26.49264
299.85        26.98269
300.31        27.43574
300.76        27.90312
301.21        28.40121
301.67        28.91838
302.12        29.41682
302.58        29.89524
303.03        30.32509
303.48        30.72756
303.94        31.11937
304.39        31.49392
304.84         31.8608
305.30        32.22647
305.75        32.55793
306.20        32.85728
306.66        33.13024
307.11        33.36452
307.57        33.57623
308.02        33.74524
308.47        33.88153
308.93        33.99566
309.38         34.0867
309.83        34.20047
310.29        34.34142
310.74        34.48952
311.19        34.61022
311.65        34.64076
312.10        34.56425
312.55        34.40382
313.00        34.20574
313.46        34.03773
313.91        33.90626
314.36        33.80157
314.82        33.69632
315.27        33.55667
315.72        33.37103
316.18        33.16241
316.63        32.94024
317.08        32.73221
317.53        32.54189
317.99         32.3506
318.44         32.1521
318.89        31.92827
319.35        31.67408
319.80        31.39697
320.25        31.09839
320.70        30.77907
321.16        30.44344
321.61         30.1084
322.06        29.78132
322.51        29.47734
322.97         29.1983
323.42        28.94049
323.87        28.71893
324.32        28.56068
324.78        28.45177
325.23        28.39929
325.68        28.32017
326.13        28.08674
326.59         27.6801
327.04        27.15166
327.49        26.61938
327.94        26.27136
328.39        26.14268
328.85        26.16462
329.30        26.25136
329.75        26.19525
330.20        25.93395
330.66        25.52848
331.11         25.0668
331.56        24.66652
332.01        24.37011
332.46        24.13757
332.92        23.94393
333.37        23.79018
333.82        23.65425
334.27        23.55285
334.72        23.46919
335.17        23.36581
335.63        23.23039
336.08        23.07491
336.53        22.91788
336.98        22.80592
337.43        22.74754
337.88        22.72314
338.34        22.70299
338.79        22.66103
339.24        22.57675
339.69         22.4629
340.14        22.32177
340.59        22.15838
341.05        21.98761
341.50        21.80717
341.95        21.63759
342.40        21.50852
342.85         21.4256
343.30        21.37999
343.75        21.35063
344.20        21.30493
344.66        21.23481
345.11        21.14289
345.56        21.03959
346.01        20.94339
346.46        20.86234
346.91          20.796
347.36        20.73072
347.81        20.64709
348.26         20.5432
348.72        20.42492
349.17        20.31996
349.62        20.28229
350.07        20.31736
350.52        20.40862
350.97        20.49395
351.42        20.47415
351.87        20.33246
352.32        20.10274
352.77        19.85979
353.22        19.71507
353.67        19.68795
354.13        19.73951
354.58        19.80623
355.03        19.78821
355.48        19.65938
355.93         19.4611
356.38        19.23057
356.83        19.02026
357.28        18.84557
357.73        18.68119
358.18        18.53556
358.63        18.42662
359.08        18.35228
359.53        18.31452
359.98        18.26463
360.43        18.12259
360.88        17.87877
361.33        17.55698
361.78         17.2321
362.23        17.02845
362.68        16.97352
363.13        17.02809
363.58        17.11345
364.03         17.1056
364.48        16.97137
364.93        16.74534
365.38        16.48758
365.83        16.29754
366.28        16.20336
366.73        16.17351
367.18        16.15654
367.63         16.0743
368.08        15.90912
368.53        15.68975
368.98        15.46503
369.43        15.30832
369.88        15.23707
370.33        15.22715
370.78        15.23264
371.23        15.17976
371.68         15.0494
372.13        14.86597
372.58        14.67334
373.03        14.53948
373.48        14.48119
373.93        14.47491
374.38        14.48322
374.83        14.44926
375.28        14.35565
375.72        14.21399
376.17        14.06225
376.62         13.9368
377.07         13.8485
377.52        13.78961
377.97        13.73223
378.42        13.63498
378.87        13.49383
379.32         13.3235
379.77        13.17276
380.22        13.11042
380.67        13.14338
381.11        13.25233
381.56        13.36207
382.01         13.3576
382.46        13.21537
382.91        12.98024
383.36        12.73219
383.81        12.58115
384.26        12.54835
384.71        12.59939
385.15        12.68329
385.60        12.72045
386.05        12.68476
386.50        12.60351
386.95        12.51073
387.40        12.45673
387.85        12.45302
388.29        12.47121
388.74        12.49955
389.19         12.4979
389.64        12.45849
390.09        12.39113
390.54        12.31718
390.98        12.26677
391.43        12.25483
391.88         12.2692
392.33        12.28231
392.78        12.25556
393.23        12.18491
393.67        12.07921
394.12        11.98392
394.57        11.93976
395.02        11.95441
395.47         12.0116
395.91        12.07941
396.36        12.09536
396.81         12.0525
397.26        11.97187
397.71        11.88655
398.15        11.85161
398.60        11.88981
399.05         11.9304
399.50        11.95783
399.95        12.04121
400.39        12.13424
400.84        12.03146
401.29        11.78102
401.74        11.64907
402.18        11.66404
402.63        11.68629
403.08        11.69352
403.53        11.70369
403.97        11.70767
404.42        11.70626
404.87        11.69512
405.32        11.66404
405.76        11.61224
406.21        11.54553
406.66        11.48765
407.11        11.47945
407.55        11.53047
408.00        11.62517
408.45        11.72512
408.90        11.75444
409.34        11.69402
409.79         11.5702
410.24        11.43565
410.68        11.36117
411.13        11.36693
411.58        11.43342
412.03        11.52198
412.47        11.56505
412.92        11.53889
413.37        11.46783
413.81        11.39295
414.26        11.38232
414.71        11.44357
415.15        11.55741
415.60        11.67468
416.05        11.71812
416.49        11.66831
416.94        11.55258
417.39        11.42055
417.83        11.34715
418.28        11.35063
418.73        11.40439
419.17        11.48246
419.62        11.54294
420.07        11.56941
420.51        11.57323
420.96        11.55523
421.41        11.51313
421.85        11.44854
422.30         11.3609
422.74        11.26342
423.19        11.22891
423.64        11.24549
424.08        11.23982
424.53        11.20794
424.98        11.23006
425.42        11.31235
425.87        11.37789
426.31        11.41918
426.76        11.51105
427.21        11.61575
427.65        11.57092
428.10        11.42359
428.54        11.36996
428.99        11.43019
429.44        11.54401
429.88        11.65562
430.33        11.63391
430.77        11.50666
431.22        11.50194
431.66         11.6181
432.11        11.64824
432.56        11.59427
433.00        11.61486
433.45        11.66103
433.89        11.56406
434.34        11.41014
434.78         11.1455
435.23        11.40566
435.67        11.46404
436.12         11.4771
436.57        11.46977
437.01        11.45306
437.46        11.45047
437.90        11.45815
438.35        11.44089
438.79        11.39562
439.24        11.35559
439.68        11.32658
440.13        11.29929
440.57        11.28894
441.02        11.33252
441.46        11.42602
441.91        11.51793
442.35         11.5799
442.80        11.69097
443.24        11.79501
443.69        11.70635
444.13        11.46947
444.58        11.34018
445.02        11.33955
445.47        11.34324
445.91        11.33794
446.36        11.35686
446.80        11.38983
447.24        11.43031
447.69        11.46972
448.13        11.48639
448.58        11.47932
449.02        11.45224
449.47        11.41731
449.91        11.39048
450.36         11.3801
450.80        11.37946
451.25        11.38938
451.69        11.40451
452.13        11.42233
452.58        11.44151
453.02        11.45604
453.47        11.45752
453.91         11.4443
454.36        11.42121
454.80        11.38677
455.24        11.33839
455.69        11.28253
456.13        11.21273
456.58        11.15604
457.02        11.13341
457.46        11.15188
457.91        11.20353
458.35        11.25032
458.79        11.23272
459.24        11.15354
459.68        11.02792
460.13          10.913
460.57         10.8641
461.01        10.90105
461.46        10.99083
461.90        11.10894
462.34        11.20277
462.79        11.24809
463.23         11.2649
463.68        11.24263
464.12        11.17387
464.56        11.06729
465.01        10.94456
465.45         10.8267
465.89        10.77267
466.34        10.78822
466.78         10.8554
467.22        10.94997
467.67        11.01556
468.11        11.03923
468.55        11.02998
468.99        11.00284
469.44        10.98243
469.88         10.9775
470.32        10.97824
470.77        10.98141
471.21         10.9861
471.65        10.98972
472.10        10.99767
472.54        11.00572
472.98        11.01017
473.42        11.01064
473.87        11.01126
474.31          11.009
474.75        11.01085
475.20        11.02108
475.64        11.03395
476.08        11.05115
476.52        11.06926
476.97        11.08722
477.41        11.11004
477.85        11.14144
478.29        11.17045
478.74        11.20528
479.18        11.27394
479.62        11.35757
480.06        11.40869
480.50        11.42409
480.95        11.40818
481.39        11.37176
481.83         11.4464
482.27        11.46663
482.72        11.55135
483.16        11.63728
483.60        11.68998
484.04        11.70596
484.48        11.75258
484.93        11.83792
485.37         11.8172
485.81        12.02378
486.25        12.06664
486.69        11.44649
487.14        11.87582
487.58        12.86796
488.02        12.89538
488.46        12.51049
488.90        12.49772
489.34        12.48639
489.79        12.69967
490.23        12.85254
490.67        13.05942
491.11        13.24981
491.55        13.31258
491.99        13.29074
492.43        13.35005
492.88        13.50361
493.32        13.63804
493.76        13.73379
494.20        13.83065
494.64         13.9319
495.08        13.99842
495.52        14.04747
495.96        14.20125
496.41        14.43467
496.85        14.52016
497.29        14.47762
497.73        14.68078
498.17        14.91341
498.61        15.08277
499.05        15.11426
499.49        15.17309
499.93        15.23605
500.37        15.37434
500.82        15.55809
501.26          15.697
501.70        15.77923
502.14        15.86622
502.58        15.96621
503.02         16.0582
503.46        16.14392
503.90        16.23095
504.34        16.31265
504.78        16.37757
505.22        16.42512
505.66        16.45856
506.10        16.49367
506.54        16.55627
506.98        16.65033
507.42        16.76663
507.86        16.88644
508.30        16.97816
508.74        17.03387
509.18        17.06493
509.62        17.08294
510.06          17.108
510.50        17.14694
510.94        17.19076
511.38        17.24364
511.82        17.31185
512.26        17.39364
512.70        17.49044
513.14        17.57933
513.58        17.62255
514.02        17.61416
514.46        17.56269
514.90        17.50683
515.34         17.5099
515.78        17.58443
516.22        17.71209
516.66        17.84465
517.10        17.90423
517.54        17.87352
517.98        17.77683
518.42        17.66267
518.86        17.60875
519.30        17.63296
519.74        17.70823
520.18        17.79306
520.62        17.82298
521.06         17.7823
521.50        17.69536
521.93        17.59162
522.37        17.51128
522.81        17.47192
523.25        17.45821
523.69         17.4603
524.13        17.46434
524.57         17.4621
525.01        17.45639
525.45          17.442
525.89        17.40947
526.32        17.35536
526.76        17.28543
527.20        17.20247
527.64         17.1143
528.08        17.02602
528.52         16.9388
528.96        16.85942
529.40        16.79656
529.83        16.75127
530.27        16.72226
530.71        16.70007
531.15        16.67107
531.59        16.63006
532.03        16.57678
532.46        16.51517
532.90        16.46367
533.34        16.42374
533.78        16.38579
534.22        16.33773
534.66        16.28134
535.09        16.20422
535.53        16.07383
535.97        15.92887
536.41         15.8704
536.85         15.9093
537.28        16.00267
537.72        16.10639
538.16        16.15981
538.60        16.14688
539.04        16.08932
539.47        16.02286
539.91        16.01331
540.35        16.07273
540.79        16.17984
541.22         16.3108
541.66        16.43403
542.10        16.53568
542.54        16.62855
542.97        16.71428
543.41        16.80127
543.85         16.8917
544.29        16.98244
544.72        17.07888
545.16        17.20362
545.60        17.35693
546.04          17.538
546.47        17.73408
546.91         17.9185
547.35        18.08051
547.79        18.22402
548.22        18.36107
548.66        18.50816
549.10         18.6907
549.53        18.89445
549.97        19.09952
550.41        19.22942
550.84        19.29834
551.28        19.37467
551.72        19.47028
552.15        19.61886
552.59        19.85062
553.03        19.85894
553.46        20.21989
553.90        20.38286
554.34        20.51412
554.77        20.62558
555.21        20.73393
555.65        20.84735
556.08        20.96188
556.52        21.06126
556.96        21.14579
557.39        21.27587
557.83        21.43514
558.27        21.49799
558.70        21.47599
559.14         21.5173
559.57        21.61362
560.01        21.66393
560.45        21.67617
560.88        21.72965
561.32         21.8406
561.75        21.96434
562.19        22.09508
562.63        22.21966
563.06         22.3275
563.50        22.42271
563.93        22.49649
564.37        22.59278
564.80         22.7231
565.24        22.82288
565.68        22.83199
566.11        23.15527
566.55        22.96174
566.98        22.95313
567.42        22.95606
567.85        23.05911
568.29        23.27804
568.72        23.59517
569.16        23.96846
569.60        24.19311
570.03        24.32964
570.47        24.41589
570.90        24.52019
571.34        24.46549
571.77        24.57565
572.21        24.88358
572.64        24.90676
573.08        25.10154
573.51        25.33415
573.95        25.43815
574.38        25.42566
574.82        25.89027
