SpectraSmart Spectrum 2.9.0.0
--------- Device Information -----------
Spectrum Name :  反射率_0
Saving Time :  2024/04/26 22:06:57
Spectro-Module Model Name : SE2030-DUVN
Spectro-Module Serial Number : OS361AC55029948
Wavelength Start : 200
Wavelength End : 1025
Wavelength Unit : Wavelength(nm)
Spectrum Unit : Reflectance(%)
-----------Spectrum Setting ------------
Integration Time : 20ms
Average : 10
Boxcar : 0
Background removal :  enabled
linearity correction :  enabled
SC :  disabled
Intensity correction :  disabled
DWT denoise :  enabled
savitzky-golay :  disabled
FFT :  disabled
Running average :  disabled
Kalman :  disabled
High pass :  disabled
---------------BEGIN--------------------
Wavelength(nm)             Reflectance(%)
200.29               0
200.75        40.77721
201.21        42.11749
201.67        43.47815
202.13        44.65911
202.58        45.63894
203.04        47.19749
203.50        49.23611
203.96        50.54888
204.42        50.39074
204.88        48.66872
205.34        46.42545
205.80        45.98935
206.26        47.64973
206.72        50.14615
207.18        52.32837
207.64         53.3455
208.10        53.15939
208.55        52.31491
209.01        49.88718
209.47        46.07875
209.93        43.00504
210.39        41.60641
210.85        41.47454
211.31        42.22124
211.77        44.08661
212.23         48.3941
212.69        61.54168
213.14        96.03533
213.60        115.1967
214.06        107.1454
214.52        95.10251
214.98        85.70698
215.44        77.20512
215.90        67.32574
216.36        58.16413
216.81        53.71996
217.27         55.7063
217.73        65.11684
218.19        80.86723
218.65        90.00198
219.11        85.84014
219.57        76.13673
220.02        69.40868
220.48        70.87483
220.94        80.37155
221.40         98.7652
221.86        125.8411
222.32        145.1136
222.77        140.8216
223.23        123.5578
223.69        105.6122
224.15        94.09225
224.61        88.10492
225.06           84.48
225.52        82.56752
225.98        81.26395
226.44        80.29474
226.90        80.15421
227.36         80.5162
227.81        80.69049
228.27        80.70654
228.73        80.34985
229.19        80.47678
229.65        82.27704
230.10        85.60656
230.56        90.06998
231.02        93.93067
231.48        94.46901
231.93        91.42501
232.39        86.48528
232.85        81.59543
233.31        79.29002
233.77        79.80372
234.22        82.18607
234.68        85.29674
235.14        87.41261
235.60        87.93591
236.05        87.48704
236.51         86.0991
236.97        84.13514
237.43        81.96577
237.88        79.52702
238.34        77.37462
238.80        76.74982
239.26        78.10295
239.71        82.12699
240.17        88.13437
240.63        94.00143
241.08         98.2189
241.54        99.87247
242.00        100.7317
242.46        105.3258
242.91        117.2211
243.37        138.0444
243.83         168.197
244.28        193.3667
244.74        192.1414
245.20        164.9402
245.66        132.1425
246.11        111.0853
246.57        102.2677
247.03        100.8811
247.48        101.0464
247.94        94.56087
248.40        83.39826
248.85        72.60716
249.31        65.65057
249.77        64.01064
250.22        66.86763
250.68        73.32084
251.14        82.11748
251.59        87.60869
252.05        86.58749
252.51        82.40688
252.96        76.56145
253.42        70.91692
253.88        66.21632
254.33         61.6748
254.79        60.31514
255.25        64.74047
255.70         73.9761
256.16        86.54986
256.62        97.05869
257.07         97.3821
257.53        89.87675
257.99        80.00034
258.44        71.89586
258.90        68.95567
259.35        69.73047
259.81        72.71443
260.27        76.04903
260.72        77.53377
261.18        77.22443
261.63        75.72404
262.09        74.32993
262.55         73.7678
263.00        73.90174
263.46        74.51328
263.91        74.78377
264.37        74.14138
264.83        72.56576
265.28        70.42319
265.74        68.52296
266.19        67.44958
266.65        67.35631
267.11        67.84995
267.56        68.52738
268.02        68.77011
268.47        68.37497
268.93        67.58958
269.38        66.51573
269.84        65.39217
270.30        64.30145
270.75        63.15663
271.21        62.09919
271.66        61.27327
272.12        60.69516
272.57         60.2868
273.03        59.88885
273.48        59.19613
273.94        58.21816
274.39        57.01714
274.85         55.7913
275.31         54.6212
275.76        53.52255
276.22        52.52721
276.67        51.61959
277.13        50.93229
277.58        50.37761
278.04        49.94787
278.49        49.46912
278.95        48.84443
279.40        47.99024
279.86        47.06838
280.31        46.05445
280.77        45.07526
281.22        44.11735
281.68        43.23991
282.13        42.47927
282.59        42.01754
283.04        41.79624
283.50        41.78413
283.95        41.78972
284.41        41.54324
284.86        40.98164
285.32        40.22821
285.77        39.42852
286.22        38.87227
286.68        38.60746
287.13        38.50223
287.59         38.4411
288.04        38.18506
288.50        37.72551
288.95         37.1216
289.41        36.51175
289.86          36.003
290.32        35.66961
290.77        35.43873
291.22        35.29119
291.68        35.18332
292.13        35.08207
292.59        35.02629
293.04        35.01759
293.50        35.08174
293.95        35.21397
294.40        35.40873
294.86        35.65945
295.31        35.94698
295.77        36.27488
296.22        36.63464
296.68        37.04012
297.13        37.49109
297.58        37.99067
298.04        38.53205
298.49        39.09115
298.95        39.65406
299.40        40.19891
299.85        40.72542
300.31         41.2343
300.76        41.71283
301.21        42.16184
301.67        42.59327
302.12        42.97945
302.58        43.35105
303.03        43.68078
303.48        43.98925
303.94        44.28827
304.39        44.54821
304.84        44.78289
305.30        45.00698
305.75        45.20504
306.20        45.41837
306.66        45.66151
307.11         45.9063
307.57        46.13332
308.02        46.24993
308.47        46.26044
308.93         46.1969
309.38        46.11143
309.83        46.14556
310.29        46.31815
310.74        46.57632
311.19        46.81158
311.65        46.84151
312.10         46.6225
312.55        46.21848
313.00        45.75754
313.46        45.42819
313.91        45.26016
314.36        45.21042
314.82        45.18518
315.27        45.04587
315.72        44.75586
316.18        44.38128
316.63        43.99125
317.08        43.70717
317.53        43.55463
317.99         43.4803
318.44        43.43394
318.89        43.32519
319.35        43.12389
319.80        42.85754
320.25        42.54992
320.70        42.23831
321.16        41.93661
321.61         41.6496
322.06        41.36662
322.51        41.07843
322.97        40.77883
323.42        40.47458
323.87         40.1992
324.32        40.00985
324.78         39.8949
325.23         39.8602
325.68        39.79324
326.13        39.52034
326.59        39.01522
327.04        38.35178
327.49        37.68314
327.94        37.25225
328.39         37.1096
328.85        37.16926
329.30        37.33447
329.75        37.35076
330.20         37.1376
330.66        36.76044
331.11        36.32874
331.56        35.98806
332.01        35.78618
332.46        35.66904
332.92        35.57291
333.37        35.45426
333.82        35.27317
334.27        35.06455
334.72        34.85796
335.17        34.68907
335.63        34.56899
336.08        34.50492
336.53        34.47409
336.98        34.45691
337.43        34.44041
337.88        34.41082
338.34        34.38628
338.79        34.43578
339.24        34.54557
339.69        34.69694
340.14        34.78458
340.59        34.64424
341.05         34.2697
341.50        33.72518
341.95        33.17601
342.40        32.87056
342.85        32.86497
343.30        33.08241
343.75        33.39785
344.20         33.6028
344.66        33.63179
345.11         33.5412
345.56        33.38717
346.01        33.26117
346.46        33.19812
346.91        33.16712
347.36        33.15018
347.81        33.12933
348.26         33.0974
348.72        33.06476
349.17         33.0458
349.62        33.07144
350.07        33.14028
350.52        33.23921
350.97        33.30856
351.42        33.25774
351.87        33.07421
352.32        32.79012
352.77        32.49184
353.22        32.30334
353.67         32.2518
354.13        32.30849
354.58        32.39559
355.03        32.38283
355.48        32.23761
355.93        31.99639
356.38         31.7531
356.83        31.64725
357.28        31.69939
357.73        31.85892
358.18        32.00746
358.63        31.95805
359.08        31.67153
359.53        31.21206
359.98        30.70886
360.43        30.35236
360.88        30.18123
361.33        30.13459
361.78        30.11006
362.23        29.94428
362.68        29.60627
363.13        29.16852
363.58        28.71685
364.03        28.37564
364.48        28.17929
364.93        28.08004
365.38        28.04903
365.83        28.04333
366.28        28.03513
366.73        28.03324
367.18        28.00539
367.63        27.90004
368.08        27.71034
368.53        27.44651
368.98        27.15261
369.43        26.90468
369.88        26.72462
370.33        26.59673
370.78        26.49236
371.23        26.36129
371.68        26.18835
372.13        25.98875
372.58        25.78722
373.03        25.61881
373.48         25.4916
373.93        25.39546
374.38        25.29751
374.83        25.14978
375.28        24.94468
375.72        24.69009
376.17        24.45217
376.62        24.29876
377.07        24.24167
377.52        24.26097
377.97         24.2913
378.42        24.22927
378.87        24.05586
379.32        23.80387
379.77         23.5552
380.22        23.42854
380.67        23.44349
381.11        23.56944
381.56        23.70551
382.01        23.70553
382.46        23.53662
382.91        23.25614
383.36        22.96152
383.81        22.78551
384.26        22.75158
384.71         22.8149
385.15        22.90807
385.60        22.92259
386.05        22.82845
386.50        22.66481
386.95        22.48176
387.40        22.35464
387.85        22.30134
388.29        22.27741
388.74        22.27864
389.19        22.24925
389.64        22.17711
390.09        22.07701
390.54        21.96296
390.98        21.85133
391.43        21.76527
391.88        21.69804
392.33        21.64303
392.78        21.59125
393.23           21.54
393.67        21.48023
394.12        21.44295
394.57          21.431
395.02        21.44075
395.47        21.45886
395.91        21.46695
396.36        21.42394
396.81        21.33642
397.26        21.22571
397.71        21.10545
398.15        21.00784
398.60         20.9666
399.05        20.88401
399.50         20.7916
399.95        20.88896
400.39        21.10693
400.84        21.06476
401.29        20.77929
401.74        20.60704
402.18        20.57506
402.63        20.47464
403.08        20.33346
403.53        20.28736
403.97        20.34265
404.42        20.45663
404.87        20.58854
405.32        20.66981
405.76        20.67446
406.21        20.63158
406.66        20.55407
407.11        20.46629
407.55        20.38589
408.00        20.29594
408.45        20.20933
408.90        20.14297
409.34        20.10196
409.79        20.08964
410.24        20.09519
410.68        20.09209
411.13        20.07847
411.58          20.057
412.03        20.02692
412.47        19.99255
412.92        19.95114
413.37          19.908
413.81        19.86701
414.26        19.85222
414.71        19.86059
415.15        19.89485
415.60        19.93869
416.05        19.98056
416.49        20.01588
416.94        20.04192
417.39        20.06474
417.83        20.09414
418.28        20.12844
418.73        20.15667
419.17        20.17218
419.62        20.16655
420.07         20.1389
420.51        20.09337
420.96        20.03123
421.41        19.94848
421.85         19.8455
422.30        19.72283
422.74        19.59924
423.19        19.58895
423.64        19.66628
424.08        19.69914
424.53        19.67176
424.98        19.70969
425.42        19.81982
425.87        19.86993
426.31        19.86123
426.76        19.94417
427.21        20.06133
427.65         19.9323
428.10        19.63423
428.54        19.49487
428.99        19.54628
429.44        19.68858
429.88        19.83996
430.33        19.79312
430.77        19.59838
431.22        19.64261
431.66        19.89787
432.11        19.98532
432.56        19.89947
433.00        19.88791
433.45        19.90429
433.89        19.80456
434.34        19.70918
434.78        19.34888
435.23        19.79729
435.67        19.87002
436.12        19.83711
436.57        19.68976
437.01        19.49549
437.46        19.41508
437.90        19.46394
438.35        19.53802
438.79        19.59471
439.24         19.6393
439.68         19.6609
440.13        19.66296
440.57        19.65412
441.02        19.66906
441.46        19.71074
441.91        19.71072
442.35        19.67502
442.80        19.81263
443.24        20.03681
443.69        20.00734
444.13        19.75726
444.58        19.65147
445.02        19.70538
445.47        19.72336
445.91        19.69264
446.36        19.68953
446.80        19.70781
447.24        19.72996
447.69         19.7556
448.13        19.77443
448.58        19.78735
449.02        19.79274
449.47        19.79376
449.91        19.78485
450.36        19.77205
450.80        19.75352
451.25        19.73623
451.69        19.71764
452.13        19.70121
452.58        19.68366
453.02        19.66794
453.47        19.66164
453.91        19.66391
454.36        19.67501
454.80        19.67555
455.24        19.63391
455.69        19.55305
456.13        19.43242
456.58        19.32038
457.02        19.25803
457.46        19.26231
457.91        19.31901
458.35        19.37908
458.79        19.37038
459.24        19.29653
459.68        19.17159
460.13        19.06399
460.57        19.02829
461.01        19.09103
461.46        19.21361
461.90         19.3709
462.34        19.50563
462.79        19.58844
463.23        19.64045
463.68        19.64789
464.12        19.60224
464.56        19.50895
465.01        19.39949
465.45        19.28017
465.89        19.21394
466.34        19.20799
466.78        19.24084
467.22        19.30454
467.67        19.36262
468.11        19.41164
468.55        19.45395
468.99        19.47772
469.44        19.46276
469.88        19.41115
470.32        19.32527
470.77        19.24227
471.21        19.22663
471.65        19.28837
472.10        19.41246
472.54        19.54725
472.98        19.61658
473.42        19.60361
473.87        19.53846
474.31         19.4538
474.75        19.41932
475.20        19.45458
475.64         19.5277
476.08        19.61395
476.52         19.6661
476.97        19.67187
477.41        19.65747
477.85        19.64367
478.29        19.63356
478.74        19.65084
479.18         19.7363
479.62        19.85985
480.06        19.94135
480.50        19.97494
480.95        19.97505
481.39        19.94215
481.83        20.07309
482.27        20.07229
482.72        20.15809
483.16        20.25105
483.60        20.32059
484.04        20.36321
484.48        20.51616
484.93        20.72919
485.37        20.58838
485.81        20.80443
486.25        20.73027
486.69        20.04563
487.14         20.8827
487.58        21.80496
488.02        21.56913
488.46        21.16989
488.90        21.33879
489.34        21.31911
489.79        21.61832
490.23        21.75435
490.67        21.84652
491.11        21.88363
491.55        21.98152
491.99        22.15063
492.43        22.26578
492.88        22.32538
493.32        22.39408
493.76        22.48226
494.20        22.59885
494.64        22.75715
495.08         22.9082
495.52        23.04675
495.96        23.31407
496.41         23.6531
496.85        23.70808
497.29         23.5348
497.73        23.76368
498.17        24.05614
498.61        24.27858
499.05        24.29647
499.49        24.32622
499.93        24.32738
500.37        24.44539
500.82        24.64525
501.26        24.79479
501.70        24.88129
502.14        24.99413
502.58        25.14752
503.02        25.31217
503.46         25.4833
503.90        25.66547
504.34        25.82333
504.78        25.89893
505.22        25.88558
505.66         25.8062
506.10        25.71067
506.54        25.67922
506.98        25.73402
507.42        25.85145
507.86        26.00823
508.30        26.16306
508.74        26.29615
509.18        26.41746
509.62        26.51567
510.06        26.57348
510.50        26.59107
510.94        26.57081
511.38        26.53778
511.82        26.53526
512.26         26.5761
512.70        26.65382
513.14        26.74901
513.58        26.82698
514.02         26.8771
514.46        26.90612
514.90        26.93179
515.34        26.98275
515.78        27.06234
516.22        27.15792
516.66        27.23939
517.10        27.26139
517.54        27.21604
517.98        27.11975
518.42        27.00874
518.86        26.94005
519.30        26.92849
519.74        26.95801
520.18         27.0004
520.62        27.00948
521.06        26.97454
521.50        26.91317
521.93        26.84711
522.37        26.80203
522.81        26.78964
523.25        26.79486
523.69         26.8086
524.13        26.81965
524.57        26.81929
525.01        26.80787
525.45        26.77666
525.89        26.71089
526.32        26.60949
526.76        26.48962
527.20        26.36093
527.64        26.24152
528.08         26.1397
528.52         26.0497
528.96        25.98547
529.40         25.9673
529.83        25.99027
530.27        26.04645
530.71        26.09309
531.15        26.06439
531.59        25.94988
532.03         25.7724
532.46        25.57336
532.90        25.43784
533.34        25.38248
533.78        25.36811
534.22        25.37369
534.66        25.39636
535.09        25.40566
535.53        25.35637
535.97        25.25642
536.41        25.18346
536.85        25.14708
537.28        25.10018
537.72        25.06713
538.16        25.10798
538.60        25.22448
539.04        25.39762
539.47        25.57059
539.91        25.67145
540.35        25.68168
540.79        25.62804
541.22        25.56076
541.66        25.56974
542.10        25.67309
542.54        25.84193
542.97        26.03574
543.41        26.20195
543.85         26.3213
544.29        26.41768
544.72        26.50135
545.16        26.60435
545.60        26.73224
546.04         26.8774
546.47        27.04787
546.91        27.25316
547.35         27.4858
547.79        27.74061
548.22        27.99188
548.66         28.1942
549.10        28.37297
549.53        28.52704
549.97        28.67271
550.41        28.77339
550.84         28.8667
551.28        29.02491
551.72         29.2213
552.15         29.4358
552.59        29.69722
553.03        29.57783
553.46        29.96258
553.90        30.06926
554.34        30.15937
554.77        30.23579
555.21        30.33189
555.65        30.47535
556.08        30.65775
556.52        30.85193
556.96        31.02306
557.39        31.20357
557.83        31.35952
558.27        31.32168
558.70        31.15189
559.14        31.13698
559.57        31.28013
560.01        31.41295
560.45        31.50289
560.88        31.59899
561.32         31.7082
561.75        31.78293
562.19          31.853
562.63         31.9588
563.06        32.09747
563.50        32.25681
563.93        32.38179
564.37        32.47155
564.80        32.53672
565.24        32.51276
565.68        32.36703
566.11        32.76498
566.55        32.54614
566.98        32.62543
567.42        32.71752
567.85        32.98988
568.29        33.39736
568.72        33.70762
569.16         33.9258
569.60        34.09815
570.03        34.34616
570.47        34.46812
570.90        34.52485
571.34        34.61948
571.77         34.7588
572.21        35.06104
572.64        35.27364
573.08        35.38045
573.51        35.40248
573.95        35.39866
574.38        35.45391
574.82        36.00443
