SpectraSmart Spectrum 2.9.0.0
--------- Device Information -----------
Spectrum Name :  反射率_0
Saving Time :  2024/04/26 22:12:43
Spectro-Module Model Name : SE2030-DUVN
Spectro-Module Serial Number : OS361AC55029948
Wavelength Start : 200
Wavelength End : 1025
Wavelength Unit : Wavelength(nm)
Spectrum Unit : Reflectance(%)
-----------Spectrum Setting ------------
Integration Time : 20ms
Average : 10
Boxcar : 0
Background removal :  enabled
linearity correction :  enabled
SC :  disabled
Intensity correction :  disabled
DWT denoise :  enabled
savitzky-golay :  disabled
FFT :  disabled
Running average :  disabled
Kalman :  disabled
High pass :  disabled
---------------BEGIN--------------------
Wavelength(nm)             Reflectance(%)
200.29               0
200.75         55.3716
201.21         50.5491
201.67        46.04355
202.13        43.75948
202.58        43.73668
203.04        45.93761
203.50        50.23044
203.96        54.99377
204.42         58.8567
204.88        61.88858
205.34         64.2164
205.80        66.73899
206.26        69.19366
206.72         70.1189
207.18        69.99319
207.64        69.54723
208.10         68.9063
208.55        68.99743
209.01        67.40527
209.47         60.3591
209.93        50.64162
210.39        42.62523
210.85        38.87257
211.31        40.16844
211.77         47.2035
212.23        65.76913
212.69        113.4496
213.14        191.6867
213.60        185.1317
214.06         127.413
214.52        90.22898
214.98        76.20535
215.44        73.65323
215.90        75.25032
216.36        79.53817
216.81        85.28793
217.27        92.47716
217.73         104.862
218.19        120.0585
218.65        122.3496
219.11         108.764
219.57        90.44726
220.02        78.94302
220.48        80.31734
220.94        93.65762
221.40        120.8234
221.86        161.2106
222.32        188.8298
222.77        180.5549
223.23        153.2044
223.69        126.0963
224.15        110.4446
224.61        104.2971
225.06        102.0704
225.52        102.3488
225.98         103.372
226.44        104.6734
226.90        107.1587
227.36        109.8377
227.81         110.669
228.27        109.6601
228.73        107.1234
229.19        105.2065
229.65        106.6509
230.10        111.3356
230.56        118.3065
231.02        124.8049
231.48        126.4451
231.93        122.6743
232.39        116.0685
232.85        109.3208
233.31        105.8886
233.77        106.1738
234.22        108.8184
234.68        112.5915
235.14        115.6651
235.60        117.3043
236.05        118.2334
236.51        118.0206
236.97        116.1642
237.43        112.7485
237.88        107.9143
238.34        102.7711
238.80        99.56746
239.26        99.04295
239.71         101.734
240.17        106.8665
240.63        112.3105
241.08        116.6248
241.54        119.1405
242.00        121.2556
242.46        126.5038
242.91        137.9743
243.37         156.359
243.83        181.9298
244.28        203.0926
244.74        201.4749
245.20        177.5788
245.66        148.0075
246.11         126.155
246.57        112.6414
247.03        103.8106
247.48        96.79118
247.94        89.00506
248.40        81.83721
248.85         76.5052
249.31        73.69077
249.77        72.97398
250.22        73.69054
250.68         75.4909
251.14        77.66065
251.59        78.00659
252.05        76.02902
252.51        73.56344
252.96        71.11743
253.42        69.47797
253.88        68.69704
254.33        68.06135
254.79        69.46564
255.25        74.35485
255.70        82.23579
256.16        92.50216
256.62        101.3083
257.07        102.6528
257.53        98.27739
257.99        91.91144
258.44        86.77122
258.90        85.98247
259.35        88.19728
259.81        92.31853
260.27        96.38177
260.72        97.99641
261.18         97.3926
261.63        95.22845
262.09        93.22749
262.55        92.41384
263.00        92.61071
263.46        93.54769
263.91        94.08454
264.37        93.35503
264.83        91.31882
265.28        88.47936
265.74          85.974
266.19        84.70618
266.65        84.87422
267.11        85.93286
267.56        87.19962
268.02        87.62513
268.47        86.90849
268.93        85.46086
269.38        83.64486
269.84        82.11951
270.30        81.04498
270.75        80.17213
271.21        79.45581
271.66        78.73852
272.12        77.97325
272.57        77.20291
273.03        76.36005
273.48        75.26225
273.94        74.00047
274.39         72.5767
274.85        71.25439
275.31        70.17142
275.76         69.3041
276.22        68.65726
276.67        68.07126
277.13        67.51935
277.58        66.85972
278.04        66.15637
278.49        65.29955
278.95        64.33849
279.40        63.21418
279.86        62.08069
280.31        60.87369
280.77        59.70868
281.22        58.55055
281.68        57.50936
282.13        56.60922
282.59         56.0584
283.04        55.77507
283.50        55.71358
283.95        55.67761
284.41        55.41065
284.86        54.83599
285.32        54.08802
285.77        53.24231
286.22        52.51774
286.68        51.96181
287.13        51.45248
287.59        50.99084
288.04        50.49895
288.50        50.00051
288.95        49.48895
289.41        48.96957
289.86        48.32224
290.32        47.60683
290.77        46.82872
291.22        46.12136
291.68        45.65948
292.13        45.44702
292.59        45.44527
293.04        45.55151
293.50         45.6375
293.95        45.64656
294.40         45.6249
294.86        45.60418
295.31        45.61786
295.77        45.69616
296.22        45.80761
296.68        45.97133
297.13        46.19475
297.58        46.48044
298.04         46.8212
298.49        47.18529
298.95        47.54622
299.40        47.87479
299.85        48.17622
300.31        48.44201
300.76         48.6406
301.21        48.77796
301.67        48.87698
302.12        48.94091
302.58        49.05537
303.03        49.20026
303.48        49.38623
303.94        49.59109
304.39        49.72427
304.84        49.79059
305.30        49.82226
305.75        49.83549
306.20        49.92846
306.66         50.1224
307.11        50.35786
307.57        50.58144
308.02        50.64422
308.47        50.54115
308.93        50.33182
309.38        50.08257
309.83        49.95815
310.29        49.99311
310.74        50.13172
311.19        50.28964
311.65        50.32284
312.10        50.18748
312.55        49.92786
313.00        49.63343
313.46        49.43502
313.91        49.34241
314.36        49.32362
314.82         49.2903
315.27        49.11963
315.72        48.78363
316.18        48.34547
316.63        47.88589
317.08         47.5465
317.53        47.35878
317.99        47.27046
318.44        47.22237
318.89        47.10417
319.35        46.88125
319.80        46.58714
320.25        46.25811
320.70        45.95082
321.16        45.68409
321.61        45.45977
322.06         45.2508
322.51        45.02228
322.97         44.7605
323.42         44.4758
323.87        44.22651
324.32        44.11189
324.78        44.12605
325.23         44.2657
325.68        44.37123
326.13        44.18854
326.59        43.67177
327.04        42.91944
327.49        42.14605
327.94        41.69268
328.39        41.63555
328.85        41.86391
329.30        42.23228
329.75        42.38303
330.20        42.20253
330.66         41.7848
331.11        41.29585
331.56        40.96964
332.01        40.87785
332.46        40.93574
332.92        41.03134
333.37        41.04717
333.82         40.9156
334.27        40.69934
334.72        40.45857
335.17        40.27787
335.63        40.18666
336.08        40.17877
336.53        40.22762
336.98        40.31071
337.43        40.40956
337.88        40.51335
338.34        40.62269
338.79        40.78072
339.24        40.96192
339.69        41.15035
340.14        41.25587
340.59        41.14219
341.05        40.81453
341.50        40.33325
341.95        39.85162
342.40        39.60022
342.85        39.62993
343.30        39.86209
343.75        40.19418
344.20        40.45366
344.66         40.5758
345.11         40.6051
345.56        40.54012
346.01        40.38264
346.46        40.16133
346.91        39.88552
347.36        39.62226
347.81        39.48447
348.26        39.49346
348.72        39.61528
349.17         39.8029
349.62         39.9891
350.07        40.13991
350.52        40.27403
350.97         40.3409
351.42         40.2659
351.87        40.04931
352.32        39.71226
352.77        39.37111
353.22        39.19975
353.67        39.22993
354.13         39.4208
354.58        39.64786
355.03        39.69424
355.48        39.50771
355.93        39.15313
356.38        38.77519
356.83        38.59141
357.28        38.64074
357.73        38.84556
358.18         39.0573
358.63        39.04041
359.08        38.73814
359.53        38.23097
359.98        37.65856
360.43        37.22331
360.88         36.9726
361.33        36.84637
361.78        36.74357
362.23        36.50605
362.68        36.10593
363.13        35.61256
363.58        35.12711
364.03        34.79583
364.48        34.64986
364.93        34.63213
365.38        34.66965
365.83        34.64812
366.28        34.53025
366.73        34.35297
367.18        34.14057
367.63        33.93105
368.08        33.73915
368.53        33.54459
368.98        33.35888
369.43        33.20462
369.88        33.08262
370.33        32.99408
370.78        32.90402
371.23        32.75082
371.68        32.52406
372.13        32.24062
372.58        31.95448
373.03        31.75273
373.48        31.65074
373.93        31.61695
374.38        31.59143
374.83        31.47994
375.28        31.25924
375.72        30.95488
376.17        30.63131
376.62        30.34503
377.07        30.12008
377.52        29.94682
377.97        29.80764
378.42        29.67925
378.87        29.55306
379.32        29.42588
379.77        29.32924
380.22        29.30692
380.67        29.35409
381.11        29.46344
381.56        29.52524
382.01        29.39104
382.46        29.04953
382.91        28.57348
383.36        28.11126
383.81        27.86587
384.26        27.86788
384.71        28.04754
385.15        28.30101
385.60        28.45049
386.05         28.4364
386.50        28.31276
386.95        28.12046
387.40        27.92548
387.85        27.75887
388.29        27.58338
388.74        27.44349
389.19        27.33846
389.64        27.26309
390.09        27.21283
390.54        27.17422
390.98        27.11216
391.43        27.03638
391.88        26.95857
392.33        26.87396
392.78        26.77644
393.23        26.67087
393.67        26.54321
394.12        26.45584
394.57        26.45044
395.02         26.5271
395.47        26.66055
395.91        26.79228
396.36        26.80836
396.81        26.69994
397.26        26.51161
397.71        26.29764
398.15        26.15466
398.60         26.1349
399.05        26.09654
399.50        26.05015
399.95        26.20568
400.39        26.46936
400.84        26.37926
401.29        25.97692
401.74        25.74306
402.18        25.71711
402.63        25.61595
403.08        25.46412
403.53        25.41591
403.97         25.4742
404.42        25.60484
404.87        25.73314
405.32        25.73371
405.76        25.58262
406.21        25.33272
406.66        25.08162
407.11          24.986
407.55        25.08455
408.00        25.31513
408.45        25.58758
408.90        25.72492
409.34        25.67122
409.79        25.49334
410.24        25.26575
410.68        25.08506
411.13        24.98858
411.58        24.94203
412.03        24.93518
412.47        24.95721
412.92        24.98716
413.37        25.03705
413.81        25.08726
414.26         25.1299
414.71        25.15272
415.15        25.16239
415.60        25.14828
416.05        25.12427
416.49        25.09901
416.94        25.06778
417.39        25.04086
417.83        25.03032
418.28        25.03598
418.73        25.04968
419.17        25.06677
419.62         25.0791
420.07        25.08193
420.51        25.07223
420.96        25.04216
421.41         24.9745
421.85        24.86419
422.30        24.71316
422.74        24.54418
423.19        24.49817
423.64        24.54704
424.08        24.53098
424.53        24.44234
424.98        24.45563
425.42        24.58595
425.87        24.66399
426.31         24.6918
426.76        24.85473
427.21         25.0766
427.65        25.00467
428.10        24.70954
428.54        24.56588
428.99        24.61096
429.44        24.73249
429.88        24.85781
430.33        24.77428
430.77        24.55269
431.22        24.65982
431.66        25.04313
432.11         25.1937
432.56        25.09007
433.00        25.07156
433.45        25.07346
433.89         24.8614
434.34        24.61683
434.78        24.11506
435.23        24.68643
435.67         24.7552
436.12        24.66161
436.57        24.47131
437.01        24.27297
437.46        24.22084
437.90        24.32986
438.35        24.49282
438.79        24.62804
439.24        24.69564
439.68        24.66954
440.13        24.55718
440.57        24.42122
441.02        24.35937
441.46        24.38547
441.91        24.50244
442.35         24.6189
442.80        24.62753
443.24           24.52
443.69        24.44414
444.13        24.41618
444.58        24.38013
445.02        24.34123
445.47        24.35015
445.91         24.3962
446.36        24.44301
446.80        24.47832
447.24        24.51397
447.69        24.55065
448.13        24.57803
448.58            24.6
449.02        24.61076
449.47        24.61333
449.91        24.60285
450.36        24.58839
450.80        24.56672
451.25        24.55456
451.69        24.55992
452.13        24.58822
452.58        24.63154
453.02        24.67962
453.47        24.71942
453.91        24.74475
454.36        24.76167
454.80        24.76021
455.24        24.72552
455.69        24.66505
456.13        24.56698
456.58        24.47706
457.02         24.4262
457.46        24.43023
457.91        24.47991
458.35        24.52053
458.79        24.47243
459.24        24.34772
459.68        24.16677
460.13        24.01476
460.57        23.96066
461.01        24.03573
461.46        24.18675
461.90        24.39102
462.34         24.5921
462.79        24.75059
463.23        24.88683
463.68        24.94542
464.12        24.85523
464.56        24.62197
465.01        24.31725
465.45        24.00728
465.89        23.84507
466.34        23.85183
466.78        23.97889
467.22        24.18312
467.67        24.35879
468.11        24.47767
468.55        24.55516
468.99        24.59471
469.44        24.60172
469.88        24.58685
470.32        24.54008
470.77        24.48529
471.21         24.4715
471.65        24.50617
472.10        24.58182
472.54          24.668
472.98        24.72039
473.42        24.72688
473.87        24.70905
474.31        24.66761
474.75        24.62721
475.20         24.6026
475.64        24.57874
476.08         24.5652
476.52        24.56421
476.97        24.57589
477.41        24.61308
477.85         24.6765
478.29        24.72832
478.74        24.78335
479.18         24.9049
479.62        25.06353
480.06        25.17157
480.50        25.22508
480.95        25.23254
481.39        25.19149
481.83        25.35081
482.27        25.33458
482.72        25.41702
483.16        25.50042
483.60        25.54199
484.04        25.51927
484.48        25.66252
484.93        25.93545
485.37        25.64922
485.81        25.65991
486.25        25.92043
486.69        24.82311
487.14        25.82162
487.58        27.09915
488.02        26.81273
488.46         26.2679
488.90        26.50866
489.34        26.64056
489.79        27.05048
490.23        27.13233
490.67        27.19914
491.11        27.22676
491.55        27.23285
491.99        27.26424
492.43        27.31024
492.88        27.38769
493.32        27.51844
493.76        27.68379
494.20        27.85898
494.64         28.0441
495.08        28.18796
495.52         28.2983
495.96        28.57331
496.41        28.95101
496.85        28.98315
497.29        28.72997
497.73        28.96301
498.17        29.26046
498.61          29.432
499.05        29.34106
499.49        29.32845
499.93        29.35052
500.37        29.53139
500.82        29.81085
501.26        30.02449
501.70        30.14524
502.14        30.27667
502.58        30.43427
503.02        30.58433
503.46        30.72634
503.90        30.86927
504.34        30.98426
504.78         31.0258
505.22        30.99176
505.66        30.89972
506.10        30.80615
506.54         30.8004
506.98        30.89994
507.42         31.0762
507.86        31.27691
508.30        31.41277
508.74        31.46016
509.18        31.45238
509.62        31.41611
510.06        31.39565
510.50        31.40891
510.94        31.43544
511.38         31.4923
511.82        31.60843
512.26        31.77986
512.70        32.00014
513.14        32.20896
513.58        32.30642
514.02        32.27372
514.46        32.13771
514.90        31.97487
515.34        31.91238
515.78        31.97995
516.22        32.13826
516.66        32.31848
517.10         32.4084
517.54        32.37931
517.98        32.27119
518.42        32.13176
518.86         32.0352
519.30        32.00499
519.74        32.01515
520.18        32.04703
520.62        32.07327
521.06        32.08394
521.50        32.09258
521.93        32.10011
522.37         32.0939
522.81        32.07748
523.25         32.0466
523.69        32.01264
524.13        31.99765
524.57        32.00093
525.01        32.01094
525.45        32.00728
525.89         31.9564
526.32        31.85061
526.76        31.71701
527.20        31.56717
527.64        31.42076
528.08        31.29081
528.52        31.17334
528.96        31.09116
529.40        31.07887
529.83        31.13309
530.27        31.23991
530.71        31.34807
531.15        31.37881
531.59        31.31333
532.03        31.17327
532.46        30.99379
532.90        30.85481
533.34        30.77487
533.78        30.71938
534.22        30.67428
534.66        30.65438
535.09        30.63074
535.53        30.54172
535.97         30.4121
536.41        30.35756
536.85        30.38803
537.28        30.44102
537.72        30.50252
538.16         30.5745
538.60        30.64772
539.04        30.72164
539.47        30.78495
539.91        30.84084
540.35        30.88497
540.79        30.91944
541.22        30.95558
541.66        31.02262
542.10        31.12135
542.54        31.24388
542.97        31.37122
543.41        31.48653
543.85        31.58125
544.29        31.66739
544.72        31.74796
545.16         31.8481
545.60        31.96978
546.04         32.1124
546.47        32.28406
546.91        32.49132
547.35        32.72641
547.79        32.98283
548.22        33.23949
548.66        33.45787
549.10        33.66902
549.53        33.86615
549.97        34.05329
550.41        34.16213
550.84        34.23015
551.28        34.35311
551.72        34.51517
552.15        34.70526
552.59        34.96069
553.03        34.82439
553.46        35.23347
553.90        35.31806
554.34        35.35546
554.77        35.36015
555.21        35.38609
555.65        35.49118
556.08        35.67244
556.52        35.88881
556.96         36.0876
557.39        36.28648
557.83        36.44252
558.27         36.3698
558.70        36.14546
559.14        36.11124
559.57        36.27217
560.01        36.42221
560.45        36.53379
560.88        36.68027
561.32        36.86708
561.75        37.03609
562.19        37.18213
562.63        37.28895
563.06        37.34859
563.50        37.37027
563.93         37.3523
564.37        37.39317
564.80        37.51771
565.24        37.60938
565.68        37.57421
566.11        38.08525
566.55        37.76905
566.98        37.77486
567.42        37.78662
567.85        37.90139
568.29         38.1364
568.72        38.49299
569.16        38.94789
569.60        39.19835
570.03        39.35776
570.47        39.60913
570.90        39.69532
571.34        39.63953
571.77        39.92329
572.21        40.05701
572.64        40.12276
573.08        40.36705
573.51         40.3875
573.95        40.41883
574.38        40.45625
574.82        40.65429
