SpectraSmart Spectrum 2.9.0.0
--------- Device Information -----------
Spectrum Name :  反射率_0
Saving Time :  2024/04/26 22:10:54
Spectro-Module Model Name : SE2030-DUVN
Spectro-Module Serial Number : OS361AC55029948
Wavelength Start : 200
Wavelength End : 1025
Wavelength Unit : Wavelength(nm)
Spectrum Unit : Reflectance(%)
-----------Spectrum Setting ------------
Integration Time : 20ms
Average : 10
Boxcar : 0
Background removal :  enabled
linearity correction :  enabled
SC :  disabled
Intensity correction :  disabled
DWT denoise :  enabled
savitzky-golay :  disabled
FFT :  disabled
Running average :  disabled
Kalman :  disabled
High pass :  disabled
---------------BEGIN--------------------
Wavelength(nm)             Reflectance(%)
200.29               0
200.75        35.02822
201.21        32.36345
201.67        30.84377
202.13        31.25798
202.58        33.51804
203.04        38.16312
203.50        44.48251
203.96        48.86783
204.42        48.65205
204.88         43.7128
205.34        36.53956
205.80         32.8415
206.26        33.98561
206.72        37.66169
207.18        41.11927
207.64        41.85129
208.10        39.53828
208.55        34.73809
209.01        27.16873
209.47        21.40209
209.93        21.31264
210.39        24.32862
210.85        27.75678
211.31        30.67339
211.77        34.00881
212.23        40.58651
212.69        56.98817
213.14        88.31689
213.60        93.17719
214.06        75.33759
214.52        62.72807
214.98        59.30204
215.44        60.79631
215.90        63.92182
216.36        67.37351
216.81        69.00906
217.27        68.37395
217.73        67.36412
218.19        64.22534
218.65        56.10213
219.11        47.06486
219.57        40.10189
220.02        38.61279
220.48        45.11473
220.94        60.08429
221.40        86.86948
221.86        124.0208
222.32        145.2174
222.77        130.3615
223.23        97.67413
223.69         68.3033
224.15        53.98553
224.61        51.34446
225.06        53.92153
225.52        58.13668
225.98        60.48419
226.44        60.49825
226.90        59.60905
227.36        58.24854
227.81        56.87541
228.27        55.91034
228.73        54.92398
229.19        54.07952
229.65        53.68405
230.10        53.66977
230.56        54.03288
231.02        54.47081
231.48        54.46655
231.93         53.9218
232.39        53.29361
232.85         52.7411
233.31        52.59809
233.77        52.84126
234.22        53.22926
234.68        53.74161
235.14        54.50025
235.60        55.46172
236.05        56.77369
236.51        57.66866
236.97        56.67192
237.43         53.4777
237.88        48.56239
238.34        43.63569
238.80        41.71489
239.26        43.88016
239.71        50.45848
240.17        60.35771
240.63        69.22906
241.08        73.81649
241.54        73.43945
242.00        70.17854
242.46        69.52554
242.91        74.98267
243.37        86.92287
243.83        105.5453
244.28        121.3066
244.74        120.4732
245.20        104.2279
245.66        85.41438
246.11        74.64843
246.57        72.23332
247.03        74.66155
247.48         76.9076
247.94        71.69399
248.40        61.12746
248.85        50.28094
249.31         42.4849
249.77        39.01484
250.22         38.9508
250.68        41.45267
251.14        45.66053
251.59        48.36104
252.05        47.94255
252.51        46.13655
252.96          43.647
253.42        41.39855
253.88        39.61924
254.33        37.66726
254.79        37.16136
255.25        39.36605
255.70        43.88705
256.16        50.21614
256.62        55.44738
257.07        55.26387
257.53        51.04107
257.99        45.57481
258.44        41.34656
258.90        40.52051
259.35        42.07723
259.81         44.9996
260.27        47.70537
260.72        48.26488
261.18        46.86206
261.63        44.31641
262.09        41.93926
262.55         40.6849
263.00        40.47076
263.46        40.91134
263.91        41.28894
264.37        40.92708
264.83        39.78791
265.28        38.22329
265.74        36.84146
266.19        36.14942
266.65         36.2436
267.11        36.80011
267.56        37.49909
268.02         37.8371
268.47        37.66167
268.93        37.17365
269.38        36.44849
269.84        35.65004
270.30        34.84823
270.75        33.97306
271.21         33.1898
271.66        32.71209
272.12        32.55749
272.57        32.65802
273.03        32.75667
273.48         32.4146
273.94        31.60935
274.39        30.48414
274.85        29.37038
275.31         28.6116
275.76        28.24882
276.22         28.1625
276.67        28.18119
277.13        28.13786
277.58        27.92988
278.04        27.64145
278.49        27.23277
278.95        26.74232
279.40        26.15833
279.86        25.54677
280.31        24.91729
280.77        24.37713
281.22        23.91895
281.68        23.56583
282.13        23.29534
282.59        23.14015
283.04        23.05757
283.50        23.03755
283.95        23.01377
284.41          22.894
284.86        22.65458
285.32        22.34319
285.77        21.98805
286.22        21.67875
286.68        21.43923
287.13        21.22647
287.59        21.04458
288.04        20.86216
288.50         20.6903
288.95        20.51761
289.41        20.35803
289.86         20.1779
290.32        19.99749
290.77        19.81207
291.22        19.64431
291.68        19.51595
292.13        19.43251
292.59        19.41258
293.04        19.45429
293.50        19.57249
293.95        19.75774
294.40        19.99456
294.86        20.29599
295.31        20.67653
295.77        21.12699
296.22        21.63025
296.68        22.10847
297.13        22.43283
297.58        22.59589
298.04        22.64411
298.49        22.69648
298.95        22.95713
299.40        23.45585
299.85         24.1173
300.31        24.81932
300.76         25.3687
301.21        25.71187
301.67        25.91974
302.12        26.02808
302.58        26.13925
303.03        26.26912
303.48        26.40527
303.94        26.55536
304.39        26.71217
304.84        26.87807
305.30        27.06439
305.75        27.24587
306.20        27.42158
306.66        27.59099
307.11        27.74267
307.57        27.86032
308.02        27.88775
308.47         27.8293
308.93         27.7037
309.38         27.5634
309.83        27.52684
310.29        27.61213
310.74        27.78484
311.19        27.94767
311.65        27.93646
312.10        27.71816
312.55        27.34888
313.00         26.9572
313.46        26.73469
313.91        26.70876
314.36        26.82336
314.82        26.96094
315.27        26.93755
315.72         26.7063
316.18        26.34134
316.63        25.93298
317.08        25.62996
317.53        25.47042
317.99          25.398
318.44        25.36699
318.89        25.29675
319.35        25.15815
319.80        24.97841
320.25        24.76766
320.70        24.53784
321.16        24.29735
321.61        24.04941
322.06        23.79898
322.51        23.56267
322.97        23.34233
323.42        23.13627
323.87        22.95851
324.32        22.83098
324.78        22.74434
325.23        22.70774
325.68        22.64973
326.13          22.459
326.59        22.11959
327.04         21.6746
327.49        21.23707
327.94        20.98632
328.39        20.95604
328.85        21.08704
329.30        21.27942
329.75        21.30954
330.20        21.11132
330.66        20.74739
331.11        20.33222
331.56        20.03364
332.01        19.90333
332.46         19.8872
332.92        19.91783
333.37        19.91513
333.82        19.83363
334.27         19.7078
334.72        19.56326
335.17        19.43476
335.63        19.33474
336.08         19.2588
336.53        19.19175
336.98        19.12247
337.43        19.04549
337.88         18.9588
338.34        18.88082
338.79        18.85907
339.24        18.89036
339.69        18.96255
340.14        19.01157
340.59        18.93611
341.05        18.72974
341.50        18.42902
341.95        18.12471
342.40        17.95514
342.85         17.9507
343.30        18.06403
343.75        18.22842
344.20        18.33464
344.66        18.34812
345.11        18.29961
345.56        18.20845
346.01         18.1061
346.46        18.01292
346.91        17.92159
347.36        17.84621
347.81        17.81398
348.26        17.82744
348.72        17.87897
349.17        17.95335
349.62         18.0322
350.07        18.10416
350.52        18.17369
350.97        18.21378
351.42        18.18478
351.87        18.08595
352.32        17.92982
352.77        17.77298
353.22        17.70045
353.67         17.7261
354.13         17.8278
354.58        17.94223
355.03        17.96687
355.48        17.87774
355.93        17.71182
356.38        17.52816
356.83        17.41491
357.28        17.39178
357.73        17.42553
358.18        17.47902
358.63        17.49424
359.08           17.45
359.53        17.36411
359.98         17.2482
360.43        17.11689
360.88        16.97662
361.33         16.8227
361.78        16.65771
362.23        16.48902
362.68        16.32513
363.13        16.17479
363.58        16.04368
364.03        15.93544
364.48        15.84928
364.93        15.77999
365.38        15.73061
365.83        15.70576
366.28        15.70127
366.73        15.71314
367.18        15.71507
367.63        15.66809
368.08        15.56699
368.53        15.42273
368.98        15.27352
369.43        15.18141
369.88        15.15965
370.33        15.19019
370.78        15.23384
371.23        15.22405
371.68         15.1432
372.13        15.01293
372.58        14.86566
373.03        14.75329
373.48        14.68917
373.93        14.65276
374.38        14.62626
374.83        14.58272
375.28          14.513
375.72        14.42622
376.17         14.3316
376.62        14.22127
377.07        14.10011
377.52        13.97061
377.97        13.85318
378.42        13.78414
378.87        13.76774
379.32        13.78728
379.77        13.81844
380.22        13.82436
380.67        13.79234
381.11         13.7355
381.56        13.64594
382.01        13.52915
382.46        13.39911
382.91         13.2646
383.36        13.14745
383.81        13.07528
384.26        13.05016
384.71        13.06286
385.15        13.09987
385.60        13.14037
386.05        13.17129
386.50         13.1957
386.95        13.20293
387.40        13.18046
387.85        13.12867
388.29        13.04165
388.74        12.95659
389.19         12.8968
389.64        12.86551
390.09        12.85579
390.54        12.84328
390.98        12.78376
391.43        12.68217
391.88        12.55728
392.33          12.442
392.78        12.38159
393.23          12.381
393.67        12.41307
394.12        12.46635
394.57        12.50078
395.02        12.50352
395.47         12.4798
395.91        12.43442
396.36        12.36813
396.81        12.29537
397.26        12.22104
397.71        12.14688
398.15        12.08257
398.60        12.04594
399.05         11.9854
399.50        11.92297
399.95        11.97718
400.39        12.10877
400.84        12.09563
401.29        11.94191
401.74        11.84467
402.18        11.81541
402.63        11.73558
403.08        11.62524
403.53        11.56934
403.97         11.5751
404.42        11.61927
404.87        11.67338
405.32        11.68863
405.76        11.65106
406.21        11.58243
406.66        11.50676
407.11        11.46348
407.55        11.46564
408.00        11.49372
408.45        11.53087
408.90        11.54253
409.34        11.51717
409.79        11.46875
410.24        11.41183
410.68        11.36121
411.13        11.32512
411.58        11.29684
412.03        11.27016
412.47        11.23858
412.92         11.1973
413.37        11.15297
413.81        11.11161
414.26        11.08867
414.71        11.08156
415.15        11.08838
415.60        11.09195
416.05         11.0719
416.49        11.02422
416.94        10.95339
417.39        10.87873
417.83        10.82909
418.28        10.80922
418.73        10.81069
419.17        10.81607
419.62        10.79638
420.07        10.74713
420.51         10.6785
420.96        10.60952
421.41        10.56705
421.85        10.55227
422.30        10.55008
422.74        10.54699
423.19        10.57395
423.64        10.60933
424.08        10.59304
424.53        10.52462
424.98        10.48892
425.42        10.49849
425.87        10.47943
426.31        10.43945
426.76        10.46832
427.21        10.53625
427.65        10.49624
428.10        10.37408
428.54        10.31782
428.99        10.33928
429.44        10.38976
429.88         10.4395
430.33        10.40355
430.77        10.31047
431.22        10.35275
431.66        10.50241
432.11        10.52864
432.56        10.42352
433.00        10.34112
433.45        10.27021
433.89         10.1276
434.34        10.00746
434.78        9.835649
435.23        10.13622
435.67        10.21373
436.12        10.19466
436.57        10.12417
437.01        10.02665
437.46        9.948315
437.90        9.898614
438.35        9.835038
438.79        9.770523
439.24        9.757216
439.68        9.797587
440.13        9.877839
440.57        9.966123
441.02        10.01684
441.46        10.01526
441.91        9.947721
442.35        9.849597
442.80        9.866117
443.24        9.963202
443.69         9.96043
444.13         9.85771
444.58        9.814563
445.02        9.831337
445.47        9.817705
445.91        9.782633
446.36         9.78639
446.80        9.828132
447.24         9.88905
447.69        9.945467
448.13        9.955895
448.58        9.915484
449.02        9.838174
449.47        9.751775
449.91        9.695724
450.36        9.683041
450.80        9.699598
451.25        9.732386
451.69        9.755725
452.13         9.76278
452.58        9.761592
453.02        9.754752
453.47        9.747252
453.91        9.741395
454.36        9.734352
454.80        9.726584
455.24        9.718755
455.69        9.713503
456.13        9.703835
456.58        9.697628
457.02        9.689941
457.46        9.684633
457.91        9.681059
458.35        9.668765
458.79         9.63203
459.24        9.580018
459.68        9.513805
460.13        9.459548
460.57        9.429725
461.01        9.435627
461.46        9.461064
461.90        9.504952
462.34        9.554494
462.79        9.599142
463.23        9.645945
463.68        9.672581
464.12        9.650593
464.56        9.578712
465.01        9.481473
465.45        9.382068
465.89        9.338733
466.34        9.358361
466.78        9.422307
467.22        9.506681
467.67        9.558516
468.11        9.566915
468.55        9.543969
468.99        9.507578
469.44        9.485766
469.88        9.487736
470.32        9.501807
470.77        9.524629
471.21         9.55485
471.65        9.587053
472.10        9.624608
472.54        9.655125
472.98        9.662166
473.42        9.645144
473.87        9.614657
474.31        9.579177
474.75        9.562388
475.20        9.572546
475.64        9.597927
476.08        9.638101
476.52        9.686745
476.97        9.739024
477.41         9.80001
477.85        9.861257
478.29         9.89379
478.74        9.902648
479.18        9.918395
479.62        9.942486
480.06        9.963765
480.50         9.98514
480.95         9.99908
481.39        10.00151
481.83         10.0876
482.27         10.1082
482.72        10.17808
483.16         10.2434
483.60        10.28241
484.04        10.28276
484.48         10.3026
484.93        10.38778
485.37        10.39723
485.81        10.54557
486.25        10.87722
486.69        10.04712
487.14        10.33078
487.58        11.29412
488.02         11.2959
488.46        10.89171
488.90        10.87204
489.34        10.91358
489.79        11.09012
490.23        11.14991
490.67        11.28407
491.11         11.4317
491.55        11.44796
491.99        11.38041
492.43        11.41457
492.88        11.56702
493.32        11.72705
493.76        11.86346
494.20        11.98868
494.64        12.09732
495.08        12.15839
495.52        12.19602
495.96        12.33138
496.41        12.54631
496.85        12.63953
497.29        12.61228
497.73         12.7671
498.17         12.9121
498.61        12.97328
499.05        12.91619
499.49        12.92934
499.93        13.00294
500.37        13.18668
500.82        13.41808
501.26        13.55757
501.70        13.58334
502.14        13.56923
502.58        13.56536
503.02        13.62352
503.46        13.75854
503.90        13.94809
504.34        14.14779
504.78        14.28455
505.22         14.3372
505.66        14.33121
506.10        14.29189
506.54        14.25941
506.98        14.25116
507.42        14.25572
507.86        14.28059
508.30        14.33838
508.74        14.42679
509.18        14.54298
509.62        14.66398
510.06        14.75017
510.50        14.79197
510.94        14.79916
511.38        14.78916
511.82        14.79285
512.26        14.81995
512.70        14.86083
513.14        14.91078
513.58        14.96177
514.02        15.00972
514.46        15.05893
514.90        15.10341
515.34        15.13266
515.78        15.14444
516.22         15.1382
516.66        15.12526
517.10        15.12524
517.54        15.14197
517.98        15.17165
518.42        15.19694
518.86        15.18935
519.30        15.14546
519.74        15.07647
520.18        15.00781
520.62         14.9784
521.06        14.99642
521.50        15.04903
521.93        15.11369
522.37        15.14711
522.81        15.13909
523.25        15.10072
523.69        15.04796
524.13        15.00589
524.57        14.98094
525.01        14.96366
525.45        14.94461
525.89        14.90998
526.32        14.85536
526.76        14.79164
527.20        14.72508
527.64        14.66478
528.08        14.61444
528.52         14.5716
528.96        14.53517
529.40        14.50373
529.83        14.47524
530.27        14.44928
530.71        14.42363
531.15        14.39605
531.59        14.36573
532.03        14.33294
532.46        14.29349
532.90        14.25132
533.34        14.20661
533.78        14.15417
534.22        14.10129
534.66        14.07605
535.09        14.07027
535.53        14.04628
535.97        14.00773
536.41         13.9974
536.85         14.0157
537.28        14.03737
537.72        14.05681
538.16        14.07516
538.60         14.0905
539.04        14.10457
539.47        14.11538
539.91        14.12902
540.35        14.14606
540.79        14.16757
541.22        14.20141
541.66        14.26481
542.10        14.35647
542.54        14.46959
542.97        14.58822
543.41        14.69283
543.85         14.7767
544.29        14.84832
544.72        14.91186
545.16        14.98583
545.60        15.07277
546.04        15.16879
546.47        15.28104
546.91        15.41698
547.35        15.57274
547.79        15.74634
548.22         15.9158
548.66        16.04432
549.10        16.14585
549.53        16.22194
549.97        16.29844
550.41        16.38028
550.84        16.49214
551.28        16.66712
551.72        16.86498
552.15        17.03457
552.59        17.18464
553.03        17.08049
553.46        17.26037
553.90        17.31426
554.34        17.40204
554.77        17.51099
555.21        17.63842
555.65        17.76487
556.08        17.87584
556.52        17.96856
556.96        18.03759
557.39        18.12358
557.83        18.21371
558.27         18.2023
558.70        18.11898
559.14        18.12191
559.57        18.20884
560.01        18.28327
560.45        18.32989
560.88        18.38116
561.32        18.44315
561.75        18.49067
562.19        18.53236
562.63        18.57757
563.06        18.62649
563.50         18.6786
563.93        18.72617
564.37        18.80556
564.80        18.92373
565.24        19.02414
565.68        19.05571
566.11        19.35435
566.55        19.22259
566.98        19.24621
567.42        19.26687
567.85        19.34053
568.29        19.48002
568.72        19.67452
569.16        19.91251
569.60        20.07899
570.03        20.24144
570.47         20.3733
570.90        20.48546
571.34        20.56675
571.77        20.68389
572.21        20.76887
572.64        20.77583
573.08         21.0026
573.51        21.27682
573.95        21.36442
574.38         21.2804
574.82        21.46689
