SpectraSmart Spectrum 2.9.0.0
--------- Device Information -----------
Spectrum Name :  反射率_0
Saving Time :  2024/04/26 21:26:29
Spectro-Module Model Name : SE2030-DUVN
Spectro-Module Serial Number : OS361AC55029948
Wavelength Start : 200
Wavelength End : 1025
Wavelength Unit : Wavelength(nm)
Spectrum Unit : Reflectance(%)
-----------Spectrum Setting ------------
Integration Time : 20ms
Average : 10
Boxcar : 0
Background removal :  enabled
linearity correction :  enabled
SC :  disabled
Intensity correction :  disabled
DWT denoise :  enabled
savitzky-golay :  disabled
FFT :  disabled
Running average :  disabled
Kalman :  disabled
High pass :  disabled
---------------BEGIN--------------------
Wavelength(nm)             Reflectance(%)
200.29               0
200.75        53.69185
201.21        52.06919
201.67        50.66177
202.13        50.21603
202.58           50.78
203.04        52.45986
203.50        55.47912
203.96        59.49712
204.42        63.89176
204.88        68.52671
205.34        72.25953
205.80        73.74402
206.26         72.8008
206.72        69.63243
207.18        66.38135
207.64        64.94259
208.10        65.48179
208.55        68.75655
209.01        72.86575
209.47        71.84524
209.93        65.08632
210.39        57.45378
210.85        53.20166
211.31        54.56592
211.77        62.64849
212.23        83.51514
212.69        136.8083
213.14        224.3714
213.60        217.3716
214.06        153.7878
214.52        112.3533
214.98        95.66068
215.44        90.91564
215.90        89.89337
216.36        91.93948
216.81        97.35048
217.27        106.5647
217.73        124.0206
218.19        145.5285
218.65         147.131
219.11        124.9165
219.57        96.76865
220.02        79.11332
220.48         79.4632
220.94        96.16362
221.40        131.1912
221.86        183.9988
222.32        221.3489
222.77        212.6716
223.23        178.9061
223.69        144.3566
224.15        123.2504
224.61        113.6868
225.06        109.0784
225.52        107.9782
225.98        108.6969
226.44        110.5303
226.90        114.1507
227.36        118.3218
227.81        120.4567
228.27         120.236
228.73         118.023
229.19        115.7875
229.65         116.053
230.10         118.816
230.56        123.3374
231.02        127.3876
231.48        127.5251
231.93         123.437
232.39        117.3332
232.85        111.5562
233.31        109.1278
233.77        110.2965
234.22        113.8166
234.68         118.337
235.14        121.8061
235.60        123.4638
236.05        124.0569
236.51        123.3282
236.97        121.2568
237.43        118.0855
237.88        113.7781
238.34        109.3465
238.80        106.8793
239.26        107.0639
239.71        110.7079
240.17        116.5952
240.63         121.449
241.08        123.2995
241.54        121.4185
242.00        118.9489
242.46        122.8164
242.91        138.0391
243.37        167.2506
243.83        211.7686
244.28        252.2047
244.74        257.5107
245.20        226.0519
245.66        183.2347
246.11        152.5468
246.57        135.5167
247.03        125.7546
247.48        118.3145
247.94        108.0958
248.40        97.03053
248.85         88.1843
249.31        83.08473
249.77        81.42522
250.22        82.29355
250.68        85.17906
251.14        88.77242
251.59        89.18341
252.05        85.30097
252.51        79.89213
252.96        75.19666
253.42        73.55911
253.88        74.52132
254.33        76.27332
254.79        79.56304
255.25        84.75728
255.70        91.37555
256.16        99.33604
256.62        105.5124
257.07        105.1565
257.53        100.2683
257.99        94.02435
258.44        89.05847
258.90        88.07005
259.35        89.75555
259.81        93.24043
260.27        96.85131
260.72        98.55383
261.18        98.53277
261.63        97.19636
262.09        95.98089
262.55        95.63555
263.00        95.97541
263.46         96.8349
263.91          97.257
264.37        96.62321
264.83        94.89275
265.28          92.476
265.74        90.29653
266.19        88.96511
266.65        88.67782
267.11        88.98887
267.56        89.51045
268.02        89.66301
268.47        89.23659
268.93        88.49777
269.38        87.44691
269.84        86.19277
270.30        84.79528
270.75        83.19224
271.21        81.70428
271.66        80.71989
272.12        80.30049
272.57        80.28965
273.03        80.29134
273.48         79.6094
273.94        78.21074
274.39        76.27586
274.85        74.33238
275.31        72.86174
275.76        71.91344
276.22        71.38385
276.67        70.94334
277.13        70.33961
277.58        69.39489
278.04        68.26644
278.49        67.01423
278.95        65.93293
279.40        64.97776
279.86        64.18472
280.31        63.29165
280.77        62.14853
281.22        60.68834
281.68        59.15142
282.13        57.70396
282.59        56.74509
283.04        56.23535
283.50        56.06257
283.95        56.00003
284.41        55.74541
284.86        55.19855
285.32        54.51828
285.77        53.74338
286.22        53.03472
286.68        52.43323
287.13         51.8178
287.59        51.24663
288.04           50.74
288.50         50.3265
288.95        49.95382
289.41        49.54432
289.86        48.85526
290.32        47.93067
290.77        46.83095
291.22        45.75536
291.68        44.97222
292.13        44.51636
292.59        44.32208
293.04         44.2787
293.50        44.24509
293.95         44.1529
294.40        44.05146
294.86        43.95071
295.31        43.84768
295.77        43.76181
296.22        43.66683
296.68        43.59678
297.13        43.58708
297.58        43.65298
298.04        43.78922
298.49        43.96082
298.95        44.13357
299.40        44.28093
299.85        44.41006
300.31        44.53578
300.76        44.66261
301.21        44.79247
301.67        44.92923
302.12        45.02434
302.58        45.08068
303.03        45.07035
303.48        45.03395
303.94        45.00473
304.39        44.98156
304.84         44.9863
305.30        45.02014
305.75         45.0676
306.20         45.1725
306.66        45.33761
307.11         45.5233
307.57         45.6829
308.02        45.68341
308.47        45.52442
308.93        45.25876
309.38        44.95471
309.83        44.77682
310.29        44.75898
310.74        44.84559
311.19        44.95793
311.65        44.96069
312.10        44.81069
312.55        44.55011
313.00        44.25141
313.46        44.01788
313.91        43.86054
314.36          43.761
314.82        43.65615
315.27        43.46288
315.72        43.16356
316.18        42.80143
316.63        42.44738
317.08        42.22659
317.53         42.1569
317.99        42.18641
318.44        42.22922
318.89        42.13311
319.35        41.86068
319.80        41.46239
320.25        41.01237
320.70        40.63098
321.16         40.3538
321.61        40.15906
322.06        40.01142
322.51        39.85574
322.97        39.66891
323.42        39.47876
323.87        39.30553
324.32        39.18455
324.78        39.10697
325.23        39.07505
325.68         39.0317
326.13        38.90073
326.59        38.66719
327.04        38.36899
327.49        38.06311
327.94        37.84768
328.39        37.74012
328.85        37.68967
329.30        37.68277
329.75        37.61674
330.20        37.46438
330.66        37.25648
331.11        37.02822
331.56        36.80334
332.01        36.59818
332.46        36.39412
332.92        36.20518
333.37        36.11797
333.82        36.12231
334.27        36.20769
334.72        36.30088
335.17        36.27363
335.63        36.09665
336.08        35.82953
336.53         35.5523
336.98        35.41533
337.43        35.45773
337.88         35.6207
338.34        35.84758
338.79        36.07819
339.24        36.25573
339.69        36.40231
340.14        36.46367
340.59        36.35593
341.05        36.09393
341.50        35.70612
341.95        35.32002
342.40        35.13448
342.85        35.19184
343.30        35.43362
343.75        35.75856
344.20        35.99171
344.66        36.08059
345.11        36.07699
345.56        36.01619
346.01        35.95784
346.46        35.93191
346.91        35.91435
347.36        35.92418
347.81        36.00184
348.26        36.14096
348.72        36.32201
349.17        36.49591
349.62        36.59631
350.07        36.60205
350.52        36.53867
350.97        36.39809
351.42        36.17337
351.87        35.88907
352.32        35.56326
352.77         35.2788
353.22        35.15209
353.67        35.19802
354.13        35.38152
354.58        35.61044
355.03        35.72462
355.48        35.67233
355.93        35.48836
356.38        35.24397
356.83        35.05252
357.28        34.93813
357.73        34.86126
358.18        34.76127
358.63         34.5463
359.08        34.20573
359.53        33.78921
359.98         33.3664
360.43        33.02996
360.88        32.79889
361.33        32.63936
361.78        32.51216
362.23        32.35642
362.68        32.15449
363.13        31.93101
363.58        31.69211
364.03        31.44411
364.48        31.19269
364.93        30.92934
365.38        30.67989
365.83        30.49198
366.28        30.37192
366.73         30.3062
367.18        30.24776
367.63        30.11938
368.08        29.90526
368.53        29.63062
368.98        29.33848
369.43        29.09842
369.88        28.92934
370.33        28.80794
370.78        28.71117
371.23        28.60166
371.68        28.46615
372.13        28.31929
372.58         28.1631
373.03        27.99857
373.48        27.82666
373.93        27.63939
374.38        27.44808
374.83        27.27634
375.28        27.12577
375.72        26.98339
376.17        26.84117
376.62        26.65013
377.07        26.40945
377.52        26.14492
377.97        25.88702
378.42        25.68928
378.87         25.5664
379.32        25.49006
379.77        25.46136
380.22        25.48126
380.67        25.53454
381.11        25.62834
381.56        25.67656
382.01        25.56332
382.46        25.28175
382.91        24.88556
383.36        24.49887
383.81        24.29348
384.26        24.29618
384.71        24.45256
385.15        24.67012
385.60        24.79187
386.05        24.76531
386.50         24.6332
386.95        24.44728
387.40         24.2894
387.85        24.18603
388.29        24.09759
388.74        24.02488
389.19        23.91353
389.64        23.75572
390.09        23.56585
390.54        23.38393
390.98         23.2675
391.43        23.23886
391.88        23.26904
392.33        23.29995
392.78        23.24874
393.23        23.10562
393.67        22.89421
394.12        22.68784
394.57        22.54735
395.02        22.48734
395.47        22.47691
395.91        22.49716
396.36         22.5043
396.81         22.4943
397.26        22.48461
397.71        22.46205
398.15        22.41952
398.60        22.38642
399.05        22.27053
399.50        22.12449
399.95        22.19051
400.39        22.40309
400.84        22.34841
401.29        22.04452
401.74        21.86981
402.18        21.84815
402.63        21.75697
403.08        21.61308
403.53         21.5378
403.97        21.53779
404.42        21.58357
404.87        21.64268
405.32         21.6607
405.76        21.61951
406.21        21.54066
406.66         21.4587
407.11        21.43204
407.55        21.47708
408.00        21.56561
408.45        21.64889
408.90        21.63314
409.34        21.49729
409.79         21.2808
410.24        21.05498
410.68        20.91028
411.13        20.87284
411.58         20.9188
412.03        20.99644
412.47        21.01649
412.92        20.94901
413.37        20.83045
413.81        20.71625
414.26        20.70528
414.71        20.80456
415.15        20.98496
415.60        21.17631
416.05        21.27654
416.49        21.25506
416.94         21.1444
417.39        20.99517
417.83        20.88327
418.28        20.83257
418.73        20.81676
419.17        20.82995
419.62        20.86277
420.07        20.90619
420.51        20.96268
420.96        21.01083
421.41         21.0092
421.85        20.94645
422.30        20.82608
422.74         20.6801
423.19        20.65184
423.64        20.71947
424.08        20.73656
424.53        20.68059
424.98        20.67336
425.42        20.72319
425.87        20.70496
426.31        20.62972
426.76        20.66272
427.21        20.75098
427.65        20.60437
428.10        20.31122
428.54        20.22345
428.99        20.36668
429.44        20.61926
429.88        20.87683
430.33        20.89503
430.77        20.72014
431.22        20.77105
431.66        21.00899
432.11        21.03767
432.56        20.86131
433.00        20.68488
433.45        20.50628
433.89         20.4202
434.34        20.50154
434.78         20.1179
435.23        20.41348
435.67        20.45881
436.12        20.53634
436.57         20.4594
437.01        20.27663
437.46        20.20436
437.90        20.25444
438.35         20.3043
438.79        20.32714
439.24        20.35684
439.68        20.38718
440.13        20.41547
440.57        20.43844
441.02        20.46729
441.46        20.49779
441.91        20.47191
442.35        20.40211
442.80        20.50229
443.24        20.68946
443.69        20.63192
444.13        20.36029
444.58        20.22757
445.02        20.24955
445.47         20.2377
445.91        20.19024
446.36         20.1974
446.80        20.25147
447.24        20.32536
447.69         20.3986
448.13        20.42994
448.58        20.41383
449.02        20.36075
449.47        20.28632
449.91        20.20465
450.36        20.13287
450.80        20.06652
451.25        20.02084
451.69        20.00496
452.13        20.02075
452.58        20.05876
453.02        20.10724
453.47        20.14857
453.91        20.17431
454.36         20.1922
454.80        20.18365
455.24        20.12113
455.69        20.01261
456.13        19.85488
456.58         19.7146
457.02        19.65969
457.46          19.709
457.91        19.84113
458.35        19.97542
458.79        19.98849
459.24        19.87632
459.68        19.67048
460.13         19.4759
460.57        19.39996
461.01        19.47864
461.46        19.65446
461.90        19.87416
462.34        20.03248
462.79        20.08655
463.23        20.07629
463.68        20.00477
464.12        19.89272
464.56        19.75692
465.01        19.61674
465.45        19.48201
465.89        19.42095
466.34         19.4381
466.78        19.51562
467.22        19.62029
467.67        19.67044
468.11        19.65471
468.55        19.58488
468.99        19.49914
469.44        19.45864
469.88        19.48043
470.32        19.54295
470.77        19.61667
471.21        19.65823
471.65        19.65388
472.10         19.6229
472.54        19.58121
472.98        19.55981
473.42        19.56623
473.87        19.59273
474.31        19.61756
474.75        19.62816
475.20        19.62422
475.64        19.60469
476.08        19.57844
476.52        19.54697
476.97        19.51348
477.41          19.488
477.85        19.47857
478.29        19.46961
478.74        19.47836
479.18        19.55367
479.62        19.67081
480.06        19.75556
480.50        19.80094
480.95        19.81536
481.39        19.79323
481.83        19.91742
482.27        19.89398
482.72        19.95597
483.16        20.02094
483.60        20.02722
484.04        19.95735
484.48        20.01571
484.93        20.21035
485.37          19.946
485.81        20.02148
486.25        20.32475
486.69        20.26972
487.14         20.8257
487.58        21.33893
488.02          20.748
488.46        20.40747
488.90        20.62188
489.34        20.55289
489.79        20.77352
490.23        20.80737
490.67        20.86285
491.11        20.91562
491.55        20.93972
491.99        20.96328
492.43        20.99813
492.88        21.05607
493.32        21.14338
493.76         21.2465
494.20        21.34585
494.64        21.44172
495.08        21.51081
495.52        21.55901
495.96        21.70268
496.41        21.90764
496.85        21.91272
497.29        21.75351
497.73        21.91373
498.17        22.08342
498.61        22.22647
499.05        22.23312
499.49        22.26053
499.93        22.27098
500.37        22.42081
500.82        22.65401
501.26        22.79845
501.70        22.83393
502.14        22.85648
502.58        22.90714
503.02        23.00466
503.46        23.15674
503.90        23.35512
504.34        23.54189
504.78        23.62269
505.22        23.57888
505.66         23.4409
506.10        23.28061
506.54        23.21173
506.98         23.2633
507.42        23.40384
507.86        23.57683
508.30        23.68817
508.74        23.71116
509.18        23.67507
509.62        23.62274
510.06        23.62205
510.50        23.69008
510.94        23.80098
511.38        23.92007
511.82        23.99485
512.26        24.01183
512.70        23.99141
513.14        23.95974
513.58        23.95646
514.02          23.994
514.46        24.05865
514.90        24.13537
515.34        24.20208
515.78         24.2487
516.22        24.27838
516.66        24.29649
517.10         24.3108
517.54        24.32343
517.98        24.33373
518.42         24.3289
518.86        24.29005
519.30        24.21845
519.74        24.12331
520.18         24.0372
520.62         24.0088
521.06        24.04682
521.50        24.13732
521.93         24.2424
522.37         24.2899
522.81        24.26531
523.25        24.18705
523.69        24.09189
524.13        24.03884
524.57        24.03931
525.01        24.06962
525.45        24.10007
525.89        24.08386
526.32        24.00788
526.76        23.90066
527.20        23.77645
527.64        23.65751
528.08        23.55528
528.52        23.46191
528.96        23.39312
529.40         23.3731
529.83        23.40077
530.27        23.47139
530.71         23.5444
531.15        23.55646
531.59        23.49391
532.03         23.3707
532.46        23.22976
532.90        23.15735
533.34        23.16685
533.78        23.22177
534.22        23.27378
534.66        23.27713
535.09        23.20182
535.53        23.02119
535.97        22.79973
536.41        22.69524
536.85         22.7325
537.28        22.84457
537.72        22.98486
538.16        23.09568
538.60        23.15222
539.04        23.16998
539.47        23.16701
539.91        23.18625
540.35          23.233
540.79        23.29442
541.22        23.35189
541.66        23.38681
542.10        23.39395
542.54        23.38585
542.97        23.38215
543.41        23.42022
543.85        23.50561
544.29        23.63081
544.72        23.76982
545.16        23.89943
545.60        24.00754
546.04        24.10224
546.47        24.20634
546.91        24.35216
547.35        24.54033
547.79        24.75752
548.22        24.96589
548.66        25.10458
549.10        25.19369
549.53         25.2405
549.97        25.28303
550.41        25.32544
550.84        25.40829
551.28        25.58388
551.72        25.80021
552.15        25.99408
552.59        26.18123
553.03        26.00047
553.46        26.25681
553.90        26.30358
554.34        26.37858
554.77        26.46713
555.21         26.5798
555.65        26.71223
556.08        26.84784
556.52        26.97456
556.96        27.06717
557.39        27.15909
557.83        27.22768
558.27        27.12909
558.70        26.92692
559.14        26.88493
559.57        27.00612
560.01        27.13532
560.45        27.24243
560.88        27.36017
561.32        27.48715
561.75        27.60077
562.19        27.69925
562.63        27.73678
563.06        27.72878
563.50        27.76535
563.93        27.82518
564.37        27.87515
564.80        27.92763
565.24         27.9557
565.68        27.90246
566.11        28.26157
566.55        28.01869
566.98        28.02908
567.42        28.05287
567.85        28.15428
568.29        28.34693
568.72         28.6252
569.16        28.97564
569.60         29.1952
570.03        29.36981
570.47        29.52814
570.90        29.72152
571.34        29.60781
571.77        29.91264
572.21        30.02792
572.64        30.11132
573.08        30.35933
573.51        30.33449
573.95        30.43569
574.38        30.61018
574.82        30.76089
