SpectraSmart Spectrum 2.9.0.0
--------- Device Information -----------
Spectrum Name :  反射率_0
Saving Time :  2024/04/26 21:26:01
Spectro-Module Model Name : SE2030-DUVN
Spectro-Module Serial Number : OS361AC55029948
Wavelength Start : 200
Wavelength End : 1025
Wavelength Unit : Wavelength(nm)
Spectrum Unit : Reflectance(%)
-----------Spectrum Setting ------------
Integration Time : 20ms
Average : 10
Boxcar : 0
Background removal :  enabled
linearity correction :  enabled
SC :  disabled
Intensity correction :  disabled
DWT denoise :  enabled
savitzky-golay :  disabled
FFT :  disabled
Running average :  disabled
Kalman :  disabled
High pass :  disabled
---------------BEGIN--------------------
Wavelength(nm)             Reflectance(%)
200.29               0
200.75        26.18958
201.21        28.93426
201.67        31.52518
202.13        32.41867
202.58        31.48677
203.04        29.36078
203.50        26.87166
203.96        26.56463
204.42        30.05334
204.88         36.6127
205.34        44.32618
205.80         49.6118
206.26         51.0445
206.72         49.5772
207.18        46.73934
207.64        43.69101
208.10        40.43983
208.55        36.45773
209.01         31.1775
209.47        27.26201
209.93        27.17631
210.39        29.63099
210.85        32.72729
211.31        36.05458
211.77        40.68581
212.23        49.48514
212.69         70.2259
213.14        105.8516
213.60        104.7942
214.06        80.18026
214.52        62.49941
214.98        52.71512
215.44        46.07692
215.90        39.81477
216.36        34.82476
216.81        33.04231
217.27        35.64985
217.73        44.19451
218.19        57.66465
218.65        64.90955
219.11        60.87632
219.57        52.13643
220.02        47.12066
220.48        51.52587
220.94        65.85593
221.40         92.0172
221.86        129.9215
222.32          156.71
222.77        150.7073
223.23        126.5948
223.69        101.1583
224.15        84.02971
224.61        74.37991
225.06        68.30479
225.52        65.27398
225.98        64.62173
226.44        65.79989
226.90        68.96175
227.36        73.08784
227.81        76.06799
228.27        77.41718
228.73        77.33419
229.19        77.08132
229.65        78.41003
230.10        81.32951
230.56        85.20831
231.02        88.49217
231.48          88.788
231.93        85.86154
232.39        81.36232
232.85        76.82573
233.31        74.18137
233.77        73.67146
234.22        74.58926
234.68        76.29306
235.14        77.90745
235.60        79.04158
236.05        80.02697
236.51        80.53519
236.97        80.06749
237.43        78.51173
237.88        75.94768
238.34        72.89616
238.80        70.55216
239.26        69.29842
239.71        69.41769
240.17          70.432
240.63        71.56821
241.08        72.48866
241.54          72.953
242.00        74.09457
242.46         78.1888
242.91        87.31496
243.37        102.6832
243.83        124.5727
244.28        142.9103
244.74        142.2649
245.20        122.3692
245.66        97.37476
246.11        79.29163
246.57        68.72468
247.03        62.44191
247.48        58.03789
247.94        52.85936
248.40        47.80152
248.85        44.10352
249.31        42.34871
249.77        42.51636
250.22        44.19039
250.68        47.23758
251.14        51.12041
251.59        53.46395
252.05        53.19128
252.51        51.80301
252.96        49.75053
253.42        47.80595
253.88         46.2955
254.33        44.70468
254.79         45.0118
255.25        48.86987
255.70        55.75532
256.16        64.87006
256.62        72.52814
257.07        73.10606
257.53        68.26003
257.99        61.69674
258.44        56.42056
258.90        55.05325
259.35        56.46397
259.81        59.52176
260.27        62.65093
260.72        63.93956
261.18        63.48733
261.63        61.91032
262.09        60.40443
262.55        59.69377
263.00        59.68997
263.46        60.16945
263.91         60.4555
264.37        60.05396
264.83        58.93278
265.28        57.38535
265.74         56.0573
266.19          55.402
266.65        55.54447
267.11        56.16728
267.56        56.94069
268.02        57.35139
268.47        57.23074
268.93        56.77493
269.38        56.07121
269.84         55.3319
270.30        54.61714
270.75        53.83469
271.21        53.09333
271.66         52.4973
272.12        52.06181
272.57        51.74767
273.03        51.39889
273.48        50.72581
273.94        49.75427
274.39        48.55404
274.85        47.39999
275.31        46.49979
275.76        45.86647
276.22        45.46937
276.67        45.14688
277.13        44.79712
277.58        44.31522
278.04        43.77135
278.49        43.15263
278.95        42.58695
279.40         42.0286
279.86        41.52689
280.31        40.94856
280.77        40.25007
281.22        39.39353
281.68        38.50639
282.13        37.67103
282.59        37.11028
283.04        36.79565
283.50        36.67195
283.95        36.59938
284.41        36.38678
284.86        35.97882
285.32        35.47402
285.77        34.92277
286.22         34.4673
286.68        34.13508
287.13        33.83735
287.59        33.56609
288.04        33.25835
288.50        32.92828
288.95        32.57459
289.41        32.20702
289.86        31.75544
290.32        31.26122
290.77        30.72329
291.22        30.23182
291.68        29.90503
292.13        29.74546
292.59         29.7303
293.04        29.77732
293.50         29.7805
293.95        29.70156
294.40        29.57989
294.86        29.46773
295.31        29.43611
295.77        29.51473
296.22        29.67247
296.68        29.88333
297.13        30.09215
297.58         30.2878
298.04        30.48204
298.49        30.69647
298.95        30.98204
299.40        31.32945
299.85        31.71269
300.31        32.07139
300.76        32.30794
301.21        32.40778
301.67        32.41579
302.12        32.37313
302.58         32.3997
303.03        32.49742
303.48        32.65167
303.94        32.82754
304.39        32.93954
304.84        32.98126
305.30        32.98983
305.75        32.97559
306.20        33.00404
306.66        33.09452
307.11        33.21075
307.57        33.32936
308.02        33.37379
308.47        33.34097
308.93        33.25948
309.38        33.16168
309.83        33.14088
310.29        33.21141
310.74        33.33807
311.19        33.45384
311.65        33.44687
312.10        33.28935
312.55        33.01841
313.00        32.71801
313.46        32.51104
313.91        32.41364
314.36        32.39973
314.82        32.39481
315.27        32.28772
315.72        32.05299
316.18        31.74086
316.63         31.4218
317.08        31.21656
317.53        31.14822
317.99        31.16763
318.44        31.21347
318.89        31.17625
319.35        31.02503
319.80        30.79602
320.25         30.5268
320.70        30.27822
321.16        30.06969
321.61        29.88887
322.06        29.72798
322.51        29.57939
322.97        29.43325
323.42        29.30062
323.87        29.17688
324.32        29.05528
324.78        28.92362
325.23        28.79803
325.68        28.65462
326.13          28.469
326.59        28.24186
327.04        27.98992
327.49        27.75409
327.94        27.60366
328.39        27.54506
328.85        27.54396
329.30         27.5636
329.75        27.48306
330.20         27.2744
330.66        26.97269
331.11        26.64961
331.56        26.39813
332.01        26.24881
332.46        26.17037
332.92        26.13204
333.37        26.12172
333.82        26.10988
334.27        26.11329
334.72        26.11148
335.17        26.06547
335.63         25.9709
336.08         25.8496
336.53        25.74357
336.98         25.7387
337.43        25.84986
337.88        26.03812
338.34         26.2555
338.79        26.44531
339.24        26.56507
339.69        26.63465
340.14         26.6203
340.59        26.47399
341.05        26.21568
341.50        25.86553
341.95        25.53095
342.40          25.376
342.85        25.43192
343.30        25.65052
343.75          25.929
344.20        26.09254
344.66        26.09205
345.11        25.97494
345.56        25.79967
346.01        25.66398
346.46        25.60236
346.91         25.5831
347.36        25.58916
347.81         25.5995
348.26        25.60457
348.72        25.61783
349.17        25.63717
349.62        25.66531
350.07        25.70122
350.52         25.7419
350.97        25.76805
351.42        25.75474
351.87        25.69701
352.32        25.59738
352.77        25.49294
353.22        25.43702
353.67        25.43818
354.13        25.48875
354.58        25.52949
355.03        25.46523
355.48        25.28161
355.93        25.01058
356.38        24.74759
356.83        24.63451
357.28        24.69234
357.73        24.87212
358.18        25.06274
358.63        25.08399
359.08        24.89215
359.53        24.54604
359.98        24.14995
360.43        23.85724
360.88        23.70687
361.33        23.65656
361.78        23.63448
362.23        23.52855
362.68        23.31455
363.13        23.03278
363.58        22.75745
364.03        22.59748
364.48        22.57079
364.93        22.63481
365.38        22.70636
365.83        22.65535
366.28        22.45261
366.73         22.1448
367.18        21.80848
367.63        21.56154
368.08         21.4358
368.53        21.39451
368.98          21.392
369.43        21.35495
369.88        21.26057
370.33        21.13403
370.78        20.99552
371.23        20.87801
371.68        20.79053
372.13        20.71271
372.58        20.63768
373.03        20.55804
373.48        20.46911
373.93         20.3801
374.38        20.27571
374.83        20.13053
375.28        19.94652
375.72        19.72711
376.17        19.52859
376.62        19.41059
377.07          19.382
377.52        19.42445
377.97        19.48169
378.42        19.46304
378.87        19.34848
379.32        19.16391
379.77         18.9692
380.22        18.85314
380.67        18.82979
381.11        18.87366
381.56        18.91669
382.01        18.86382
382.46        18.69992
382.91        18.47603
383.36        18.24944
383.81        18.09405
384.26        18.02471
384.71        18.00885
385.15        18.03687
385.60        18.09756
386.05        18.17067
386.50        18.25478
386.95        18.30317
387.40        18.24564
387.85        18.08138
388.29        17.83137
388.74        17.58115
389.19         17.4075
389.64         17.3249
390.09        17.30436
390.54        17.31516
390.98        17.30025
391.43        17.25348
391.88        17.19463
392.33        17.12629
392.78        17.05075
393.23        16.97162
393.67        16.87329
394.12        16.79298
394.57        16.75478
395.02        16.75918
395.47        16.79527
395.91        16.82849
396.36        16.78846
396.81        16.67649
397.26        16.52413
397.71        16.37511
398.15        16.30324
398.60        16.33734
399.05         16.3748
399.50        16.40788
399.95         16.5511
400.39         16.7393
400.84        16.68463
401.29        16.40552
401.74        16.19433
402.18        16.08046
402.63        15.89813
403.08        15.69331
403.53         15.6074
403.97        15.65223
404.42        15.79112
404.87        15.95903
405.32        16.04492
405.76        16.01705
406.21        15.91346
406.66        15.78533
407.11        15.71737
407.55        15.73524
408.00        15.80326
408.45         15.8845
408.90        15.90787
409.34        15.85243
409.79        15.74988
410.24        15.63708
410.68        15.55632
411.13        15.52477
411.58        15.52867
412.03        15.54961
412.47           15.56
412.92        15.54395
413.37        15.51132
413.81        15.48064
414.26        15.49136
414.71        15.54352
415.15        15.63298
415.60        15.71398
416.05        15.72141
416.49         15.6438
416.94        15.50061
417.39        15.35768
417.83        15.31584
418.28         15.3917
418.73         15.5482
419.17        15.72043
419.62        15.80234
420.07         15.7681
420.51        15.65534
420.96        15.50666
421.41        15.38402
421.85        15.30539
422.30        15.24498
422.74        15.20311
423.19        15.25222
423.64         15.3639
424.08         15.4434
424.53        15.46494
424.98        15.50295
425.42        15.55989
425.87        15.53808
426.31        15.46289
426.76        15.49212
427.21        15.59246
427.65        15.53794
428.10         15.3701
428.54        15.31407
428.99        15.38616
429.44        15.51504
429.88        15.64519
430.33        15.62808
430.77         15.5024
431.22        15.56363
431.66         15.7817
432.11        15.83452
432.56         15.7148
433.00        15.65054
433.45        15.60863
433.89        15.43191
434.34        15.25334
434.78        14.97521
435.23        15.41529
435.67        15.54518
436.12        15.56294
436.57        15.52264
437.01        15.45244
437.46        15.40688
437.90        15.38988
438.35        15.34155
438.79        15.26746
439.24        15.22928
439.68        15.23289
440.13        15.26557
440.57        15.31234
441.02        15.36114
441.46        15.40146
441.91        15.39289
442.35        15.35316
442.80        15.45985
443.24        15.65017
443.69        15.65587
444.13        15.49118
444.58        15.42383
445.02        15.46213
445.47        15.45962
445.91        15.41789
446.36        15.41315
446.80        15.44322
447.24        15.48836
447.69        15.53467
448.13        15.55191
448.58        15.53828
449.02        15.50382
449.47        15.46413
449.91        15.43573
450.36        15.42864
450.80        15.43174
451.25        15.44903
451.69        15.47781
452.13        15.51482
452.58        15.55641
453.02        15.58711
453.47        15.58354
453.91        15.54368
454.36        15.48186
454.80        15.40794
455.24        15.33773
455.69        15.28416
456.13        15.23025
456.58        15.20697
457.02        15.23519
457.46        15.31864
457.91        15.44801
458.35         15.5592
458.79        15.55455
459.24         15.4351
459.68        15.22591
460.13        15.02359
460.57        14.93263
461.01        14.98597
461.46        15.13607
461.90        15.32827
462.34        15.45578
462.79        15.47855
463.23         15.4332
463.68        15.34048
464.12        15.24656
464.56        15.16944
465.01        15.11321
465.45        15.05956
465.89        15.02759
466.34        15.01724
466.78        15.02513
467.22        15.05341
467.67        15.08706
468.11        15.12857
468.55        15.17139
468.99        15.21067
469.44        15.23883
469.88        15.25531
470.32        15.26044
470.77        15.26036
471.21        15.26932
471.65        15.28877
472.10        15.31644
472.54        15.34452
472.98        15.36654
473.42        15.37978
473.87        15.39167
474.31        15.39254
474.75        15.38223
475.20        15.36626
475.64        15.34024
476.08        15.31681
476.52        15.30739
476.97        15.31374
477.41        15.33832
477.85        15.37647
478.29        15.39709
478.74        15.40753
479.18        15.45188
479.62        15.51346
480.06         15.5393
480.50        15.53055
480.95        15.49634
481.39        15.44217
481.83        15.52601
482.27        15.52062
482.72        15.60119
483.16        15.69979
483.60         15.7644
484.04        15.78218
484.48        15.90782
484.93        16.11809
485.37        15.98683
485.81        16.11749
486.25        16.29417
486.69        15.93329
487.14        16.59599
487.58        17.21852
488.02        16.85523
488.46        16.43283
488.90        16.46528
489.34        16.38404
489.79         16.6261
490.23        16.78915
490.67        16.93801
491.11        17.01412
491.55        16.98346
491.99        16.90243
492.43        16.89128
492.88        16.97604
493.32        17.09017
493.76        17.21256
494.20        17.35085
494.64        17.50041
495.08         17.6225
495.52        17.71807
495.96        17.90322
496.41        18.13868
496.85        18.15062
497.29        17.97847
497.73         18.1066
498.17        18.27377
498.61        18.36095
499.05        18.29926
499.49        18.32238
499.93        18.40495
500.37        18.62494
500.82        18.90728
501.26        19.07708
501.70        19.10581
502.14        19.08662
502.58        19.06935
503.02        19.09516
503.46        19.18223
503.90        19.31718
504.34         19.4617
504.78        19.55211
505.22         19.5726
505.66        19.54543
506.10         19.5048
506.54        19.50405
506.98        19.55666
507.42        19.64305
507.86        19.74238
508.30        19.82097
508.74        19.86895
509.18        19.90183
509.62        19.92411
510.06        19.94246
510.50        19.96162
510.94        19.97416
511.38        19.99761
511.82        20.06112
512.26        20.16632
512.70        20.30676
513.14        20.44072
513.58        20.49985
514.02        20.47172
514.46        20.37572
514.90        20.26786
515.34        20.23984
515.78        20.31159
516.22        20.45395
516.66        20.61094
517.10        20.69175
517.54        20.67448
517.98        20.59137
518.42        20.48459
518.86        20.42092
519.30        20.41954
519.74        20.45497
520.18        20.50903
520.62        20.55496
521.06        20.58169
521.50        20.60132
521.93        20.60855
522.37        20.58438
522.81        20.53321
523.25        20.45887
523.69        20.38469
524.13        20.34939
524.57        20.35799
525.01        20.39511
525.45        20.43796
525.89        20.44818
526.32        20.41244
526.76        20.35011
527.20        20.26466
527.64        20.16385
528.08        20.05644
528.52        19.94117
528.96        19.84083
529.40        19.79069
529.83        19.79449
530.27        19.84423
530.71        19.90392
531.15        19.91596
531.59        19.86683
532.03        19.77098
532.46        19.65947
532.90        19.59675
533.34        19.59304
533.78        19.61794
534.22        19.64082
534.66        19.64001
535.09        19.59138
535.53        19.46533
535.97        19.30075
536.41          19.207
536.85        19.20051
537.28        19.23409
537.72        19.28312
538.16        19.32189
538.60        19.33916
539.04         19.3452
539.47        19.35063
539.91        19.38316
540.35        19.44446
540.79        19.52518
541.22        19.61389
541.66        19.70126
542.10        19.78013
542.54         19.8541
542.97         19.9252
543.41        20.00424
543.85        20.09217
544.29        20.19011
544.72        20.28976
545.16        20.39313
545.60        20.49711
546.04        20.60412
546.47        20.72836
546.91        20.88778
547.35        21.07817
547.79        21.28905
548.22        21.48998
548.66        21.63201
549.10        21.73184
549.53        21.79331
549.97        21.84173
550.41        21.86876
550.84        21.91061
551.28        22.02156
551.72        22.16976
552.15        22.32079
552.59        22.49343
553.03        22.36889
553.46         22.6376
553.90        22.73931
554.34        22.87319
554.77        23.02859
555.21        23.19883
555.65        23.34279
556.08        23.43994
556.52        23.51034
556.96        23.56814
557.39        23.58379
557.83        23.73179
558.27        23.72229
558.70        23.63119
559.14        23.62987
559.57        23.71262
560.01        23.76364
560.45        23.78356
560.88        23.85052
561.32        23.97522
561.75        24.10624
562.19        24.23387
562.63        24.33961
563.06        24.41185
563.50        24.45853
563.93        24.46919
564.37        24.49161
564.80        24.54253
565.24        24.55513
565.68        24.48262
566.11        24.78296
566.55         24.5693
566.98        24.58683
567.42        24.62535
567.85        24.74031
568.29        24.94152
568.72        25.22243
569.16        25.56554
569.60        25.79099
570.03        25.97518
570.47        26.13145
570.90        26.30698
571.34        26.26344
571.77        26.50878
572.21        26.63547
572.64         26.7684
573.08         26.9055
573.51        27.05497
573.95        27.13214
574.38        27.22175
574.82        27.27736
