SpectraSmart Spectrum 2.9.0.0
--------- Device Information -----------
Spectrum Name :  反射率_0
Saving Time :  2024/04/27 00:25:44
Spectro-Module Model Name : SE2030-DUVN
Spectro-Module Serial Number : OS361AC55029948
Wavelength Start : 200
Wavelength End : 1025
Wavelength Unit : Wavelength(nm)
Spectrum Unit : Reflectance(%)
-----------Spectrum Setting ------------
Integration Time : 20ms
Average : 10
Boxcar : 0
Background removal :  enabled
linearity correction :  enabled
SC :  disabled
Intensity correction :  disabled
DWT denoise :  enabled
savitzky-golay :  disabled
FFT :  disabled
Running average :  disabled
Kalman :  disabled
High pass :  disabled
---------------BEGIN--------------------
Wavelength(nm)             Reflectance(%)
200.29               0
200.75        16.56276
201.21        17.91758
201.67        18.88898
202.13          18.766
202.58        17.41692
203.04        15.26863
203.50        12.15999
203.96        8.488271
204.42        5.053008
204.88        1.681687
205.34       0.3422572
205.80        3.751463
206.26        10.96768
206.72        19.74981
207.18        26.26729
207.64         27.3792
208.10        23.00126
208.55        13.04358
209.01       -2.248578
209.47       -12.40367
209.93        -10.0509
210.39       -1.362198
210.85        7.134562
211.31        13.09633
211.77        18.13734
212.23        25.75112
212.69        42.91821
213.14        75.71037
213.60        81.74874
214.06         63.2446
214.52        48.25853
214.98        40.24616
215.44        35.31824
215.90        30.96537
216.36        27.28284
216.81        24.68435
217.27        23.62372
217.73        24.65758
218.19         27.3078
218.65        28.29277
219.11        26.57534
219.57        23.90425
220.02        22.87181
220.48        25.48267
220.94        32.02946
221.40        43.59403
221.86        59.61856
222.32        69.04879
222.77        63.18464
223.23        50.00324
223.69        37.97554
224.15        31.70663
224.61        30.06608
225.06        30.55619
225.52        32.23359
225.98        34.29385
226.44        36.46609
226.90         39.0561
227.36        41.54689
227.81        42.79755
228.27        42.68595
228.73         41.4888
229.19        40.05901
229.65        39.43062
230.10        39.72656
230.56        40.72395
231.02        41.83316
231.48        42.12002
231.93        41.41984
232.39        40.30175
232.85        39.40635
233.31        39.63771
233.77        40.99086
234.22        43.07212
234.68        45.16325
235.14        46.25499
235.60        46.03792
236.05         44.8341
236.51        42.86087
236.97        40.71318
237.43        38.82804
237.88         37.1697
238.34        36.03275
238.80        35.99863
239.26        37.23194
239.71        40.14156
240.17        44.17348
240.63        47.49536
241.08        48.82428
241.54        47.67275
242.00        45.04023
242.46        43.51758
242.91        44.53523
243.37        47.62474
243.83        52.93732
244.28        57.44463
244.74        56.69784
245.20        51.78371
245.66        44.50505
246.11        35.20696
246.57        24.58151
247.03        12.10818
247.48        1.407335
247.94       -0.538945
248.40        5.374726
248.85        14.05676
249.31        21.33727
249.77        24.65166
250.22        24.28357
250.68        21.02683
251.14        16.18781
251.59         14.4506
252.05        18.25549
252.51        25.06694
252.96        30.78263
253.42        32.01791
253.88        29.53697
254.33        25.33031
254.79         22.2204
255.25        22.41058
255.70        25.77274
256.16        31.26538
256.62         36.7774
257.07        38.93262
257.53         38.0308
257.99        35.87133
258.44        34.00462
258.90         33.9785
259.35        35.21706
259.81        37.17179
260.27        38.89003
260.72        39.23189
261.18        38.35091
261.63        36.70205
262.09        35.16165
262.55         34.3113
263.00        34.08121
263.46        34.25336
263.91        34.32531
264.37        33.83812
264.83        32.78579
265.28        31.42506
265.74        30.21808
266.19        29.52538
266.65        29.42728
267.11        29.68744
267.56        30.10229
268.02        30.34228
268.47         30.3005
268.93        30.10324
269.38        29.75372
269.84        29.29953
270.30         28.7698
270.75        28.12655
271.21        27.52707
271.66        27.18276
272.12        27.11929
272.57        27.26723
273.03        27.40517
273.48        27.16266
273.94        26.51797
274.39        25.59169
274.85        24.67045
275.31        24.04519
275.76        23.75346
276.22        23.70084
276.67        23.72894
277.13        23.67437
277.58        23.45132
278.04        23.13335
278.49        22.72525
278.95        22.32027
279.40         21.9064
279.86        21.51501
280.31         21.0873
280.77          20.619
281.22        20.10115
281.68        19.59966
282.13        19.16742
282.59        18.92538
283.04        18.85683
283.50        18.91953
283.95         19.0199
284.41        19.01571
284.86        18.86358
285.32        18.61722
285.77        18.31661
286.22        18.06149
286.68        17.87635
287.13        17.71456
287.59        17.56312
288.04        17.37143
288.50        17.15448
288.95        16.92585
289.41        16.72606
289.86        16.56539
290.32        16.46734
290.77        16.40766
291.22        16.39429
291.68        16.43272
292.13        16.50975
292.59        16.63127
293.04        16.76575
293.50         16.8804
293.95        16.96281
294.40        17.02502
294.86        17.10201
295.31        17.24572
295.77        17.47184
296.22        17.76211
296.68        18.08471
297.13        18.37952
297.58        18.63749
298.04        18.87907
298.49        19.13605
298.95        19.46864
299.40        19.88041
299.85         20.3459
300.31        20.81916
300.76        21.23266
301.21        21.56519
301.67        21.84009
302.12        22.07158
302.58         22.3237
303.03        22.59144
303.48        22.87314
303.94        23.14077
304.39        23.33419
304.84        23.45646
305.30        23.54095
305.75        23.62129
306.20        23.78761
306.66        24.05416
307.11        24.37383
307.57        24.69332
308.02        24.90265
308.47        24.98445
308.93        24.97819
309.38        24.91986
309.83        24.89982
310.29        24.94163
310.74        25.01627
311.19        25.08996
311.65        25.10457
312.10        25.04294
312.55        24.92657
313.00        24.79781
313.46        24.71564
313.91        24.68346
314.36        24.68988
314.82        24.68929
315.27        24.61625
315.72        24.45739
316.18        24.24406
316.63        24.02441
317.08        23.88337
317.53        23.83673
317.99        23.85017
318.44         23.8809
318.89        23.84995
319.35        23.73402
319.80        23.55662
320.25        23.34286
320.70        23.13349
321.16        22.94307
321.61        22.76797
322.06        22.60197
322.51        22.43834
322.97        22.27232
323.42        22.11226
323.87        21.97019
324.32        21.86588
324.78        21.79227
325.23        21.75234
325.68        21.69815
326.13        21.55905
326.59        21.32315
327.04        21.02226
327.49        20.71935
327.94         20.5152
328.39        20.43036
328.85        20.42857
329.30        20.47137
329.75        20.44869
330.20        20.32883
330.66        20.14084
331.11        19.93727
331.56        19.78704
332.01        19.70927
332.46        19.67303
332.92        19.64364
333.37        19.59834
333.82        19.51313
334.27        19.40808
334.72        19.28272
335.17         19.1312
335.63        18.96083
336.08        18.78682
336.53        18.64023
336.98        18.58029
337.43        18.61645
337.88        18.72366
338.34        18.86335
338.79        18.98615
339.24        19.05788
339.69        19.08953
340.14        19.06112
340.59        18.94734
341.05         18.7643
341.50        18.52468
341.95        18.29143
342.40         18.1611
342.85        18.15454
343.30        18.24311
343.75        18.37949
344.20        18.48215
344.66        18.52394
345.11        18.52267
345.56        18.48402
346.01        18.42076
346.46        18.34549
346.91         18.2555
347.36        18.16908
347.81        18.11859
348.26        18.11163
348.72         18.1443
349.17        18.19915
349.62        18.25515
350.07        18.30182
350.52        18.34109
350.97        18.36532
351.42         18.3652
351.87        18.33823
352.32        18.28325
352.77        18.21139
353.22        18.13947
353.67        18.07325
354.13         18.0168
354.58        17.95797
355.03        17.88173
355.48        17.79001
355.93        17.69105
356.38        17.61262
356.83        17.59521
357.28        17.63932
357.73        17.72379
358.18        17.80609
358.63        17.81831
359.08        17.74232
359.53        17.60038
359.98        17.42066
360.43        17.24497
360.88        17.08923
361.33        16.94466
361.78        16.81342
362.23        16.69971
362.68        16.60398
363.13         16.5284
363.58        16.46599
364.03        16.40157
364.48        16.32862
364.93        16.24729
365.38        16.15688
365.83        16.05989
366.28        15.95802
366.73        15.84976
367.18        15.73821
367.63        15.62867
368.08        15.52252
368.53        15.42055
368.98        15.31944
369.43        15.21217
369.88        15.09794
370.33        14.97955
370.78        14.86416
371.23        14.76418
371.68        14.68364
372.13        14.62007
372.58        14.56729
373.03         14.5138
373.48        14.45633
373.93        14.39793
374.38        14.34133
374.83        14.29292
375.28        14.25096
375.72        14.20199
376.17        14.15453
376.62        14.10384
377.07        14.04899
377.52         13.9965
377.97         13.9315
378.42         13.8312
378.87        13.69929
379.32        13.54555
379.77         13.4129
380.22        13.36358
380.67        13.40283
381.11        13.51218
381.56        13.62761
382.01        13.65055
382.46        13.55803
382.91        13.38944
383.36        13.19794
383.81        13.05686
384.26        12.98388
384.71        12.95441
385.15        12.95612
385.60         12.9739
386.05        12.99519
386.50        13.02714
386.95        13.05303
387.40        13.04548
387.85        13.00218
388.29        12.92179
388.74        12.84341
389.19         12.7955
389.64        12.78176
390.09        12.78913
390.54        12.79798
390.98        12.77165
391.43        12.71247
391.88        12.63673
392.33        12.55697
392.78        12.48955
393.23        12.43961
393.67         12.3918
394.12         12.3658
394.57        12.36737
395.02        12.39132
395.47        12.42861
395.91        12.45455
396.36        12.41821
396.81        12.32179
397.26        12.19083
397.71        12.05169
398.15        11.94985
398.60        11.91134
399.05        11.86952
399.50        11.83983
399.95        11.93279
400.39          12.106
400.84        12.14273
401.29        12.03233
401.74        11.94894
402.18        11.89963
402.63        11.76736
403.08         11.5997
403.53        11.52644
403.97        11.56338
404.42        11.67649
404.87        11.80146
405.32         11.8311
405.76        11.74112
406.21        11.57346
406.66        11.39527
407.11        11.31138
407.55        11.34918
408.00        11.46987
408.45        11.61783
408.90        11.68786
409.34        11.64763
409.79        11.53593
410.24        11.40261
410.68        11.31297
411.13        11.28727
411.58        11.30039
412.03        11.33093
412.47        11.34554
412.92         11.3281
413.37        11.29692
413.81        11.25879
414.26        11.22899
414.71        11.20826
415.15        11.19278
415.60        11.17997
416.05        11.17605
416.49        11.18257
416.94        11.19797
417.39        11.21725
417.83        11.23103
418.28        11.23544
418.73        11.22981
419.17        11.22102
419.62        11.22108
420.07        11.23174
420.51        11.24623
420.96        11.25361
421.41        11.23536
421.85        11.18558
422.30         11.1098
422.74        11.02081
423.19        10.98734
423.64        10.99735
424.08        10.97831
424.53        10.92417
424.98         10.9123
425.42        10.95013
425.87        10.96454
426.31        10.95827
426.76        11.01685
427.21         11.1066
427.65        11.07054
428.10         10.9415
428.54        10.88676
428.99        10.92269
429.44        10.99892
429.88         11.0757
430.33        11.04953
430.77         10.9495
431.22        10.98233
431.66        11.13653
432.11        11.19821
432.56        11.16144
433.00        11.18058
433.45        11.20875
433.89        11.08591
434.34        10.90007
434.78        10.60506
435.23        10.80633
435.67        10.81136
436.12        10.77304
436.57        10.71996
437.01        10.67541
437.46         10.6819
437.90        10.73696
438.35        10.79418
438.79        10.83424
439.24        10.86649
439.68        10.88826
440.13        10.89585
440.57        10.89542
441.02        10.91061
441.46        10.94361
441.91        10.95585
442.35        10.94796
442.80        11.03017
443.24        11.15457
443.69        11.13506
444.13        10.99346
444.58        10.94054
445.02        10.98546
445.47         11.0162
445.91         11.0227
446.36        11.04379
446.80        11.07297
447.24        11.09925
447.69        11.11989
448.13        11.12454
448.58        11.11453
449.02        11.09362
449.47        11.06584
449.91        11.03234
450.36        10.99984
450.80        10.96793
451.25        10.94826
451.69        10.95278
452.13        10.98147
452.58        11.02504
453.02        11.06918
453.47        11.09216
453.91        11.08809
454.36        11.06808
454.80        11.02923
455.24        10.96654
455.69        10.88984
456.13        10.79455
456.58        10.72165
457.02        10.71435
457.46        10.78001
457.91        10.89987
458.35        11.01693
458.79        11.04087
459.24        10.96615
459.68        10.81932
460.13        10.66625
460.57        10.57465
461.01        10.57158
461.46         10.6237
461.90        10.71454
462.34        10.80524
462.79        10.87428
463.23         10.9368
463.68        10.97482
464.12        10.96579
464.56        10.90837
465.01        10.82344
465.45        10.72627
465.89        10.66952
466.34        10.66158
466.78        10.68882
467.22        10.73784
467.67        10.77268
468.11        10.78787
468.55        10.78765
468.99        10.78457
469.44        10.79727
469.88        10.82969
470.32        10.87321
470.77        10.91395
471.21        10.93412
471.65        10.92907
472.10        10.90903
472.54        10.88498
472.98        10.87862
473.42        10.89515
473.87        10.93013
474.31        10.96928
474.75        11.00198
475.20        11.02665
475.64        11.04281
476.08        11.05509
476.52        11.06407
476.97        11.07158
477.41        11.08252
477.85        11.10185
478.29        11.12145
478.74        11.15092
479.18        11.21741
479.62        11.30566
480.06        11.37315
480.50        11.41449
480.95         11.4312
481.39        11.42446
481.83        11.50896
482.27        11.52071
482.72        11.59448
483.16        11.67097
483.60        11.72131
484.04        11.72926
484.48        11.75856
484.93        11.87661
485.37        11.85544
485.81        11.98025
486.25        12.30549
486.69        11.89294
487.14        11.81578
487.58        12.55322
488.02        12.59501
488.46        12.30161
488.90        12.43614
489.34        12.37421
489.79        12.56179
490.23        12.70854
490.67        12.91163
491.11        13.10353
491.55        13.12654
491.99        13.03343
492.43        13.04848
492.88        13.19364
493.32        13.33145
493.76        13.43686
494.20        13.54667
494.64        13.65972
495.08        13.73871
495.52        13.79743
495.96        13.95006
496.41        14.17038
496.85        14.23505
497.29        14.16783
497.73        14.34084
498.17        14.54399
498.61        14.68675
499.05        14.69477
499.49         14.7249
499.93        14.75523
500.37        14.85779
500.82        15.00916
501.26        15.13026
501.70        15.21109
502.14        15.30722
502.58        15.41959
503.02        15.51798
503.46        15.59869
503.90        15.66739
504.34        15.72075
504.78        15.75378
505.22         15.7683
505.66        15.76983
506.10        15.76441
506.54        15.76133
506.98        15.76648
507.42         15.7798
507.86        15.81143
508.30        15.87563
508.74         15.9717
509.18         16.0926
509.62        16.21625
510.06        16.30824
510.50        16.35894
510.94        16.37519
511.38        16.37448
511.82        16.38673
512.26        16.42123
512.70        16.47166
513.14        16.52534
513.58        16.56118
514.02        16.57536
514.46        16.57621
514.90        16.58028
515.34        16.61283
515.78         16.6771
516.22        16.76087
516.66        16.84373
517.10        16.89433
517.54        16.90414
517.98         16.8837
518.42        16.84425
518.86         16.8041
519.30        16.77165
519.74         16.7428
520.18        16.72094
520.62        16.71062
521.06         16.7118
521.50        16.72523
521.93        16.74394
522.37        16.74849
522.81        16.73611
523.25         16.7079
523.69         16.6725
524.13        16.64504
524.57        16.62715
525.01        16.61311
525.45        16.59139
525.89        16.54306
526.32        16.46628
526.76        16.37755
527.20        16.28906
527.64        16.22084
528.08        16.17748
528.52        16.14708
528.96        16.13415
529.40        16.14508
529.83        16.17528
530.27         16.2261
530.71        16.26043
531.15        16.22076
531.59        16.10152
532.03        15.91988
532.46        15.73799
532.90        15.66583
533.34        15.71919
533.78        15.85416
534.22        15.99914
534.66        16.06267
535.09        16.00978
535.53        15.84135
535.97        15.62341
536.41         15.4997
536.85        15.49844
537.28        15.56019
537.72        15.65354
538.16        15.73963
538.60        15.79937
539.04        15.84911
539.47        15.88399
539.91         15.9043
540.35         15.9112
540.79        15.90271
541.22        15.89888
541.66        15.94067
542.10        16.03207
542.54        16.16227
542.97        16.30124
543.41        16.40643
543.85        16.46673
544.29        16.49932
544.72         16.5244
545.16        16.58513
545.60        16.68926
546.04        16.82585
546.47        16.98615
546.91        17.15209
547.35        17.31238
547.79          17.471
548.22        17.62251
548.66        17.75492
549.10         17.8887
549.53        18.01744
549.97        18.14544
550.41        18.23839
550.84        18.31558
551.28        18.43227
551.72        18.57665
552.15        18.72801
552.59        18.90208
553.03        18.88538
553.46        19.13111
553.90        19.22643
554.34        19.30481
554.77        19.37278
555.21        19.44535
555.65        19.53174
556.08        19.62797
556.52         19.7196
556.96        19.79932
557.39        19.91029
557.83        20.03453
558.27        20.05681
558.70        19.99873
559.14        20.01604
559.57        20.10373
560.01        20.16119
560.45        20.18254
560.88        20.22221
561.32        20.29027
561.75         20.3498
562.19        20.40734
562.63        20.46905
563.06        20.53055
563.50        20.59316
563.93        20.63699
564.37         20.6835
564.80        20.74332
565.24        20.76657
565.68        20.71985
566.11        21.00536
566.55        20.87302
566.98        20.93214
567.42        21.00391
567.85        21.16266
568.29         21.3965
568.72        21.64602
569.16        21.90531
569.60        22.04584
570.03        22.13137
570.47        22.26073
570.90        22.37455
571.34        22.19543
571.77        22.47305
572.21        22.59583
572.64        22.62807
573.08        22.86237
573.51        22.74486
573.95         22.9046
574.38         23.1202
574.82        23.32646
