SpectraSmart Spectrum 2.9.0.0
--------- Device Information -----------
Spectrum Name :  反射率_0
Saving Time :  2024/04/27 00:24:10
Spectro-Module Model Name : SE2030-DUVN
Spectro-Module Serial Number : OS361AC55029948
Wavelength Start : 200
Wavelength End : 1025
Wavelength Unit : Wavelength(nm)
Spectrum Unit : Reflectance(%)
-----------Spectrum Setting ------------
Integration Time : 20ms
Average : 10
Boxcar : 0
Background removal :  enabled
linearity correction :  enabled
SC :  disabled
Intensity correction :  disabled
DWT denoise :  enabled
savitzky-golay :  disabled
FFT :  disabled
Running average :  disabled
Kalman :  disabled
High pass :  disabled
---------------BEGIN--------------------
Wavelength(nm)             Reflectance(%)
200.29               0
200.75        10.84984
201.21        16.35364
201.67        21.84956
202.13        25.38837
202.58        26.96044
203.04        27.57236
203.50        28.21169
203.96         30.8911
204.42        36.35337
204.88        43.50797
205.34        49.48273
205.80        50.06544
206.26        44.90871
206.72        36.54147
207.18        28.17063
207.64        21.55668
208.10        16.14142
208.55         10.5779
209.01        4.618815
209.47        1.641824
209.93        3.566521
210.39        8.165602
210.85        12.44064
211.31        15.40563
211.77        18.00972
212.23        21.74122
212.69        30.59665
213.14        52.04109
213.60        62.15704
214.06          54.993
214.52        47.07047
214.98        42.49072
215.44        39.40346
215.90        36.10434
216.36        32.57555
216.81         28.7743
217.27        24.85601
217.73        20.87489
218.19        16.18704
218.65        11.49279
219.11        9.325962
219.57        9.579915
220.02        11.98479
220.48        17.20663
220.94        26.20981
221.40        41.14687
221.86        62.29231
222.32        77.67614
222.77        75.58453
223.23        63.26631
223.69        50.36468
224.15        42.89045
224.61        40.02797
225.06         39.0879
225.52        39.32023
225.98        39.93642
226.44        40.69553
226.90        42.06351
227.36         43.4122
227.81        43.51215
228.27        42.38744
228.73        40.31877
229.19        38.59659
229.65        38.80251
230.10        40.89085
230.56        44.28097
231.02        47.46545
231.48        48.03484
231.93        45.70516
232.39         41.8596
232.85        38.01605
233.31        36.11341
233.77        36.34311
234.22         37.9616
234.68         40.1477
235.14        41.74557
235.60        42.35789
236.05        42.45498
236.51        42.00584
236.97        40.97445
237.43        39.50618
237.88        37.48691
238.34        35.69882
238.80        35.69934
239.26        38.06289
239.71        43.40095
240.17        50.60665
240.63        55.83185
241.08        56.48239
241.54        51.80133
242.00        45.07441
242.46        43.76323
242.91        52.26765
243.37        73.13337
243.83        106.3024
244.28        132.4633
244.74        127.4167
245.20        94.63771
245.66        58.45126
246.11        39.36356
246.57         37.3604
247.03        45.27132
247.48        57.36883
247.94        63.26899
248.40        61.25274
248.85        56.59648
249.31        52.37592
249.77        49.78854
250.22        48.41324
250.68        47.05474
251.14        45.43671
251.59        43.87314
252.05        43.19754
252.51        44.19102
252.96         45.1237
253.42        44.36719
253.88        42.18695
254.33        38.96476
254.79        37.40297
255.25         39.7608
255.70        45.56123
256.16        53.77648
256.62        60.55851
257.07        60.28197
257.53        54.69496
257.99        47.57928
258.44        42.12449
258.90        40.93536
259.35        42.80515
259.81        46.37716
260.27        49.79689
260.72        50.78887
261.18        49.48932
261.63        46.86771
262.09        44.33082
262.55        42.89796
263.00         42.5136
263.46        42.77738
263.91        42.98735
264.37        42.51692
264.83        41.31576
265.28        39.70132
265.74         38.2672
266.19        37.48536
266.65        37.44554
267.11        37.84904
267.56        38.33631
268.02        38.34656
268.47        37.74651
268.93        36.76831
269.38        35.62743
269.84        34.69437
270.30        34.06241
270.75        33.59069
271.21        33.26458
271.66        33.02145
272.12        32.82109
272.57        32.67896
273.03        32.48051
273.48        32.02342
273.94        31.33062
274.39        30.43761
274.85        29.57712
275.31        28.96142
275.76        28.60434
276.22        28.45797
276.67        28.35902
277.13        28.14344
277.58        27.73445
278.04        27.21562
278.49        26.63321
278.95         26.1572
279.40        25.77207
279.86        25.47727
280.31        25.15522
280.77        24.72991
281.22        24.17097
281.68        23.58299
282.13         23.0293
282.59        22.65664
283.04        22.45858
283.50        22.39404
283.95        22.40048
284.41        22.38808
284.86        22.32246
285.32        22.24879
285.77         22.1553
286.22        22.07712
286.68        22.02067
287.13        21.93495
287.59        21.85067
288.04        21.78263
288.50        21.74598
288.95        21.71954
289.41         21.6621
289.86         21.4538
290.32        21.12511
290.77        20.72219
291.22        20.36966
291.68        20.23853
292.13        20.35461
292.59        20.67102
293.04        21.10699
293.50        21.55067
293.95        21.94523
294.40        22.31515
294.86        22.66397
295.31        22.99371
295.77        23.31721
296.22        23.62346
296.68        23.92357
297.13        24.23118
297.58        24.55881
298.04        24.90588
298.49        25.29116
298.95        25.75247
299.40        26.27763
299.85         26.8511
300.31         27.4053
300.76        27.83095
301.21        28.11107
301.67        28.29028
302.12        28.42371
302.58        28.64871
303.03        28.97059
303.48        29.36407
303.94         29.7772
304.39        30.10431
304.84        30.33313
305.30        30.50627
305.75        30.64297
306.20         30.8212
306.66        31.05753
307.11        31.30248
307.57        31.52699
308.02        31.65037
308.47        31.66651
308.93        31.61235
309.38        31.50641
309.83        31.41636
310.29        31.36323
310.74        31.32873
311.19        31.29691
311.65        31.23695
312.10        31.13727
312.55        31.00743
313.00        30.87808
313.46        30.79046
313.91        30.73854
314.36         30.7167
314.82        30.67355
315.27        30.53855
315.72        30.29831
316.18        29.98439
316.63        29.65954
317.08        29.43418
317.53        29.32856
317.99        29.30457
318.44        29.29685
318.89         29.1872
319.35        28.94639
319.80        28.61116
320.25        28.24235
320.70         27.9368
321.16         27.7203
321.61        27.57346
322.06        27.44926
322.51        27.27475
322.97        27.02621
323.42        26.72937
323.87        26.43353
324.32        26.22047
324.78        26.09607
325.23        26.04622
325.68        25.98378
326.13        25.77401
326.59        25.39221
327.04        24.89964
327.49        24.39877
327.94        24.04728
328.39        23.88017
328.85        23.84044
329.30        23.87626
329.75        23.84707
330.20        23.70718
330.66        23.49366
331.11        23.25611
331.56        23.05485
332.01        22.90857
332.46        22.78448
332.92        22.65842
333.37         22.5347
333.82         22.3967
334.27        22.26112
334.72         22.1174
335.17        21.94061
335.63        21.73028
336.08        21.50548
336.53        21.30372
336.98        21.19612
337.43        21.19363
337.88         21.2663
338.34        21.36046
338.79        21.40615
339.24        21.36617
339.69        21.26204
340.14        21.09887
340.59        20.89005
341.05        20.66231
341.50        20.41766
341.95        20.19738
342.40        20.06355
342.85        20.02603
343.30         20.0626
343.75        20.13829
344.20        20.19419
344.66        20.20729
345.11        20.18562
345.56        20.12131
346.01        20.00535
346.46        19.85171
346.91        19.67707
347.36        19.51131
347.81        19.40405
348.26        19.36675
348.72         19.3785
349.17        19.44123
349.62        19.56473
350.07        19.73408
350.52        19.94565
350.97        20.11354
351.42        20.10212
351.87        19.89754
352.32        19.54603
352.77        19.18359
353.22        19.01633
353.67        19.08072
354.13        19.31265
354.58        19.58869
355.03        19.70204
355.48         19.5982
355.93        19.35511
356.38        19.05829
356.83          18.834
357.28        18.71915
357.73        18.66245
358.18        18.65323
358.63        18.67957
359.08        18.72145
359.53         18.7853
359.98        18.81906
360.43        18.73711
360.88        18.53091
361.33        18.22689
361.78        17.89791
362.23        17.66826
362.68        17.57144
363.13        17.57251
363.58        17.61831
364.03        17.62139
364.48        17.55463
364.93        17.44472
365.38        17.31461
365.83        17.20131
366.28        17.11755
366.73        17.04631
367.18         16.9772
367.63        16.89921
368.08         16.8069
368.53        16.70492
368.98        16.59826
369.43        16.49084
369.88        16.38543
370.33        16.28496
370.78        16.18087
371.23         16.0609
371.68        15.92604
372.13        15.77946
372.58        15.65135
373.03         15.5876
373.48        15.59308
373.93        15.65342
374.38        15.71673
374.83        15.69988
375.28        15.58729
375.72        15.40174
376.17        15.21163
376.62        15.10193
377.07        15.09048
377.52        15.14616
377.97        15.22326
378.42        15.24915
378.87        15.20203
379.32        15.10554
379.77        14.98778
380.22        14.88661
380.67        14.81369
381.11        14.76327
381.56        14.71294
382.01          14.645
382.46        14.55851
382.91        14.46324
383.36        14.38663
383.81        14.36304
384.26         14.3937
384.71        14.46765
385.15        14.53919
385.60        14.53853
386.05        14.44955
386.50        14.29281
386.95        14.12743
387.40        14.04588
387.85        14.06225
388.29         14.1334
388.74        14.21332
389.19        14.20604
389.64        14.09601
390.09        13.91356
390.54        13.70854
390.98        13.56015
391.43        13.50096
391.88        13.50241
392.33        13.52683
392.78        13.52065
393.23        13.47154
393.67        13.39192
394.12         13.3183
394.57        13.27501
395.02         13.2666
395.47        13.27642
395.91        13.28693
396.36         13.2629
396.81        13.20518
397.26         13.1291
397.71         13.0484
398.15        12.98937
398.60        12.97297
399.05        12.93581
399.50        12.88639
399.95        12.93257
400.39        13.02998
400.84        12.94828
401.29        12.71591
401.74        12.58096
402.18        12.56501
402.63        12.52994
403.08        12.47639
403.53        12.46163
403.97        12.48285
404.42        12.52477
404.87        12.56286
405.32        12.55561
405.76        12.49273
406.21        12.39196
406.66        12.28359
407.11        12.21766
407.55        12.20889
408.00        12.23769
408.45        12.27623
408.90         12.2688
409.34        12.20173
409.79        12.09875
410.24        11.99346
410.68        11.92679
411.13        11.91199
411.58        11.93431
412.03        11.97281
412.47         11.9936
412.92        11.98012
413.37         11.9442
413.81        11.90152
414.26        11.88438
414.71        11.89349
415.15        11.92132
415.60        11.94182
416.05        11.92007
416.49        11.85165
416.94        11.75293
417.39        11.65401
417.83        11.59841
418.28        11.59548
418.73        11.62825
419.17        11.68425
419.62        11.74228
420.07        11.79065
420.51        11.83198
420.96        11.85291
421.41        11.83138
421.85        11.76403
422.30        11.65546
422.74        11.53228
423.19        11.48794
423.64        11.51261
424.08        11.52406
424.53        11.50106
424.98          11.498
425.42        11.51478
425.87        11.48269
426.31        11.41507
426.76        11.41727
427.21        11.45951
427.65        11.37532
428.10        11.20145
428.54        11.11179
428.99        11.12314
429.44         11.1872
429.88        11.25709
430.33         11.2159
430.77        11.09307
431.22        11.10156
431.66        11.24106
432.11        11.31569
432.56        11.32301
433.00        11.41227
433.45        11.52049
433.89        11.45175
434.34         11.2813
434.78        10.96672
435.23        11.14628
435.67        11.12202
436.12        11.05826
436.57        10.98222
437.01        10.90955
437.46        10.87123
437.90        10.86539
438.35         10.8519
438.79        10.83205
439.24        10.84293
439.68        10.88427
440.13        10.94308
440.57        10.99718
441.02        11.02296
441.46        11.01285
441.91        10.94559
442.35         10.8523
442.80        10.88185
443.24        10.99349
443.69        10.99145
444.13        10.87879
444.58         10.8348
445.02         10.8612
445.47        10.85764
445.91        10.82873
446.36        10.83367
446.80        10.87154
447.24        10.92429
447.69        10.97716
448.13        11.00245
448.58          10.996
449.02        10.96452
449.47        10.92291
449.91         10.8897
450.36         10.8734
450.80        10.86714
451.25         10.8654
451.69        10.85346
452.13        10.82965
452.58        10.79858
453.02        10.76739
453.47        10.74828
453.91        10.74373
454.36         10.7504
454.80        10.75737
455.24        10.74601
455.69        10.71638
456.13        10.66738
456.58          10.622
457.02        10.59696
457.46        10.60049
457.91        10.62417
458.35        10.64572
458.79        10.63071
459.24        10.58458
459.68        10.51558
460.13        10.45682
460.57        10.42893
461.01        10.44634
461.46        10.48695
461.90        10.55187
462.34        10.63221
462.79        10.71468
463.23        10.80468
463.68        10.86495
464.12        10.84314
464.56        10.73654
465.01        10.58338
465.45        10.42552
465.89        10.34806
466.34        10.36326
466.78        10.44451
467.22        10.56145
467.67        10.64814
468.11        10.68697
468.55         10.6909
468.99        10.67619
469.44        10.66817
469.88        10.67628
470.32        10.68983
470.77         10.7041
471.21        10.71729
471.65        10.72661
472.10        10.73689
472.54        10.74858
472.98        10.76477
473.42        10.78559
473.87        10.81346
474.31        10.83524
474.75        10.84243
475.20        10.83723
475.64        10.81854
476.08        10.80328
476.52        10.81141
476.97        10.84681
477.41        10.90873
477.85        10.98323
478.29        11.03022
478.74        11.05176
479.18        11.08502
479.62        11.13323
480.06        11.18344
480.50        11.23881
480.95        11.29321
481.39        11.33546
481.83        11.46061
482.27        11.50003
482.72         11.5943
483.16        11.69493
483.60        11.77772
484.04        11.82149
484.48        11.92548
484.93        12.14427
485.37        12.11419
485.81        12.13131
486.25        12.59986
486.69        12.10335
487.14         12.0217
487.58        12.90677
488.02        12.78433
488.46        12.69309
488.90        12.73374
489.34        12.50496
489.79         12.7225
490.23        13.06647
490.67        13.27724
491.11         13.3106
491.55        13.33775
491.99        13.39628
492.43        13.46757
492.88        13.56171
493.32        13.65747
493.76         13.7572
494.20        13.89513
494.64        14.07454
495.08        14.25359
495.52        14.40391
495.96         14.5777
496.41         14.7364
496.85        14.67217
497.29        14.46379
497.73        14.57027
498.17        14.79417
498.61        15.01719
499.05        15.13358
499.49        15.25358
499.93        15.33533
500.37         15.4712
500.82        15.63308
501.26        15.73223
501.70        15.76366
502.14        15.78416
502.58        15.82689
503.02        15.91396
503.46        16.05281
503.90        16.23993
504.34         16.4284
504.78        16.53785
505.22        16.55051
505.66        16.48889
506.10         16.4099
506.54        16.40517
506.98        16.49689
507.42        16.65878
507.86        16.83981
508.30         16.9558
508.74         16.9851
509.18        16.95511
509.62        16.91045
510.06        16.92245
510.50        17.00767
510.94        17.13803
511.38        17.27807
511.82        17.37256
512.26        17.40646
512.70        17.40263
513.14        17.37752
513.58        17.35616
514.02         17.3502
514.46        17.34901
514.90        17.36299
515.34         17.4102
515.78        17.48857
516.22        17.59253
516.66        17.69016
517.10        17.72885
517.54        17.69818
517.98        17.61361
518.42        17.50987
518.86         17.4439
519.30        17.43236
519.74        17.46098
520.18        17.50671
520.62        17.53187
521.06        17.52665
521.50        17.50363
521.93        17.48114
522.37         17.4813
522.81        17.51007
523.25        17.55248
523.69        17.59007
524.13        17.59772
524.57        17.56774
525.01        17.50784
525.45        17.42666
525.89        17.33818
526.32        17.24904
526.76        17.16368
527.20        17.08275
527.64        17.00791
528.08         16.9408
528.52         16.8827
528.96         16.8393
529.40        16.81741
529.83        16.81524
530.27        16.82926
530.71        16.84273
531.15        16.83167
531.59        16.79104
532.03        16.72614
532.46        16.65184
532.90        16.60463
533.34        16.58904
533.78         16.5865
534.22        16.58179
534.66        16.57114
535.09        16.53892
535.53        16.45751
535.97        16.35003
536.41        16.29473
536.85        16.30171
537.28        16.33178
537.72        16.37869
538.16         16.4441
538.60        16.51956
539.04        16.60429
539.47        16.67772
539.91        16.71893
540.35        16.72405
540.79        16.70282
541.22        16.68236
541.66        16.71282
542.10        16.80275
542.54        16.93736
542.97        17.09088
543.41        17.22868
543.85        17.33746
544.29        17.42965
544.72        17.51158
545.16        17.60592
545.60         17.7157
546.04        17.83583
546.47        17.96793
546.91        18.11159
547.35        18.26247
547.79        18.42179
548.22        18.58035
548.66        18.71955
549.10        18.85917
549.53        18.99429
549.97        19.13316
550.41        19.24564
550.84        19.35271
551.28         19.5036
551.72        19.67463
552.15        19.84358
552.59        20.02902
553.03        19.94464
553.46        20.19649
553.90        20.27216
554.34        20.35116
554.77        20.43063
555.21        20.52497
555.65        20.63957
556.08          20.764
556.52        20.88316
556.96        20.97887
557.39         21.0807
557.83         21.1693
558.27        21.13165
558.70        21.00476
559.14        20.97449
559.57        21.04345
560.01        21.10087
560.45        21.14159
560.88        21.22263
561.32        21.35051
561.75        21.48459
562.19        21.61659
562.63        21.73063
563.06        21.81706
563.50        21.87742
563.93        21.90491
564.37        21.95706
564.80        22.04446
565.24        22.08332
565.68        22.03361
566.11        22.33011
566.55        22.17391
566.98        22.22188
567.42        22.28276
567.85        22.40965
568.29        22.60949
568.72        22.87554
569.16        23.18988
569.60         23.3838
570.03        23.52715
570.47         23.6492
570.90        23.79282
571.34        23.73322
571.77        23.89921
572.21        24.06382
572.64        24.11621
573.08        24.32536
573.51        24.41633
573.95        24.54468
574.38        24.65029
574.82        24.77783
