SpectraSmart Spectrum 2.9.0.0
--------- Device Information -----------
Spectrum Name :  反射率_0
Saving Time :  2024/04/27 00:25:06
Spectro-Module Model Name : SE2030-DUVN
Spectro-Module Serial Number : OS361AC55029948
Wavelength Start : 200
Wavelength End : 1025
Wavelength Unit : Wavelength(nm)
Spectrum Unit : Reflectance(%)
-----------Spectrum Setting ------------
Integration Time : 20ms
Average : 10
Boxcar : 0
Background removal :  enabled
linearity correction :  enabled
SC :  disabled
Intensity correction :  disabled
DWT denoise :  enabled
savitzky-golay :  disabled
FFT :  disabled
Running average :  disabled
Kalman :  disabled
High pass :  disabled
---------------BEGIN--------------------
Wavelength(nm)             Reflectance(%)
200.29               0
200.75        28.96548
201.21        25.77002
201.67        22.82514
202.13         20.5485
202.58        18.67944
203.04        17.12619
203.50        15.97789
203.96        15.70686
204.42        16.59142
204.88        18.44397
205.34        20.64548
205.80        21.95041
206.26        21.93146
206.72        21.11091
207.18        19.49764
207.64        16.77869
208.10        12.65375
208.55        6.125402
209.01       -2.006925
209.47       -4.470026
209.93        1.342275
210.39        10.21541
210.85        17.04303
211.31        20.00395
211.77        19.75901
212.23        15.64976
212.69        4.003019
213.14       -9.117229
213.60        1.126731
214.06        18.00117
214.52        26.40289
214.98        28.63294
215.44        27.71995
215.90        24.89334
216.36        21.27882
216.81         18.1386
217.27        16.22411
217.73        15.47705
218.19        14.82772
218.65        11.93618
219.11        8.027572
219.57         5.29885
220.02        5.623085
220.48        10.47731
220.94        20.66094
221.40        38.25829
221.86         63.5094
222.32        81.87052
222.77        79.23058
223.23        64.54721
223.69        48.95778
224.15        39.25223
224.61        34.74112
225.06        32.52658
225.52        32.09776
225.98        33.07312
226.44        35.06322
226.90        38.25762
227.36        41.57693
227.81         42.9282
228.27        42.07935
228.73        39.66338
229.19        37.27363
229.65          36.808
230.10         38.3936
230.56        41.45657
231.02        44.61861
231.48        45.69492
231.93        44.31618
232.39        41.57594
232.85        38.98845
233.31        38.52171
233.77        40.31564
234.22        43.68468
234.68        47.23306
235.14        48.86219
235.60        47.98062
236.05        45.12134
236.51        41.36291
236.97        39.07283
237.43        39.26429
237.88        41.42294
238.34        44.43893
238.80        46.60699
239.26        47.35371
239.71        47.34437
240.17        46.79278
240.63        46.98513
241.08        48.83583
241.54        51.55581
242.00        55.31302
242.46        60.77679
242.91        69.08492
243.37        81.80483
243.83        98.83952
244.28        111.0372
244.74        106.5768
245.20        86.61507
245.66        65.12609
246.11        53.55434
246.57        51.73762
247.03        55.90095
247.48        61.78576
247.94        61.96319
248.40        56.65485
248.85        50.16727
249.31        44.91832
249.77        41.61362
250.22        39.61996
250.68        37.99964
251.14        36.86615
251.59         37.1234
252.05        39.23315
252.51        42.83471
252.96        45.64958
253.42        45.89234
253.88        44.00306
254.33        40.70824
254.79        38.53859
255.25        39.47911
255.70        43.25107
256.16        49.02886
256.62        54.08641
257.07         54.3686
257.53         50.9741
257.99        46.41197
258.44        42.84307
258.90        42.24306
259.35        43.67719
259.81        46.26473
260.27        48.60785
260.72        49.01113
261.18         47.6823
261.63         45.3541
262.09         43.1865
262.55        41.96717
263.00         41.6323
263.46        41.87206
263.91         42.1135
264.37        41.88057
264.83        41.09434
265.28        39.95747
265.74        38.91865
266.19         38.2757
266.65        38.10353
267.11        38.17846
267.56        38.23428
268.02        37.85955
268.47        36.98711
268.93        35.82893
269.38          34.581
269.84        33.57585
270.30        32.89346
270.75        32.40286
271.21        32.11039
271.66         31.9815
272.12        31.95918
272.57        32.02431
273.03        31.98013
273.48        31.50526
273.94        30.61231
274.39        29.40068
274.85         28.1915
275.31        27.31804
275.76        26.82868
276.22        26.63979
276.67        26.57396
277.13        26.43956
277.58        26.14143
278.04        25.76124
278.49        25.31997
278.95        24.94244
279.40          24.608
279.86        24.32805
280.31        23.99781
280.77        23.56322
281.22          23.001
281.68        22.39718
282.13        21.83778
282.59        21.49749
283.04         21.3684
283.50        21.40527
283.95         21.4831
284.41        21.41053
284.86        21.14769
285.32        20.78211
285.77        20.41076
286.22        20.21559
286.68        20.22564
287.13        20.34811
287.59        20.51159
288.04        20.57397
288.50        20.51724
288.95        20.37012
289.41        20.18593
289.86        19.98973
290.32        19.82515
290.77        19.67114
291.22        19.55637
291.68        19.51449
292.13        19.54604
292.59        19.66485
293.04        19.85001
293.50         20.0793
293.95        20.33686
294.40        20.62635
294.86        20.96143
295.31        21.36064
295.77        21.82358
296.22        22.32524
296.68        22.83531
297.13         23.2996
297.58        23.71202
298.04        24.09307
298.49        24.46511
298.95        24.87746
299.40        25.33676
299.85        25.82861
300.31         26.3399
300.76        26.84552
301.21        27.33252
301.67        27.81179
302.12        28.25785
302.58        28.68136
303.03        29.06058
303.48        29.41237
303.94        29.74002
304.39        30.02365
304.84        30.27634
305.30        30.51307
305.75        30.74199
306.20        31.02314
306.66        31.36633
307.11        31.73765
307.57        32.09378
308.02        32.32715
308.47        32.42918
308.93        32.43622
309.38        32.40009
309.83        32.44652
310.29        32.59801
310.74        32.80936
311.19         33.0046
311.65        33.05487
312.10        32.92865
312.55        32.67553
313.00        32.37875
313.46        32.15834
313.91        32.03434
314.36        31.97903
314.82         31.9403
315.27        31.84496
315.72        31.66852
316.18        31.44414
316.63        31.20111
317.08        30.99534
317.53        30.83878
317.99        30.70842
318.44        30.57523
318.89        30.38513
319.35        30.12806
319.80         29.8223
320.25        29.51108
320.70        29.26092
321.16         29.0854
321.61        28.97616
322.06        28.88042
322.51        28.71524
322.97        28.45521
323.42        28.12228
323.87        27.78345
324.32        27.55236
324.78        27.44186
325.23        27.43589
325.68        27.41716
326.13        27.19767
326.59        26.74224
327.04        26.12731
327.49        25.50422
327.94        25.10705
328.39        24.98396
328.85        25.05392
329.30        25.20767
329.75        25.19802
330.20        24.95078
330.66        24.54119
331.11         24.0785
331.56        23.71641
332.01        23.50406
332.46        23.38107
332.92        23.30538
333.37        23.25029
333.82        23.17776
334.27        23.11131
334.72        23.02229
335.17        22.85273
335.63        22.59983
336.08        22.29594
336.53        21.99736
336.98         21.8129
337.43        21.76825
337.88        21.81892
338.34        21.93399
338.79        22.07776
339.24        22.20749
339.69        22.33371
340.14        22.37676
340.59        22.21443
341.05        21.85036
341.50        21.32657
341.95        20.79802
342.40        20.50393
342.85        20.49491
343.30        20.70275
343.75         20.9952
344.20        21.14752
344.66        21.09781
345.11        20.91321
345.56         20.6747
346.01        20.51298
346.46        20.46826
346.91        20.48975
347.36         20.5429
347.81        20.58354
348.26         20.5919
348.72        20.58644
349.17        20.56397
349.62        20.52448
350.07        20.47014
350.52        20.40088
350.97        20.31194
351.42        20.20124
351.87        20.07553
352.32        19.94119
352.77        19.82504
353.22        19.76224
353.67         19.7553
354.13        19.79424
354.58        19.83932
355.03        19.82977
355.48           19.75
355.93        19.61665
356.38        19.46774
356.83        19.36206
357.28        19.30972
357.73        19.28821
358.18        19.26398
358.63        19.18448
359.08        19.03903
359.53        18.85144
359.98         18.6469
360.43        18.45884
360.88        18.29699
361.33        18.14991
361.78        18.01676
362.23        17.89693
362.68        17.79084
363.13        17.70585
363.58        17.62786
364.03        17.53236
364.48        17.41344
364.93        17.26935
365.38        17.13093
365.83         17.0515
366.28        17.03695
366.73        17.06934
367.18        17.08825
367.63        16.99992
368.08        16.78858
368.53        16.48573
368.98        16.16411
369.43        15.93851
369.88        15.83886
370.33         15.8351
370.78        15.86567
371.23         15.8269
371.68        15.69016
372.13        15.48667
372.58        15.27324
373.03        15.13888
373.48        15.10273
373.93        15.13154
374.38        15.16988
374.83        15.13242
375.28        15.00169
375.72        14.80978
376.17        14.61491
376.62        14.48182
377.07        14.42981
377.52        14.43622
377.97        14.48011
378.42        14.53002
378.87        14.56743
379.32        14.59229
379.77        14.60539
380.22        14.60826
380.67        14.59863
381.11          14.578
381.56        14.51652
382.01        14.38653
382.46        14.19619
382.91        13.96894
383.36        13.75941
383.81        13.63732
384.26          13.611
384.71        13.66042
385.15        13.73684
385.60        13.76107
386.05        13.70978
386.50        13.60757
386.95        13.49232
387.40        13.42391
387.85        13.41551
388.29         13.4345
388.74         13.4699
389.19        13.47967
389.64         13.4535
390.09        13.40041
390.54        13.33257
390.98        13.26585
391.43         13.2141
391.88        13.17031
392.33        13.12125
392.78        13.04764
393.23        12.95056
393.67        12.83633
394.12        12.73782
394.57        12.67551
395.02        12.65229
395.47        12.65314
395.91        12.66844
396.36        12.67294
396.81        12.66523
397.26        12.65488
397.71         12.6316
398.15        12.58784
398.60         12.5428
399.05        12.44834
399.50        12.34407
399.95        12.37894
400.39         12.5185
400.84        12.52603
401.29        12.39978
401.74         12.3327
402.18        12.33035
402.63        12.27117
403.08        12.16912
403.53        12.10193
403.97        12.07763
404.42         12.0775
404.87         12.0816
405.32        12.05634
405.76        11.99266
406.21         11.9068
406.66        11.82584
407.11        11.79298
407.55        11.81886
408.00         11.8841
408.45        11.95186
408.90        11.95196
409.34        11.86823
409.79        11.72853
410.24        11.58157
410.68        11.49083
411.13        11.47398
411.58        11.51079
412.03         11.5708
412.47         11.6013
412.92        11.58162
413.37        11.53317
413.81        11.47823
414.26        11.45732
414.71         11.4746
415.15         11.5177
415.60        11.56539
416.05        11.59072
416.49         11.5852
416.94        11.55795
417.39        11.52079
417.83        11.49034
418.28        11.47084
418.73        11.45438
419.17        11.44187
419.62        11.43544
420.07        11.43377
420.51        11.43525
420.96        11.43018
421.41        11.40077
421.85        11.34159
422.30        11.25633
422.74        11.15942
423.19        11.12326
423.64        11.13587
424.08         11.1238
424.53        11.07677
424.98        11.06596
425.42        11.09739
425.87        11.09833
426.31        11.07924
426.76        11.13888
427.21        11.24523
427.65        11.23516
428.10        11.12999
428.54        11.08194
428.99        11.10457
429.44        11.15278
429.88        11.19732
430.33        11.15053
430.77        11.04592
431.22        11.08699
431.66        11.25528
432.11        11.32323
432.56        11.28272
433.00        11.29584
433.45        11.32033
433.89        11.20358
434.34        11.03543
434.78         10.7602
435.23        10.99273
435.67        11.03328
436.12        11.03412
436.57        11.02345
437.01        11.00798
437.46        11.00267
437.90        11.00253
438.35        10.97261
438.79        10.92247
439.24        10.90386
439.68        10.92246
440.13        10.96166
440.57        11.00927
441.02        11.05586
441.46        11.09272
441.91        11.09311
442.35        11.06319
442.80        11.12096
443.24         11.2212
443.69        11.17241
444.13        11.00611
444.58        10.94984
445.02        11.01377
445.47        11.08078
445.91        11.12468
446.36        11.15807
446.80        11.16984
447.24        11.15916
447.69        11.13615
448.13        11.11136
448.58        11.09231
449.02        11.07381
449.47        11.05904
449.91        11.04837
450.36        11.04343
450.80        11.04266
451.25        11.04339
451.69        11.03446
452.13        11.01445
452.58        10.98429
453.02        10.94796
453.47        10.91396
453.91        10.88576
454.36         10.8649
454.80        10.84452
455.24        10.81189
455.69        10.76944
456.13        10.71337
456.58        10.67102
457.02        10.66463
457.46        10.70142
457.91        10.77199
458.35        10.83728
458.79        10.83701
459.24        10.77254
459.68        10.65767
460.13        10.55137
460.57        10.51264
461.01        10.56126
461.46        10.66434
461.90         10.7902
462.34        10.87413
462.79        10.89106
463.23        10.86601
463.68        10.80303
464.12        10.71851
464.56        10.62533
465.01        10.53447
465.45        10.45311
465.89        10.42097
466.34        10.43931
466.78        10.49598
467.22        10.57013
467.67        10.61186
468.11        10.61248
468.55        10.58088
468.99        10.53473
469.44        10.50273
469.88        10.49508
470.32        10.50218
470.77        10.52112
471.21        10.55037
471.65         10.5845
472.10        10.62558
472.54         10.6633
472.98        10.68537
473.42         10.6892
473.87        10.68173
474.31        10.66258
474.75        10.64313
475.20        10.63109
475.64        10.62175
476.08        10.62249
476.52        10.63773
476.97        10.66846
477.41        10.71911
477.85        10.78639
478.29        10.84746
478.74        10.90557
479.18        10.98755
479.62        11.08247
480.06        11.15668
480.50         11.2069
480.95        11.23311
481.39        11.23115
481.83        11.30465
482.27        11.29218
482.72         11.3329
483.16        11.37932
483.60        11.41288
484.04        11.42817
484.48        11.48618
484.93        11.64144
485.37        11.64155
485.81        11.81792
486.25        12.03663
486.69        11.94149
487.14        11.74385
487.58        12.64597
488.02        12.38522
488.46        12.21946
488.90        12.27184
489.34        12.15022
489.79        12.34782
490.23        12.55849
490.67        12.79572
491.11        12.97662
491.55        12.98778
491.99        12.88945
492.43        12.90734
492.88        13.06643
493.32        13.22324
493.76        13.35052
494.20        13.48383
494.64        13.61923
495.08        13.72023
495.52        13.79104
495.96        13.93014
496.41        14.11125
496.85        14.11978
497.29        13.99948
497.73         14.1466
498.17          14.359
498.61        14.53778
499.05        14.59755
499.49        14.67269
499.93        14.73343
500.37        14.85948
500.82        15.02306
501.26        15.13819
501.70        15.19738
502.14        15.25729
502.58        15.34048
503.02        15.45198
503.46        15.59461
503.90        15.76559
504.34        15.93122
504.78        16.03481
505.22        16.06362
505.66        16.03411
506.10        15.98351
506.54        15.97236
506.98        16.01742
507.42        16.10233
507.86         16.2025
508.30        16.27627
508.74        16.31186
509.18        16.32418
509.62        16.32977
510.06        16.35405
510.50         16.4038
510.94        16.46768
511.38        16.53582
511.82        16.59407
512.26        16.63753
512.70        16.67253
513.14        16.70092
513.58        16.72457
514.02        16.74615
514.46        16.76478
514.90        16.78614
515.34        16.82003
515.78        16.86704
516.22        16.92282
516.66        16.97786
517.10        17.01737
517.54        17.03536
517.98        17.03317
518.42        17.01501
518.86        16.98821
519.30        16.95704
519.74        16.92381
520.18        16.88491
520.62         16.8337
521.06        16.77219
521.50        16.70448
521.93        16.65035
522.37        16.63444
522.81        16.66124
523.25        16.71796
523.69        16.77625
524.13        16.79271
524.57        16.75678
525.01        16.68108
525.45        16.58425
525.89        16.49831
526.32         16.4332
526.76        16.38367
527.20        16.34438
527.64        16.30838
528.08        16.27209
528.52        16.23885
528.96        16.20618
529.40        16.16858
529.83        16.12416
530.27        16.07324
530.71        16.01668
531.15        15.95901
531.59        15.90297
532.03        15.84905
532.46         15.7955
532.90        15.74986
533.34        15.71175
533.78        15.67348
534.22        15.63766
534.66        15.62704
535.09        15.62968
535.53        15.60505
535.97        15.55935
536.41        15.54379
536.85         15.5614
537.28        15.58522
537.72        15.60841
538.16        15.63147
538.60         15.6519
539.04        15.66956
539.47        15.68867
539.91        15.72568
540.35        15.78041
540.79        15.85074
541.22        15.92617
541.66        15.99579
542.10        16.05455
542.54        16.10559
542.97        16.15952
543.41        16.23928
543.85        16.34702
544.29         16.4789
544.72        16.61369
545.16        16.73106
545.60        16.82472
546.04        16.90398
546.47        16.99494
546.91        17.13633
547.35        17.32955
547.79        17.55622
548.22        17.78105
548.66        17.94785
549.10        18.06784
549.53        18.15388
549.97        18.22644
550.41        18.27673
550.84        18.33588
551.28        18.44425
551.72        18.59295
552.15        18.78279
552.59        19.02883
553.03        19.04788
553.46        19.38479
553.90        19.49847
554.34        19.55106
554.77        19.55765
555.21        19.55853
555.65        19.60319
556.08        19.69719
556.52        19.81371
556.96        19.93025
557.39        20.06619
557.83        20.19678
558.27        20.21646
558.70         20.1486
559.14         20.1517
559.57        20.22396
560.01        20.26197
560.45        20.27211
560.88        20.32821
561.32        20.44214
561.75        20.57238
562.19        20.70471
562.63        20.81036
563.06          20.879
563.50        20.92454
563.93        20.94794
564.37        21.00237
564.80        21.10419
565.24        21.18953
565.68         21.2017
566.11        21.52129
566.55        21.37387
566.98        21.38896
567.42        21.39736
567.85        21.51814
568.29        21.74037
568.72        21.94601
569.16        22.14463
569.60        22.29728
570.03        22.47626
570.47        22.65831
570.90        22.88251
571.34        22.81774
571.77        23.13407
572.21        23.27691
572.64        23.41999
573.08        23.55297
573.51        23.68999
573.95         23.7758
574.38        23.83464
574.82        23.90356
