SpectraSmart Spectrum 2.9.0.0
--------- Device Information -----------
Spectrum Name :  反射率_0
Saving Time :  2024/04/27 00:26:02
Spectro-Module Model Name : SE2030-DUVN
Spectro-Module Serial Number : OS361AC55029948
Wavelength Start : 200
Wavelength End : 1025
Wavelength Unit : Wavelength(nm)
Spectrum Unit : Reflectance(%)
-----------Spectrum Setting ------------
Integration Time : 20ms
Average : 10
Boxcar : 0
Background removal :  enabled
linearity correction :  enabled
SC :  disabled
Intensity correction :  disabled
DWT denoise :  enabled
savitzky-golay :  disabled
FFT :  disabled
Running average :  disabled
Kalman :  disabled
High pass :  disabled
---------------BEGIN--------------------
Wavelength(nm)             Reflectance(%)
200.29               0
200.75        31.61329
201.21        31.19062
201.67        30.81978
202.13        30.73817
202.58        30.88246
203.04        31.67848
203.50         32.6419
203.96        32.18067
204.42         29.5914
204.88        25.02543
205.34        21.05819
205.80        22.20457
206.26        28.38389
206.72         36.6189
207.18        43.53925
207.64        46.72706
208.10        46.32593
208.55        43.41424
209.01        36.91735
209.47          29.072
209.93         24.5242
210.39        23.24355
210.85        24.25632
211.31        27.17545
211.77        33.04885
212.23        46.62124
212.69        81.50415
213.14        144.2518
213.60        149.2117
214.06         110.011
214.52        81.70545
214.98        69.21748
215.44        64.35612
215.90        61.65368
216.36        60.22517
216.81        59.41376
217.27        59.17209
217.73        61.08163
218.19        63.94567
218.65        62.21083
219.11        56.11691
219.57        49.65375
220.02        46.78546
220.48        50.21092
220.94        60.03522
221.40        77.93019
221.86        103.8249
222.32        121.9565
222.77        117.6729
223.23        101.1796
223.69        84.12841
224.15        73.36126
224.61        68.04724
225.06        65.03998
225.52        64.10461
225.98        64.85491
226.44        66.86852
226.90        70.35447
227.36        73.95522
227.81        75.09495
228.27        73.65013
228.73        70.48823
229.19        67.71099
229.65        67.86282
230.10         70.9645
230.56         76.0426
231.02        81.20216
231.48        83.40569
231.93        82.05276
232.39        78.82617
232.85        75.20683
233.31        73.11098
233.77        72.82627
234.22        73.62015
234.68        74.97128
235.14        76.22256
235.60        77.08193
236.05        77.93858
236.51        78.40646
236.97        77.81164
237.43        76.03119
237.88        73.19411
238.34        70.16799
238.80        68.74209
239.26         69.5325
239.71        72.95252
240.17         78.0845
240.63        82.32648
241.08        83.97528
241.54        82.52963
242.00        80.07465
242.46        81.27226
242.91        89.33073
243.37        105.4108
243.83        130.1154
244.28        151.9766
244.74        153.3168
245.20         134.071
245.66         108.725
246.11        89.90859
246.57         78.4912
247.03        70.70209
247.48        64.54114
247.94        58.54361
248.40        53.59085
248.85        50.37986
249.31        48.82695
249.77        48.12493
250.22        47.77833
250.68        47.75508
251.14        47.81337
251.59        47.55967
252.05        47.39034
252.51            47.8
252.96        48.63247
253.42        50.08243
253.88        51.92746
254.33        53.43973
254.79        55.75266
255.25        59.68543
255.70        64.95187
256.16        71.29013
256.62        76.14402
257.07        75.67421
257.53         71.4899
257.99        66.25076
258.44        62.05437
258.90        60.96411
259.35         61.9425
259.81        64.19759
260.27        66.49751
260.72        67.37769
261.18         66.9527
261.63        65.59042
262.09        64.23073
262.55        63.29727
263.00         62.7437
263.46        62.55188
263.91        62.22898
264.37        61.53888
264.83        60.45061
265.28        59.08611
265.74        58.01766
266.19        57.61131
266.65        57.94902
267.11        58.75251
267.56        59.56248
268.02        59.65766
268.47        58.87661
268.93        57.50537
269.38        55.91434
269.84        54.74916
270.30         54.1437
270.75        53.86393
271.21        53.74764
271.66        53.47804
272.12        52.96484
272.57        52.29789
273.03        51.48449
273.48        50.49885
273.94        49.44658
274.39        48.30169
274.85        47.25251
275.31        46.40001
275.76         45.7248
276.22        45.23171
276.67        44.80349
277.13        44.38953
277.58        43.89309
278.04        43.36866
278.49        42.73944
278.95        42.04368
279.40        41.24179
279.86        40.42908
280.31         39.5869
280.77          38.827
281.22        38.12133
281.68        37.52218
282.13        36.99496
282.59         36.6011
283.04        36.28388
283.50        36.04087
283.95        35.80252
284.41        35.49161
284.86         35.0858
285.32        34.64215
285.77        34.17282
286.22        33.76685
286.68        33.44007
287.13         33.1293
287.59        32.84283
288.04         32.5394
288.50        32.23759
288.95        31.92308
289.41        31.60201
289.86        31.20287
290.32        30.76523
290.77        30.29546
291.22        29.87338
291.68        29.59964
292.13        29.48071
292.59        29.50281
293.04        29.61329
293.50        29.75243
293.95        29.88557
294.40        30.02859
294.86        30.19776
295.31         30.4088
295.77        30.67309
296.22        30.97302
296.68        31.29107
297.13        31.58741
297.58        31.86265
298.04        32.12723
298.49        32.41888
298.95        32.81459
299.40        33.30988
299.85        33.87506
300.31        34.43488
300.76        34.86295
301.21        35.13908
301.67        35.31886
302.12         35.4501
302.58        35.66667
303.03        35.97243
303.48        36.34739
303.94        36.75781
304.39        37.11814
304.84        37.41842
305.30        37.68796
305.75        37.92523
306.20        38.18388
306.66        38.47709
307.11        38.76733
307.57        39.02602
308.02        39.16062
308.47        39.17668
308.93         39.1184
309.38        39.04072
309.83        39.07785
310.29        39.25373
310.74         39.5179
311.19        39.79385
311.65         39.9497
312.10        39.94094
312.55        39.80488
313.00        39.60494
313.46        39.43586
313.91        39.31152
314.36        39.21629
314.82        39.10752
315.27        38.93196
315.72        38.67898
316.18        38.38567
316.63         38.0973
317.08        37.89476
317.53        37.79098
317.99        37.75225
318.44        37.72754
318.89        37.62249
319.35        37.41223
319.80        37.12404
320.25        36.80336
320.70        36.52459
321.16        36.30772
321.61         36.1442
322.06        35.99878
322.51         35.8181
322.97        35.58364
323.42        35.31585
323.87        35.05902
324.32         34.8885
324.78        34.80385
325.23        34.79964
325.68        34.77808
326.13        34.58906
326.59         34.2037
327.04        33.68404
327.49        33.14937
327.94        32.78878
328.39        32.64239
328.85        32.64262
329.30          32.716
329.75        32.66298
330.20        32.42661
330.66        32.06298
331.11        31.67219
331.56        31.38663
332.01        31.24461
332.46         31.1934
332.92        31.16696
333.37         31.1081
333.82        30.97288
334.27        30.79634
334.72         30.5934
335.17         30.3817
335.63        30.17372
336.08         29.9797
336.53        29.82128
336.98        29.74729
337.43        29.76487
337.88        29.85641
338.34        29.98114
338.79        30.09839
339.24        30.16934
339.69        30.19559
340.14        30.16724
340.59        30.07671
341.05        29.93984
341.50         29.7641
341.95         29.5744
342.40        29.40742
342.85        29.28072
343.30        29.18868
343.75        29.14738
344.20        29.18084
344.66        29.28479
345.11        29.43898
345.56        29.58753
346.01        29.64492
346.46        29.59408
346.91        29.46271
347.36        29.28997
347.81        29.14315
348.26        29.04416
348.72        28.97376
349.17        28.93081
349.62        28.92425
350.07         28.9506
350.52        29.01943
350.97        29.08214
351.42         29.0584
351.87        28.93554
352.32        28.72788
352.77        28.52335
353.22         28.4557
353.67        28.54258
354.13         28.7456
354.58        28.94211
355.03        28.92957
355.48        28.66883
355.93        28.23281
356.38        27.77396
356.83         27.5185
357.28        27.51199
357.73        27.67886
358.18        27.89375
358.63        27.95193
359.08        27.79652
359.53        27.49663
359.98        27.13983
360.43        26.85288
360.88        26.66965
361.33        26.54622
361.78        26.44005
362.23        26.28973
362.68         26.0825
363.13        25.85116
363.58        25.62511
364.03        25.44123
364.48        25.30718
364.93         25.2023
365.38        25.11312
365.83        25.02284
366.28        24.92137
366.73        24.81274
367.18        24.68554
367.63        24.52127
368.08        24.32042
368.53        24.09124
368.98        23.85675
369.43        23.65339
369.88        23.49269
370.33         23.3685
370.78        23.26926
371.23        23.17394
371.68        23.07479
372.13         22.9754
372.58        22.88167
373.03        22.80293
373.48        22.73664
373.93        22.67302
374.38         22.5961
374.83        22.48409
375.28        22.33533
375.72        22.15713
376.17        21.97911
376.62        21.81663
377.07        21.67896
377.52        21.56306
377.97        21.47322
378.42        21.41792
378.87        21.39148
379.32        21.38093
379.77        21.37263
380.22        21.34586
380.67        21.29123
381.11        21.22058
381.56        21.10584
382.01        20.93035
382.46         20.7088
382.91        20.46269
383.36         20.2463
383.81        20.12955
384.26        20.11883
384.71        20.19148
385.15        20.29758
385.60        20.35404
386.05         20.3317
386.50        20.24868
386.95        20.13416
387.40        20.03689
387.85         19.9717
388.29        19.91344
388.74        19.86515
389.19        19.78454
389.64        19.66684
390.09        19.52261
390.54        19.38414
390.98        19.29859
391.43        19.28421
391.88        19.31644
392.33         19.3496
392.78        19.31867
393.23        19.21452
393.67        19.05383
394.12        18.89135
394.57        18.76867
395.02        18.69569
395.47        18.64883
395.91        18.61813
396.36        18.57715
396.81        18.52863
397.26         18.4881
397.71        18.44196
398.15        18.37876
398.60        18.32231
399.05         18.1992
399.50        18.05983
399.95        18.11135
400.39         18.3014
400.84        18.28927
401.29        18.07475
401.74        17.94481
402.18        17.91163
402.63        17.79427
403.08        17.62664
403.53        17.54101
403.97        17.54818
404.42        17.61534
404.87        17.68421
405.32         17.6592
405.76        17.52045
406.21        17.30864
406.66        17.09673
407.11        16.99866
407.55        17.04347
408.00        17.18938
408.45        17.36485
408.90        17.43346
409.34        17.35517
409.79        17.17764
410.24        16.97716
410.68        16.85568
411.13        16.84193
411.58        16.90322
412.03        16.98934
412.47         17.0161
412.92        16.95513
413.37        16.84418
413.81         16.7308
414.26        16.69492
414.71        16.74464
415.15        16.85604
415.60        16.98007
416.05        17.04776
416.49        17.03614
416.94        16.96514
417.39        16.86569
417.83        16.78327
418.28        16.73228
418.73        16.69785
419.17        16.67393
419.62        16.65199
420.07        16.62879
420.51         16.6069
420.96         16.5874
421.41        16.56505
421.85        16.53306
422.30        16.48572
422.74        16.42009
423.19        16.40843
423.64        16.42541
424.08        16.36659
424.53        16.24185
424.98        16.19591
425.42        16.24924
425.87        16.28968
426.31        16.29797
426.76        16.36213
427.21        16.42659
427.65        16.27172
428.10        15.99183
428.54        15.89902
428.99        16.02428
429.44        16.26831
429.88        16.51748
430.33        16.53233
430.77        16.34066
431.22        16.28192
431.66         16.3805
432.11        16.39366
432.56        16.33541
433.00        16.41467
433.45        16.53397
433.89        16.40433
434.34        16.13403
434.78        15.67378
435.23        15.94403
435.67        15.95826
436.12        15.94741
436.57        15.93631
437.01        15.93154
437.46        15.95202
437.90        15.98432
438.35        15.97954
438.79        15.93433
439.24        15.89894
439.68        15.87855
440.13        15.85586
440.57        15.83848
441.02        15.85783
441.46         15.9126
441.91        15.95095
442.35        15.95518
442.80        16.06028
443.24        16.19352
443.69        16.08863
444.13        15.80892
444.58         15.7068
445.02        15.80365
445.47        15.92125
445.91        16.00739
446.36        16.05902
446.80        16.05511
447.24        16.00241
447.69        15.92794
448.13        15.86638
448.58        15.83334
449.02        15.81533
449.47        15.80774
449.91        15.79531
450.36        15.77898
450.80        15.76473
451.25        15.75712
451.69        15.75096
452.13         15.7473
452.58        15.73984
453.02        15.73462
453.47        15.74537
453.91        15.77171
454.36        15.81233
454.80        15.83891
455.24        15.80571
455.69        15.71317
456.13        15.56752
456.58        15.43001
457.02        15.36664
457.46        15.39574
457.91        15.49401
458.35        15.59722
458.79        15.60687
459.24        15.51849
459.68        15.35854
460.13        15.20497
460.57        15.13273
461.01        15.17151
461.46        15.28073
461.90        15.42839
462.34         15.5484
462.79        15.60995
463.23        15.63462
463.68        15.62027
464.12        15.57492
464.56        15.50403
465.01        15.42479
465.45        15.32889
465.89        15.24837
466.34        15.18779
466.78        15.13965
467.22        15.11007
467.67        15.09306
468.11        15.09603
468.55        15.11506
468.99        15.14149
469.44        15.15869
469.88         15.1632
470.32         15.1557
470.77        15.14845
471.21        15.16571
471.65        15.20877
472.10        15.27033
472.54         15.3272
472.98        15.35014
473.42        15.33323
473.87        15.29181
474.31        15.23604
474.75        15.19635
475.20        15.18423
475.64         15.1857
476.08        15.19686
476.52        15.20236
476.97        15.19936
477.41        15.20313
477.85        15.21999
478.29        15.23651
478.74        15.26539
479.18        15.33968
479.62        15.44532
480.06        15.53583
480.50        15.60435
480.95        15.65323
481.39        15.66674
481.83        15.76844
482.27        15.73337
482.72        15.76976
483.16        15.81908
483.60        15.85918
484.04         15.8776
484.48        15.95715
484.93        16.18035
485.37        16.16073
485.81        16.40576
486.25        16.80649
486.69        16.98551
487.14        16.68297
487.58        17.06318
488.02        16.86318
488.46        16.61531
488.90        16.70655
489.34        16.72649
489.79        16.97142
490.23        17.18633
490.67        17.29527
491.11        17.28735
491.55        17.23789
491.99        17.19567
492.43        17.18851
492.88        17.24076
493.32        17.35225
493.76        17.50788
494.20        17.68214
494.64        17.86679
495.08        18.04623
495.52        18.19963
495.96        18.37921
496.41         18.5545
496.85         18.5236
497.29        18.34548
497.73        18.48267
498.17        18.67295
498.61        18.82444
499.05        18.84039
499.49         18.8975
499.93        18.95925
500.37        19.12604
500.82        19.34793
501.26        19.48986
501.70        19.53475
502.14         19.5624
502.58        19.60425
503.02        19.67252
503.46        19.77562
503.90        19.90816
504.34        20.03999
504.78        20.12064
505.22         20.1384
505.66        20.11077
506.10        20.06668
506.54        20.05135
506.98        20.07973
507.42        20.14104
507.86        20.22192
508.30        20.29996
508.74         20.3666
509.18        20.42663
509.62        20.48791
510.06        20.56294
510.50        20.65129
510.94        20.74417
511.38         20.8244
511.82        20.86649
512.26        20.86736
512.70        20.83942
513.14        20.80166
513.58        20.78461
514.02        20.79777
514.46        20.83055
514.90         20.8797
515.34        20.93861
515.78        21.00061
516.22        21.06796
516.66        21.12189
517.10        21.13242
517.54        21.09614
517.98        21.02101
518.42        20.93825
518.86        20.89933
519.30        20.91563
519.74        20.97252
520.18        21.03937
520.62        21.06628
521.06        21.04173
521.50        20.98244
521.93        20.91355
522.37        20.86903
522.81        20.86113
523.25        20.87294
523.69        20.88998
524.13        20.89164
524.57        20.86946
525.01        20.83071
525.45        20.77326
525.89        20.69296
526.32        20.59236
526.76        20.48101
527.20        20.37218
527.64        20.28862
528.08        20.23579
528.52        20.20706
528.96        20.19586
529.40        20.19022
529.83        20.18324
530.27        20.17795
530.71        20.16519
531.15        20.13315
531.59         20.0816
532.03        20.01332
532.46        19.93879
532.90        19.89015
533.34        19.86978
533.78        19.85784
534.22        19.84482
534.66        19.83949
535.09        19.82344
535.53        19.75732
535.97        19.65374
536.41        19.58351
536.85        19.55629
537.28        19.53644
537.72        19.53234
538.16         19.5717
538.60        19.65216
539.04         19.7629
539.47        19.87627
539.91        19.96238
540.35        20.01017
540.79        20.03114
541.22        20.04086
541.66        20.07269
542.10        20.13358
542.54        20.21377
542.97        20.30652
543.41         20.4097
543.85        20.51718
544.29        20.63387
544.72         20.7489
545.16        20.85869
545.60        20.96008
546.04        21.05807
546.47        21.16754
546.91         21.3093
547.35        21.48273
547.79        21.67766
548.22        21.87536
548.66        22.04342
549.10        22.20033
549.53        22.34513
549.97         22.4816
550.41        22.56482
550.84        22.62218
551.28        22.71643
551.72         22.8386
552.15        22.99272
552.59        23.20576
553.03         23.1354
553.46        23.46589
553.90        23.57376
554.34        23.65798
554.77        23.72262
555.21        23.79133
555.65        23.88185
556.08        23.98901
556.52        24.09556
556.96        24.17999
557.39        24.27557
557.83        24.36043
558.27        24.30404
558.70         24.1589
559.14        24.15292
559.57        24.28656
560.01         24.4231
560.45        24.52982
560.88        24.63406
561.32        24.73732
561.75        24.80576
562.19        24.85677
562.63        24.91415
563.06        24.97796
563.50        25.04169
563.93        25.08333
564.37        25.13486
564.80        25.20906
565.24         25.2447
565.68        25.19061
566.11        25.52677
566.55        25.34462
566.98        25.36447
567.42        25.37432
567.85        25.57912
568.29        25.95279
568.72        26.18587
569.16        26.27742
569.60         26.6873
570.03        26.84516
570.47        27.11708
570.90         27.3237
571.34        27.44117
571.77        27.56942
572.21        27.78489
572.64        27.83267
573.08        27.94438
573.51        28.10024
573.95         28.2121
574.38        28.26682
574.82        28.74974
