SpectraSmart Spectrum 2.9.0.0
--------- Device Information -----------
Spectrum Name :  反射率_0
Saving Time :  2024/04/27 00:23:33
Spectro-Module Model Name : SE2030-DUVN
Spectro-Module Serial Number : OS361AC55029948
Wavelength Start : 200
Wavelength End : 1025
Wavelength Unit : Wavelength(nm)
Spectrum Unit : Reflectance(%)
-----------Spectrum Setting ------------
Integration Time : 20ms
Average : 10
Boxcar : 0
Background removal :  enabled
linearity correction :  enabled
SC :  disabled
Intensity correction :  disabled
DWT denoise :  enabled
savitzky-golay :  disabled
FFT :  disabled
Running average :  disabled
Kalman :  disabled
High pass :  disabled
---------------BEGIN--------------------
Wavelength(nm)             Reflectance(%)
200.29               0
200.75        9.669058
201.21        8.187134
201.67        7.353155
202.13        7.669518
202.58        9.078661
203.04        12.22232
203.50        16.30511
203.96        18.22293
204.42        15.86345
204.88        8.805552
205.34       0.8217661
205.80      -0.7341515
206.26        4.982678
206.72        14.65183
207.18        22.35942
207.64        22.73553
208.10        15.19938
208.55      -0.7120126
209.01       -23.26019
209.47       -34.28235
209.93       -24.55173
210.39       -6.461965
210.85        8.466277
211.31        16.09002
211.77        18.12961
212.23        15.68192
212.69        5.160031
213.14       -10.01363
213.60       -5.561401
214.06        6.997118
214.52        14.43964
214.98        17.88986
215.44        19.41936
215.90        20.28591
216.36        20.36465
216.81        18.64962
217.27        15.12486
217.73         9.56374
218.19        1.658674
218.65       -4.596617
219.11       -5.157798
219.57       -2.210825
220.02        2.400059
220.48        8.804284
220.94         18.3041
221.40        33.35263
221.86        54.28428
222.32        69.22753
222.77        66.86074
223.23        54.66779
223.69        41.88282
224.15        34.19874
224.61        30.97963
225.06         29.6658
225.52        30.04144
225.98        32.05932
226.44        35.32257
226.90        39.92157
227.36        44.33437
227.81         45.6946
228.27         43.8026
228.73        39.81305
229.19        35.96841
229.65        34.86545
230.10        36.67471
230.56        40.51118
231.02        44.81299
231.48        47.03889
231.93         46.6183
232.39        44.76621
232.85        42.78939
233.31        42.41149
233.77        43.79771
234.22          46.249
234.68        48.83977
235.14         50.2741
235.60        50.12329
236.05         48.8167
236.51        46.63858
236.97        44.28706
237.43        42.26485
237.88         40.5486
238.34        39.28651
238.80         38.8123
239.26        39.21733
239.71        40.87634
240.17        43.63293
240.63        46.88999
241.08        50.09803
241.54        52.68554
242.00         54.7205
242.46        57.01337
242.91        60.41786
243.37        64.58778
243.83        69.19333
244.28        71.11653
244.74        66.64571
245.20        57.47583
245.66        48.46674
246.11        42.11377
246.57        38.40211
247.03        36.22085
247.48        34.99158
247.94        33.86046
248.40        32.96245
248.85        32.45113
249.31        32.26625
249.77         32.1263
250.22        31.81357
250.68        31.22307
251.14        30.79253
251.59        31.73447
252.05        34.55645
252.51        38.64831
252.96        41.61552
253.42        41.66006
253.88        39.46945
254.33        35.98861
254.79        34.05705
255.25        36.05287
255.70        41.60868
256.16        49.59669
256.62        56.78289
257.07         58.1657
257.53        54.84221
257.99        49.93917
258.44        45.92801
258.90        45.00668
259.35        46.27549
259.81        48.79604
260.27        51.30411
260.72        52.27681
261.18        51.80097
261.63        50.38854
262.09        48.98377
262.55        48.13514
263.00        47.77949
263.46        47.74324
263.91         47.5517
264.37        46.88652
264.83        45.73219
265.28        44.30089
265.74           43.02
266.19        42.12743
266.65        41.71057
267.11        41.55569
267.56        41.52187
268.02        41.39637
268.47         41.0938
268.93        40.70271
269.38        40.16324
269.84        39.43686
270.30        38.53236
270.75        37.45947
271.21        36.40689
271.66        35.61172
272.12        35.12405
272.57        34.86165
273.03        34.65414
273.48        34.21061
273.94         33.5157
274.39        32.64262
274.85        31.79932
275.31         31.1449
275.76        30.69229
276.22        30.40472
276.67        30.16509
277.13        29.89261
277.58        29.51779
278.04         29.0956
278.49        28.63016
278.95        28.22972
279.40        27.86751
279.86        27.57939
280.31        27.25544
280.77        26.83942
281.22        26.29964
281.68        25.71729
282.13        25.18649
282.59        24.90797
283.04        24.86919
283.50        25.02356
283.95        25.20043
284.41        25.14003
284.86        24.79251
285.32        24.27032
285.77        23.73873
286.22        23.48533
286.68        23.54774
287.13        23.78834
287.59        24.05886
288.04        24.09379
288.50        23.85886
288.95         23.4356
289.41        22.94603
289.86        22.50468
290.32        22.18872
290.77         21.9518
291.22        21.80949
291.68        21.77501
292.13        21.83349
292.59        21.99865
293.04        22.24259
293.50        22.53267
293.95        22.84024
294.40        23.16074
294.86        23.48774
295.31        23.81142
295.77        24.13817
296.22        24.46796
296.68        24.80295
297.13         25.1365
297.58        25.47787
298.04        25.82671
298.49        26.21547
298.95        26.70884
299.40        27.29426
299.85        27.93963
300.31        28.55612
300.76        29.00241
301.21        29.25444
301.67         29.3718
302.12        29.41627
302.58        29.53595
303.03        29.74758
303.48        30.02966
303.94        30.34948
304.39         30.6292
304.84        30.85647
305.30         31.0591
305.75        31.23662
306.20        31.43511
306.66        31.66342
307.11        31.88833
307.57        32.07626
308.02        32.13834
308.47        32.07863
308.93        31.93977
309.38        31.78221
309.83         31.7399
310.29        31.83656
310.74        32.02266
311.19        32.22354
311.65        32.31075
312.10        32.24422
312.55        32.06472
313.00        31.82793
313.46        31.61693
313.91        31.44345
314.36        31.28581
314.82        31.12131
315.27        30.92681
315.72        30.69647
316.18        30.46085
316.63        30.21997
317.08        29.98023
317.53        29.74658
317.99         29.5099
318.44        29.29511
318.89        29.13481
319.35        29.02886
319.80         28.9602
320.25        28.88697
320.70        28.74232
321.16        28.51066
321.61        28.22656
322.06        27.91339
322.51         27.6168
322.97        27.35129
323.42        27.09929
323.87        26.88788
324.32        26.76494
324.78        26.71819
325.23        26.75422
325.68        26.75624
326.13        26.53266
326.59        26.05395
327.04        25.39463
327.49        24.72457
327.94        24.31181
328.39        24.21261
328.85         24.3387
329.30        24.57035
329.75        24.63811
330.20        24.45373
330.66         24.0944
331.11        23.66022
331.56        23.29242
332.01        23.04134
332.46          22.853
332.92        22.70176
333.37        22.58953
333.82        22.49352
334.27        22.43603
334.72         22.3905
335.17        22.29967
335.63        22.15154
336.08        21.96572
336.53        21.78509
336.98        21.69691
337.43        21.71717
337.88        21.80964
338.34        21.92009
338.79        21.97899
339.24        21.94887
339.69        21.85457
340.14        21.69849
340.59        21.48797
341.05        21.24924
341.50        20.98578
341.95         20.7473
342.40        20.60783
342.85        20.58136
343.30        20.64729
343.75        20.75946
344.20        20.83933
344.66        20.86154
345.11        20.83853
345.56        20.78625
346.01         20.7345
346.46        20.69766
346.91        20.67096
347.36         20.6464
347.81        20.61586
348.26        20.57929
348.72        20.53958
349.17        20.51976
349.62        20.56491
350.07        20.67488
350.52        20.83246
350.97        20.96886
351.42        20.97545
351.87        20.83483
352.32        20.58586
352.77        20.31431
353.22        20.14654
353.67        20.11107
354.13         20.1736
354.58        20.26946
355.03        20.29504
355.48        20.21985
355.93        20.07662
356.38        19.91692
356.83        19.81553
357.28        19.78774
357.73        19.80583
358.18        19.82143
358.63         19.7615
359.08        19.61112
359.53        19.39809
359.98        19.17584
360.43        19.01972
360.88        18.94481
361.33        18.92836
361.78        18.92356
362.23        18.85606
362.68        18.71297
363.13        18.52449
363.58        18.33713
364.03        18.22114
364.48         18.1899
364.93        18.21177
365.38        18.25446
365.83        18.26835
366.28        18.23274
366.73        18.16218
367.18         18.0534
367.63        17.90078
368.08        17.71287
368.53        17.49661
368.98        17.28119
369.43        17.11326
369.88        17.00598
370.33        16.95068
370.78        16.93107
371.23        16.91552
371.68         16.8905
372.13        16.86099
372.58        16.82606
373.03        16.78594
373.48        16.73919
373.93        16.67962
374.38         16.6064
374.83        16.52288
375.28        16.43138
375.72        16.33033
376.17        16.23273
376.62        16.13488
377.07        16.03951
377.52        15.95051
377.97        15.87237
378.42        15.81301
378.87        15.77241
379.32        15.74274
379.77        15.72151
380.22        15.70502
380.67        15.68758
381.11        15.67298
381.56        15.63454
382.01        15.54698
382.46        15.41357
382.91        15.25162
383.36        15.09736
383.81         14.9981
384.26        14.96049
384.71        14.97048
385.15        15.00261
385.60        15.01696
386.05        14.99887
386.50        14.95966
386.95        14.91007
387.40        14.86892
387.85        14.83944
388.29        14.80079
388.74        14.76695
389.19        14.72477
389.64        14.67175
390.09        14.61352
390.54        14.54281
390.98         14.4444
391.43        14.33214
391.88        14.21196
392.33        14.10898
392.78        14.05826
393.23        14.05936
393.67        14.08836
394.12        14.12995
394.57        14.13262
395.02        14.08548
395.47        14.00067
395.91        13.89559
396.36        13.79378
396.81        13.71668
397.26        13.65777
397.71        13.61773
398.15        13.60521
398.60        13.63116
399.05        13.63456
399.50        13.61337
399.95        13.66398
400.39        13.73876
400.84        13.59945
401.29        13.29391
401.74        13.11395
402.18        13.09156
402.63        13.07422
403.08         13.0539
403.53        13.07484
403.97        13.12645
404.42        13.19621
404.87        13.25298
405.32        13.24428
405.76        13.15991
406.21        13.02229
406.66        12.87219
407.11        12.77702
407.55        12.75655
408.00        12.78616
408.45        12.83743
408.90        12.85127
409.34        12.80955
409.79        12.73601
410.24        12.65337
410.68        12.58746
411.13        12.54912
411.58          12.525
412.03        12.50896
412.47        12.49526
412.92        12.47669
413.37        12.46136
413.81        12.44499
414.26        12.42988
414.71        12.41189
415.15        12.39142
415.60        12.36931
416.05         12.3583
416.49         12.3621
416.94        12.37686
417.39        12.39121
417.83        12.38658
418.28        12.35776
418.73        12.30669
419.17        12.25257
419.62        12.22693
420.07        12.23509
420.51        12.26459
420.96        12.28821
421.41        12.26118
421.85        12.17462
422.30        12.04539
422.74        11.90264
423.19        11.84329
423.64         11.8567
424.08        11.85076
424.53        11.81314
424.98        11.81713
425.42        11.86501
425.87        11.88616
426.31        11.86442
426.76        11.86079
427.21        11.83905
427.65        11.64283
428.10        11.36677
428.54        11.27461
428.99        11.39251
429.44        11.63361
429.88        11.88843
430.33        11.94097
430.77        11.80004
431.22        11.72525
431.66        11.74424
432.11        11.69635
432.56        11.60241
433.00         11.6078
433.45        11.65406
433.89        11.55747
434.34        11.39717
434.78         11.1251
435.23        11.38204
435.67        11.44876
436.12        11.48109
436.57        11.50189
437.01         11.5036
437.46        11.48099
437.90        11.42826
438.35        11.32174
438.79        11.19444
439.24        11.13208
439.68        11.14771
440.13         11.2134
440.57        11.30765
441.02        11.40336
441.46           11.48
441.91        11.51139
442.35        11.49442
442.80        11.53945
443.24        11.59964
443.69        11.48095
444.13         11.2331
444.58        11.11649
445.02         11.1495
445.47        11.20822
445.91         11.2581
446.36        11.29679
446.80        11.30785
447.24        11.29438
447.69        11.26917
448.13        11.24684
448.58        11.23452
449.02        11.22252
449.47        11.21045
449.91        11.19378
450.36        11.17536
450.80        11.16021
451.25        11.14739
451.69        11.12781
452.13          11.102
452.58         11.0674
453.02        11.04014
453.47        11.04793
453.91        11.09282
454.36        11.16832
454.80        11.23421
455.24        11.22538
455.69        11.13624
456.13        10.98121
456.58        10.82825
457.02        10.76056
457.46        10.79807
457.91        10.91116
458.35        11.03296
458.79        11.05828
459.24        10.97739
459.68        10.82275
460.13         10.6678
460.57         10.5897
461.01        10.61594
461.46        10.70823
461.90        10.83734
462.34        10.94404
462.79        11.00228
463.23        11.03399
463.68        11.03594
464.12        11.01079
464.56        10.96255
465.01        10.90116
465.45        10.83125
465.89          10.792
466.34        10.78765
466.78         10.8094
467.22        10.84193
467.67        10.84571
468.11        10.81802
468.55        10.76636
468.99        10.71355
469.44        10.69448
469.88        10.71745
470.32        10.77006
470.77        10.83344
471.21        10.87992
471.65         10.8999
472.10        10.90514
472.54        10.90194
472.98        10.90537
473.42        10.92018
473.87        10.94284
474.31        10.96739
474.75        10.99698
475.20        11.03282
475.64        11.07084
476.08        11.10791
476.52        11.13179
476.97        11.14188
477.41        11.14807
477.85        11.16154
478.29        11.18428
478.74        11.22793
479.18        11.31457
479.62        11.42575
480.06        11.51371
480.50        11.57101
480.95        11.60268
481.39         11.6055
481.83        11.68804
482.27        11.68389
482.72        11.73345
483.16        11.79064
483.60        11.84003
484.04        11.86599
484.48        11.95091
484.93        12.15092
485.37        12.12983
485.81        12.20442
486.25        12.58631
486.69        12.28478
487.14        12.11212
487.58        13.00328
488.02        12.80222
488.46        12.55812
488.90        12.68112
489.34        12.67804
489.79         12.8539
490.23        12.91079
490.67        13.08037
491.11        13.28765
491.55        13.29612
491.99        13.16637
492.43        13.18052
492.88        13.36366
493.32        13.55773
493.76        13.71654
494.20        13.84635
494.64         13.9394
495.08        13.96888
495.52        13.97124
495.96        14.09785
496.41        14.33168
496.85        14.43552
497.29        14.41591
497.73        14.62554
498.17        14.84448
498.61        14.99024
499.05        14.99251
499.49        15.02024
499.93          15.055
500.37         15.1649
500.82        15.33079
501.26          15.481
501.70        15.60412
502.14        15.75384
502.58        15.91728
503.02        16.03995
503.46         16.1148
503.90        16.15731
504.34         16.1786
504.78        16.19836
505.22        16.22597
505.66        16.25723
506.10        16.29509
506.54        16.34429
506.98        16.40435
507.42        16.47464
507.86        16.54966
508.30        16.61813
508.74         16.6762
509.18        16.72626
509.62        16.76721
510.06        16.79959
510.50        16.82479
510.94        16.84124
511.38        16.85922
511.82        16.89445
512.26        16.95052
512.70        17.02728
513.14        17.10625
513.58        17.15646
514.02        17.17237
514.46        17.16047
514.90        17.15142
515.34        17.19543
515.78        17.29915
516.22        17.44328
516.66        17.58276
517.10         17.6467
517.54        17.61911
517.98        17.52322
518.42        17.40055
518.86        17.31744
519.30          17.294
519.74        17.31256
520.18        17.34842
520.62        17.36164
521.06        17.34179
521.50        17.30374
521.93        17.26575
522.37        17.24928
522.81        17.26081
523.25        17.28535
523.69        17.30778
524.13        17.30771
524.57        17.27844
525.01        17.22743
525.45        17.15739
525.89        17.07281
526.32        16.97821
526.76        16.87908
527.20        16.78578
527.64        16.71554
528.08        16.67118
528.52        16.64799
528.96        16.63575
529.40        16.61676
529.83        16.58539
530.27        16.54757
530.71        16.50423
531.15        16.45935
531.59        16.41618
532.03        16.37228
532.46        16.33114
532.90        16.31092
533.34        16.30955
533.78        16.31238
534.22        16.30946
534.66        16.30469
535.09        16.28384
535.53        16.21627
535.97        16.11687
536.41        16.05172
536.85        16.03012
537.28        16.01887
537.72        16.02484
538.16        16.06961
538.60        16.14991
539.04        16.25945
539.47        16.36576
539.91        16.42922
540.35        16.44051
540.79        16.41319
541.22        16.38265
541.66        16.41244
542.10        16.51351
542.54        16.66604
542.97         16.8338
543.41        16.96632
543.85         17.0488
544.29        17.10147
544.72        17.14406
545.16        17.21851
545.60        17.33251
546.04        17.47448
546.47        17.63713
546.91        17.80559
547.35        17.96934
547.79        18.13183
548.22        18.28608
548.66        18.41743
549.10        18.54646
549.53        18.66711
549.97        18.78553
550.41        18.86943
550.84        18.94178
551.28        19.05562
551.72        19.19441
552.15        19.34649
552.59        19.53095
553.03        19.46195
553.46        19.72823
553.90        19.82567
554.34        19.92601
554.77        20.02905
555.21        20.13606
555.65        20.23199
556.08        20.30735
556.52        20.35589
556.96        20.38881
557.39        20.47895
557.83        20.61449
558.27        20.66964
558.70        20.64869
559.14        20.68425
559.57         20.7651
560.01        20.79597
560.45        20.79029
560.88        20.83285
561.32        20.93936
561.75        21.06277
562.19        21.18814
562.63        21.28817
563.06        21.35229
563.50         21.3933
563.93        21.41339
564.37        21.47102
564.80        21.58116
565.24        21.67389
565.68        21.69285
566.11         22.0237
566.55        21.87227
566.98        21.90628
567.42        21.94029
567.85        22.02738
568.29        22.18158
568.72        22.39546
569.16        22.65865
569.60        22.85012
570.03         23.0487
570.47        23.20614
570.90        23.33467
571.34        23.47297
571.77        23.60572
572.21        23.71859
572.64        23.80982
573.08        24.00622
573.51        24.14849
573.95        24.33768
574.38        24.55145
574.82        24.52389
