SpectraSmart Spectrum 2.9.0.0
--------- Device Information -----------
Spectrum Name :  反射率_0
Saving Time :  2024/04/27 00:28:49
Spectro-Module Model Name : SE2030-DUVN
Spectro-Module Serial Number : OS361AC55029948
Wavelength Start : 200
Wavelength End : 1025
Wavelength Unit : Wavelength(nm)
Spectrum Unit : Reflectance(%)
-----------Spectrum Setting ------------
Integration Time : 20ms
Average : 10
Boxcar : 0
Background removal :  enabled
linearity correction :  enabled
SC :  disabled
Intensity correction :  disabled
DWT denoise :  enabled
savitzky-golay :  disabled
FFT :  disabled
Running average :  disabled
Kalman :  disabled
High pass :  disabled
---------------BEGIN--------------------
Wavelength(nm)             Reflectance(%)
200.29               0
200.75        47.87053
201.21        47.61775
201.67        48.44937
202.13        50.38736
202.58        53.48864
203.04        58.70231
203.50        65.78849
203.96        72.01959
204.42        75.19432
204.88        74.92361
205.34         72.8324
205.80        73.29851
206.26        76.83891
206.72        80.73676
207.18         83.7831
207.64        85.25979
208.10        85.34016
208.55        85.80951
209.01        84.16804
209.47        76.57719
209.93        66.42017
210.39        58.18254
210.85        55.04557
211.31        58.87577
211.77         71.5269
212.23        102.2902
212.69        180.3137
213.14        310.3528
213.60        304.5823
214.06          212.39
214.52        149.4641
214.98        120.0786
215.44        106.1603
215.90        96.78367
216.36        91.78849
216.81         93.2131
217.27        102.2377
217.73        123.2647
218.19        153.8831
218.65        168.3561
219.11         155.713
219.57        131.8783
220.02        114.9421
220.48        115.0072
220.94        130.7344
221.40        163.1975
221.86        211.1161
222.32        242.4866
222.77        229.8538
223.23        195.1091
223.69        161.3065
224.15        141.0932
224.61        132.3348
225.06        128.7012
225.52        128.8819
225.98        131.2353
226.44        135.0493
226.90        140.8514
227.36        147.3134
227.81        151.4995
228.27        152.8998
228.73        151.9381
229.19        150.5219
229.65        151.1918
230.10        154.0363
230.56        158.3501
231.02        162.2798
231.48        162.9872
231.93        160.1123
232.39          155.71
232.85        151.4226
233.31        149.4275
233.77        149.9569
234.22        152.0536
234.68        155.0995
235.14        158.2233
235.60        160.9513
236.05        163.7665
236.51        165.5905
236.97        164.8179
237.43        161.0208
237.88        154.6016
238.34        147.2203
238.80        142.1487
239.26        140.4571
239.71        142.6866
240.17         147.407
240.63        151.4036
241.08        152.7884
241.54        150.9801
242.00        148.9348
242.46        152.6721
242.91         166.786
243.37        193.3005
243.83        232.6976
244.28        265.9682
244.74        264.4369
245.20        228.4312
245.66        184.6334
246.11        156.1086
246.57        143.2767
247.03        139.3845
247.48        137.4175
247.94        128.1524
248.40        114.1312
248.85         101.431
249.31        93.14571
249.77        89.76514
250.22        90.24214
250.68        93.26874
251.14        98.91609
251.59        105.7053
252.05        111.3209
252.51        116.1536
252.96        117.4973
253.42        114.1668
253.88        107.6317
254.33        99.06921
254.79        93.81011
255.25         96.1335
255.70        105.2238
256.16        119.1996
256.62        132.0282
257.07        134.3987
257.53        128.4071
257.99        119.5904
258.44        112.4863
258.90        111.3463
259.35        114.3416
259.81        119.8139
260.27        125.1458
260.72        127.1565
261.18        126.1886
261.63        123.2435
262.09        120.4645
262.55        119.0707
263.00        118.8707
263.46        119.5278
263.91        119.8709
264.37        119.1876
264.83        117.3566
265.28        114.8211
265.74         112.556
266.19        111.1025
266.65        110.6865
267.11        110.8357
267.56        111.1687
268.02        111.1503
268.47        110.5691
268.93        109.6839
269.38        108.4873
269.84        107.0967
270.30        105.5635
270.75        103.8312
271.21        102.1851
271.66         100.938
272.12        100.1412
272.57        99.62102
273.03        99.09687
273.48        98.04068
273.94         96.4704
274.39        94.52736
274.85        92.55642
275.31        90.72523
275.76        89.06702
276.22        87.61869
276.67        86.34939
277.13        85.48837
277.58        84.87019
278.04          84.465
278.49        83.94617
278.95        83.08542
279.40        81.73875
279.86         80.1945
280.31        78.44504
280.77        76.75322
281.22        75.11243
281.68        73.62005
282.13        72.32552
282.59        71.52867
283.04        71.11838
283.50        71.04156
283.95        70.98527
284.41        70.52148
284.86          69.543
285.32        68.26104
285.77        66.86674
286.22        65.76657
286.68        65.03986
287.13         64.4945
287.59        64.04174
288.04        63.44801
288.50        62.71383
288.95        61.87085
289.41        61.01401
289.86        60.12492
290.32        59.29166
290.77        58.46452
291.22        57.70753
291.68        57.08949
292.13        56.58932
292.59        56.21467
293.04        55.92984
293.50        55.71932
293.95        55.55207
294.40        55.43694
294.86        55.35532
295.31        55.25872
295.77        55.15516
296.22        55.03679
296.68        54.95142
297.13        54.93916
297.58        55.02195
298.04         55.1921
298.49         55.4057
298.95        55.62442
299.40        55.81738
299.85        55.99242
300.31        56.18308
300.76        56.41146
301.21        56.68211
301.67         56.9928
302.12        57.25054
302.58        57.41167
303.03         57.4271
303.48        57.34715
303.94        57.25663
304.39        57.21767
304.84        57.26537
305.30        57.38407
305.75        57.48379
306.20        57.50654
306.66        57.45665
307.11        57.34467
307.57        57.22289
308.02        57.08712
308.47        56.96655
308.93        56.85868
309.38        56.77247
309.83         56.7983
310.29        56.93415
310.74        57.14026
311.19         57.3068
311.65        57.24822
312.10         56.9248
312.55         56.4002
313.00        55.82215
313.46        55.41076
313.91         55.1983
314.36        55.13647
314.82        55.11454
315.27        54.96763
315.72        54.64917
316.18        54.23422
316.63        53.79854
317.08        53.47836
317.53        53.30416
317.99         53.2187
318.44        53.16674
318.89        53.04808
319.35         52.8317
319.80        52.54939
320.25         52.2373
320.70        51.95313
321.16        51.71022
321.61        51.50395
322.06        51.30294
322.51        51.06527
322.97        50.77478
323.42        50.45254
323.87        50.14165
324.32        49.91672
324.78        49.77418
325.23        49.72507
325.68        49.66701
326.13        49.44559
326.59        49.03407
327.04        48.49677
327.49         47.9673
327.94        47.66397
328.39        47.62753
328.85        47.77178
329.30        48.00114
329.75        48.04021
330.20        47.81202
330.66        47.39259
331.11        46.92601
331.56        46.60654
332.01        46.49427
332.46        46.51414
332.92        46.58622
333.37        46.65076
333.82        46.64156
334.27        46.59787
334.72        46.50277
335.17        46.31918
335.63        46.05191
336.08        45.73781
336.53        45.44534
336.98        45.31068
337.43        45.36574
337.88        45.56525
338.34        45.84244
338.79        46.12408
339.24        46.34208
339.69        46.51145
340.14        46.58574
340.59        46.50114
341.05        46.27353
341.50        45.92028
341.95        45.54764
342.40        45.32133
342.85        45.28248
343.30          45.391
343.75        45.57284
344.20        45.69809
344.66         45.7293
345.11        45.70302
345.56        45.65009
346.01        45.62069
346.46        45.63556
346.91        45.67604
347.36        45.73232
347.81        45.79903
348.26        45.86699
348.72        45.93097
349.17        45.99269
349.62        46.07159
350.07        46.16278
350.52        46.26308
350.97        46.30636
351.42        46.19205
351.87        45.91438
352.32        45.51239
352.77        45.11161
353.22         44.8914
353.67        44.88518
354.13         45.0474
354.58        45.24948
355.03        45.26888
355.48        45.05156
355.93        44.66211
356.38        44.25237
356.83        44.05095
357.28        44.09594
357.73        44.30394
358.18        44.51209
358.63        44.46187
359.08        44.09489
359.53        43.50511
359.98        42.84717
360.43        42.34468
360.88        42.05153
361.33        41.89919
361.78        41.78944
362.23        41.56879
362.68        41.20296
363.13        40.75514
363.58        40.30296
364.03        39.95576
364.48        39.73866
364.93        39.60707
365.38        39.50918
365.83        39.36927
366.28        39.16263
366.73        38.91314
367.18        38.64563
367.63        38.39581
368.08        38.17462
368.53        37.97053
368.98        37.76847
369.43        37.54585
369.88        37.30009
370.33        37.04334
370.78        36.79803
371.23         36.6013
371.68        36.45953
372.13        36.35297
372.58        36.25933
373.03        36.14347
373.48        35.98882
373.93         35.8029
374.38        35.57613
374.83        35.29733
375.28        34.97544
375.72        34.61371
376.17        34.26982
376.62        33.98615
377.07        33.77748
377.52         33.6396
377.97        33.54749
378.42        33.46027
378.87        33.36304
379.32        33.25352
379.77        33.16002
380.22        33.12605
380.67        33.14833
381.11        33.21732
381.56          33.237
382.01        33.08887
382.46        32.76476
382.91        32.32733
383.36        31.89472
383.81        31.62437
384.26        31.54092
384.71        31.59241
385.15         31.7039
385.60        31.74705
386.05        31.67888
386.50        31.53551
386.95        31.34709
387.40        31.16233
387.85        31.00143
388.29        30.83056
388.74        30.68318
389.19        30.53211
389.64          30.373
390.09        30.21037
390.54        30.05727
390.98        29.92638
391.43        29.83855
391.88        29.78355
392.33        29.73869
392.78        29.67085
393.23        29.57528
393.67         29.4492
394.12        29.34364
394.57        29.27644
395.02         29.2498
395.47        29.24296
395.91        29.24344
396.36        29.21692
396.81        29.16956
397.26        29.11761
397.71        29.05208
398.15        28.97689
398.60          28.931
399.05        28.79493
399.50         28.6267
399.95        28.72174
400.39        28.99286
400.84         28.9115
401.29        28.50797
401.74        28.28497
402.18        28.27573
402.63        28.18038
403.08        28.02068
403.53        27.95582
403.97        27.98874
404.42        28.08053
404.87        28.16658
405.32        28.14006
405.76        27.98008
406.21        27.73716
406.66        27.49391
407.11          27.382
407.55        27.43752
408.00        27.60695
408.45        27.81956
408.90        27.93282
409.34         27.8987
409.79        27.76744
410.24        27.59778
410.68        27.46531
411.13        27.39902
411.58        27.37059
412.03        27.35846
412.47        27.33324
412.92        27.27819
413.37         27.2201
413.81        27.16883
414.26        27.15896
414.71        27.18599
415.15        27.24558
415.60        27.31233
416.05        27.37326
416.49          27.419
416.94        27.44295
417.39        27.44787
417.83        27.43643
418.28        27.40967
418.73        27.36595
419.17        27.30546
419.62        27.23021
420.07        27.14782
420.51        27.05933
420.96        26.98389
421.41        26.94155
421.85        26.92466
422.30        26.91328
422.74        26.88695
423.19         26.9362
423.64        27.01402
424.08        26.95762
424.53        26.78116
424.98        26.71759
425.42        26.80155
425.87        26.84397
426.31        26.83695
426.76        26.96368
427.21        27.13838
427.65        26.98551
428.10        26.61255
428.54        26.46776
428.99        26.58857
429.44         26.8294
429.88        27.06034
430.33        26.97448
430.77        26.64635
431.22        26.61831
431.66        26.86993
432.11        26.94795
432.56        26.85969
433.00        26.85484
433.45        26.88019
433.89        26.92866
434.34        27.02397
434.78        26.51719
435.23         26.6063
435.67        26.56933
436.12        26.69314
436.57        26.66607
437.01        26.49534
437.46        26.39946
437.90        26.37735
438.35        26.29457
438.79        26.17044
439.24        26.12257
439.68        26.15754
440.13         26.2491
440.57        26.35117
441.02        26.40985
441.46        26.40619
441.91        26.29261
442.35        26.12491
442.80        26.23958
443.24        26.53586
443.69        26.54363
444.13        26.28853
444.58        26.22803
445.02          26.371
445.47        26.45758
445.91        26.47503
446.36        26.53363
446.80        26.62218
447.24        26.70976
447.69        26.77217
448.13         26.7625
448.58        26.68285
449.02         26.5505
449.47        26.41075
449.91        26.31803
450.36        26.29692
450.80        26.32635
451.25        26.39077
451.69        26.44448
452.13        26.47787
452.58        26.49783
453.02        26.51003
453.47        26.52795
453.91        26.55267
454.36        26.57912
454.80        26.58859
455.24        26.55404
455.69        26.48198
456.13        26.36938
456.58        26.26787
457.02        26.21272
457.46        26.22207
457.91        26.28093
458.35        26.33872
458.79        26.32446
459.24        26.24649
459.68        26.11709
460.13        26.00342
460.57        25.94349
461.01        25.96838
461.46        26.03895
461.90        26.15371
462.34        26.29188
462.79        26.42716
463.23        26.56836
463.68        26.66146
464.12        26.63563
464.56        26.48271
465.01        26.26782
465.45        26.02378
465.89        25.86437
466.34        25.80884
466.78        25.82223
467.22        25.89064
467.67        25.96238
468.11        26.03079
468.55        26.09673
468.99        26.15367
469.44         26.1872
469.88        26.19777
470.32        26.18246
470.77        26.15291
471.21        26.13683
471.65           26.14
472.10        26.16029
472.54        26.18814
472.98        26.21547
473.42          26.238
473.87        26.26574
474.31        26.28249
474.75        26.28772
475.20        26.28766
475.64        26.27312
476.08        26.25755
476.52        26.24811
476.97        26.24791
477.41        26.26931
477.85        26.31333
478.29        26.34224
478.74        26.37315
479.18        26.47286
479.62        26.61651
480.06        26.71843
480.50        26.77426
480.95        26.79593
481.39        26.76582
481.83        26.91431
482.27        26.84735
482.72        26.88625
483.16        26.93764
483.60        26.97499
484.04         26.9927
484.48        27.13368
484.93        27.40241
485.37         27.1633
485.81        27.29877
486.25        27.19114
486.69        27.61211
487.14        27.55791
487.58        27.58165
488.02        28.15586
488.46         27.4113
488.90        27.92679
489.34        27.86578
489.79        28.31598
490.23        28.71609
490.67        28.81338
491.11        28.65628
491.55        28.54453
491.99        28.55176
492.43        28.54181
492.88        28.54411
493.32        28.65745
493.76        28.85939
494.20         29.0774
494.64        29.30114
495.08        29.49141
495.52        29.62783
495.96        29.87024
496.41        30.14941
496.85        30.01472
497.29        29.58167
497.73        29.72027
498.17        30.01148
498.61        30.24208
499.05        30.23869
499.49        30.28679
499.93        30.32442
500.37        30.51203
500.82        30.79264
501.26        30.99005
501.70        31.08232
502.14        31.18152
502.58        31.30847
503.02        31.43555
503.46        31.56404
503.90         31.7007
504.34         31.8165
504.78        31.86324
505.22        31.83556
505.66        31.75319
506.10        31.65915
506.54        31.62061
506.98        31.65625
507.42        31.74859
507.86        31.87205
508.30        31.98275
508.74        32.06395
509.18        32.12554
509.62        32.17573
510.06        32.22834
510.50        32.28711
510.94        32.34513
511.38        32.39512
511.82        32.42752
512.26        32.44382
512.70        32.45328
513.14        32.46906
513.58        32.51059
514.02        32.58099
514.46        32.66829
514.90        32.76514
515.34        32.86092
515.78        32.94516
516.22        33.01613
516.66        33.05515
517.10        33.03373
517.54        32.95241
517.98        32.82689
518.42        32.68755
518.86        32.58292
519.30        32.52925
519.74        32.51495
520.18        32.53308
520.62        32.56923
521.06        32.61373
521.50        32.66981
521.93        32.72258
522.37         32.7358
522.81        32.70831
523.25        32.64706
523.69        32.57468
524.13        32.53021
524.57         32.5207
525.01        32.52977
525.45        32.54372
525.89        32.53967
526.32        32.50524
526.76         32.4584
527.20        32.38915
527.64        32.28428
528.08        32.14939
528.52        31.99199
528.96        31.84648
529.40        31.76617
529.83        31.75916
530.27        31.81166
530.71        31.88339
531.15        31.91172
531.59        31.87921
532.03        31.80098
532.46        31.69841
532.90        31.62911
533.34        31.60056
533.78         31.5781
534.22         31.5447
534.66        31.51428
535.09        31.46025
535.53        31.32335
535.97        31.13661
536.41        31.03025
536.85        31.02109
537.28         31.0461
537.72         31.0984
538.16        31.18943
538.60        31.30737
539.04        31.44391
539.47        31.57163
539.91         31.6703
540.35        31.72794
540.79        31.75172
541.22        31.75706
541.66        31.78163
542.10        31.83302
542.54        31.90498
542.97        31.98632
543.41        32.07227
543.85        32.15657
544.29        32.24742
544.72        32.34406
545.16        32.46461
545.60        32.60592
546.04        32.76729
546.47        32.94691
546.91        33.13671
547.35        33.32767
547.79        33.51817
548.22        33.70284
548.66        33.86759
549.10        34.04916
549.53        34.23425
549.97        34.41596
550.41        34.50634
550.84        34.54194
551.28        34.62671
551.72        34.75027
552.15        34.92323
552.59         35.1892
553.03        35.02702
553.46        35.47821
553.90        35.60659
554.34        35.71492
554.77        35.81072
555.21        35.91837
555.65        36.04688
556.08        36.18445
556.52        36.30507
556.96        36.39735
557.39        36.54408
557.83        36.71477
558.27        36.70197
558.70        36.54387
559.14        36.52277
559.57        36.63047
560.01        36.68293
560.45         36.6851
560.88        36.75793
561.32         36.9197
561.75        37.09719
562.19        37.26969
562.63        37.39706
563.06        37.46369
563.50        37.48757
563.93        37.47318
564.37        37.52618
564.80        37.67262
565.24         37.7915
565.68        37.78121
566.11        38.30617
566.55        37.98353
566.98        37.97803
567.42        37.97189
567.85        38.06212
568.29        38.27502
568.72        38.60257
569.16        39.03111
569.60        39.30349
570.03        39.53323
570.47        39.73277
570.90        39.96391
571.34        39.82458
571.77        40.10705
572.21        40.22423
572.64        40.33152
573.08        40.39458
573.51        40.15989
573.95        40.28392
574.38        40.70036
574.82         41.0189
