SpectraSmart Spectrum 2.9.0.0
--------- Device Information -----------
Spectrum Name :  反射率_0
Saving Time :  2024/04/27 00:28:32
Spectro-Module Model Name : SE2030-DUVN
Spectro-Module Serial Number : OS361AC55029948
Wavelength Start : 200
Wavelength End : 1025
Wavelength Unit : Wavelength(nm)
Spectrum Unit : Reflectance(%)
-----------Spectrum Setting ------------
Integration Time : 20ms
Average : 10
Boxcar : 0
Background removal :  enabled
linearity correction :  enabled
SC :  disabled
Intensity correction :  disabled
DWT denoise :  enabled
savitzky-golay :  disabled
FFT :  disabled
Running average :  disabled
Kalman :  disabled
High pass :  disabled
---------------BEGIN--------------------
Wavelength(nm)             Reflectance(%)
200.29               0
200.75        22.14352
201.21        25.42637
201.67        28.53413
202.13        29.62496
202.58        28.49759
203.04        25.98638
203.50        22.91182
203.96        21.76866
204.42        24.28573
204.88        29.78953
205.34        36.57964
205.80        41.41326
206.26         42.8981
206.72         41.8574
207.18        39.57089
207.64        36.98577
208.10        34.15995
208.55        30.74991
209.01        26.17558
209.47        22.61562
209.93        22.24598
210.39        23.92977
210.85        26.53178
211.31        30.16372
211.77        36.14322
212.23        48.61931
212.69        77.82865
213.14        121.7584
213.60        110.5297
214.06        72.54881
214.52        49.71666
214.98        41.23589
215.44        39.54568
215.90        40.33518
216.36         42.9598
216.81        46.88827
217.27        52.34447
217.73         61.9682
218.19        73.28439
218.65        73.10237
219.11        60.13132
219.57        44.54931
220.02        35.74326
220.48         38.3414
220.94         52.1153
221.40        79.28133
221.86        120.7779
222.32        154.0706
222.77        154.7728
223.23        135.2804
223.69        112.2709
224.15        96.39278
224.61        87.41209
225.06        81.41692
225.52        78.07794
225.98        76.83427
226.44        77.18703
226.90        79.27259
227.36        82.34116
227.81        84.72634
228.27        86.00351
228.73        86.22954
229.19        86.10984
229.65         86.6776
230.10         87.9474
230.56          89.617
231.02        90.81843
231.48         90.2814
231.93        87.97393
232.39        85.05729
232.85        82.39485
233.31        81.14513
233.77        81.38245
234.22        82.54522
234.68        84.34753
235.14        86.46997
235.60        88.65953
236.05        91.19299
236.51        93.07323
236.97         92.5134
237.43        89.04771
237.88           83.12
238.34        76.60394
238.80        72.93898
239.26        73.29469
239.71        77.99979
240.17        85.73325
240.63         92.1964
241.08        94.45012
241.54        92.01218
242.00        87.42104
242.46        86.50745
242.91         92.8584
243.37        106.7804
243.83        128.0097
244.28        144.1447
244.74        138.6338
245.20        114.6686
245.66        87.24088
246.11        67.17638
246.57        54.71288
247.03        46.09118
247.48        41.09476
247.94        40.39382
248.40        42.79784
248.85        46.59355
249.31        50.17515
249.77        52.29787
250.22        53.06354
250.68        52.69006
251.14        51.66655
251.59        51.64611
252.05        53.60394
252.51        57.00256
252.96         59.6293
253.42        59.92484
253.88        58.39653
254.33        55.78952
254.79         54.8807
255.25        57.87321
255.70        64.35937
256.16        73.30841
256.62        81.22395
257.07        82.67716
257.53        79.01543
257.99        73.59619
258.44        69.09396
258.90        68.06673
259.35        69.41948
259.81        72.20887
260.27        74.98903
260.72        76.03667
261.18        75.51463
261.63        73.90359
262.09        72.36221
262.55        71.47635
263.00        71.15886
263.46        71.30743
263.91        71.27167
264.37        70.66798
264.83        69.45419
265.28        67.84916
265.74        66.51952
266.19        65.89838
266.65        66.10062
267.11        66.79388
267.56        67.55596
268.02        67.73563
268.47        67.15347
268.93        66.07392
269.38        64.72398
269.84        63.53569
270.30        62.62182
270.75        61.83631
271.21        61.18953
271.66        60.62001
272.12        60.09536
272.57        59.60362
273.03        59.06596
273.48        58.30696
273.94        57.37637
274.39        56.29345
274.85        55.22333
275.31        54.20681
275.76        53.24913
276.22        52.40014
276.67        51.65159
277.13        51.14257
277.58        50.77913
278.04        50.53378
278.49        50.21947
278.95        49.72732
279.40        48.96351
279.86        48.09425
280.31        47.08332
280.77         46.0432
281.22        44.97285
281.68        43.95692
282.13        43.06168
282.59        42.51119
283.04        42.25153
283.50        42.23156
283.95        42.26067
284.41        42.06583
284.86         41.5755
285.32        40.92117
285.77        40.19648
286.22        39.61964
286.68        39.23673
287.13        38.93079
287.59        38.68439
288.04        38.41252
288.50        38.11889
288.95        37.79962
289.41        37.45527
289.86        36.98815
290.32        36.44552
290.77        35.83666
291.22        35.26632
291.68        34.87249
292.13        34.66708
292.59        34.62774
293.04        34.69289
293.50        34.79029
293.95        34.87891
294.40         34.9824
294.86        35.10895
295.31        35.25844
295.77        35.44326
296.22        35.64632
296.68        35.87412
297.13        36.12207
297.58        36.39619
298.04        36.69548
298.49         37.0243
298.95        37.40917
299.40        37.83402
299.85        38.28606
300.31        38.72305
300.76        39.06656
301.21        39.30696
301.67        39.48146
302.12        39.61016
302.58        39.79139
303.03        40.01754
303.48        40.28577
303.94        40.57491
304.39         40.8121
304.84        40.99387
305.30        41.14177
305.75        41.25796
306.20        41.40738
306.66        41.60408
307.11        41.80873
307.57        41.97555
308.02        41.97943
308.47        41.82581
308.93        41.57303
309.38        41.30566
309.83        41.20477
310.29        41.30366
310.74        41.53765
311.19        41.80536
311.65        41.93387
312.10        41.86825
312.55        41.66008
313.00        41.39106
313.46        41.18244
313.91        41.05363
314.36        40.97853
314.82        40.90223
315.27        40.75411
315.72        40.51595
316.18        40.22817
316.63        39.94175
317.08        39.74749
317.53        39.66002
317.99        39.64194
318.44        39.63214
318.89        39.52021
319.35        39.28013
319.80        38.94704
320.25        38.58369
320.70        38.29134
321.16        38.09567
321.61         37.9795
322.06        37.89303
322.51        37.75808
322.97        37.54776
323.42        37.29056
323.87        37.03463
324.32        36.86341
324.78         36.7789
325.23         36.7712
325.68         36.7494
326.13        36.57572
326.59        36.22442
327.04          35.761
327.49         35.2845
327.94         34.9524
328.39        34.80019
328.85        34.76318
329.30         34.8094
329.75        34.80867
330.20        34.71597
330.66        34.56273
331.11        34.38103
331.56        34.19382
332.01        34.01519
332.46        33.82441
332.92        33.62186
333.37        33.47159
333.82        33.36838
334.27        33.31536
334.72        33.28126
335.17         33.2047
335.63        33.06946
336.08        32.90841
336.53        32.76046
336.98        32.70555
337.43        32.75496
337.88        32.86627
338.34        32.98575
338.79        33.05875
339.24        33.04758
339.69        32.98441
340.14        32.85099
340.59        32.62101
341.05        32.32333
341.50        31.96976
341.95        31.67205
342.40        31.59937
342.85        31.77496
343.30        32.14298
343.75          32.564
344.20        32.80511
344.66         32.8042
345.11        32.62356
345.56        32.36292
346.01        32.18813
346.46         32.1532
346.91        32.21001
347.36        32.31079
347.81        32.38611
348.26        32.41161
348.72        32.41082
349.17        32.40711
349.62        32.44516
350.07        32.52909
350.52        32.64111
350.97        32.71741
351.42        32.66286
351.87        32.46828
352.32        32.17315
352.77        31.87633
353.22        31.72024
353.67        31.73079
354.13        31.86401
354.58        32.02995
355.03         32.0774
355.48        31.96367
355.93        31.73542
356.38        31.46801
356.83        31.27386
357.28        31.17786
357.73        31.13864
358.18        31.10172
358.63        30.98475
359.08        30.76894
359.53         30.4895
359.98        30.19071
360.43        29.93077
360.88        29.72392
361.33        29.55194
361.78        29.39144
362.23        29.20712
362.68        28.99617
363.13        28.78053
363.58        28.57934
364.03        28.41846
364.48        28.30021
364.93        28.20296
365.38        28.12484
365.83        28.06689
366.28        28.01826
366.73        27.97581
367.18        27.89478
367.63        27.70649
368.08         27.4056
368.53        27.01808
368.98        26.61686
369.43        26.31685
369.88        26.14963
370.33        26.09097
370.78        26.08255
371.23        26.02267
371.68        25.88242
372.13        25.68929
372.58        25.49636
373.03        25.38815
373.48        25.37797
373.93        25.42686
374.38        25.47091
374.83        25.41519
375.28        25.23795
375.72        24.96936
376.17        24.67883
376.62        24.43592
377.07        24.26748
377.52        24.16035
377.97        24.09153
378.42        24.02714
378.87        23.95293
379.32        23.86671
379.77        23.79901
380.22        23.79304
380.67        23.84591
381.11         23.9506
381.56        24.00347
382.01        23.86056
382.46        23.51345
382.91         23.0338
383.36        22.57376
383.81        22.34071
384.26        22.36459
384.71        22.57447
385.15        22.85426
385.60        23.00811
386.05        22.97149
386.50        22.80258
386.95        22.55916
387.40        22.33416
387.85        22.16301
388.29        22.00403
388.74          21.877
389.19        21.75829
389.64        21.64266
390.09        21.54229
390.54        21.46028
390.98        21.39029
391.43        21.34489
391.88        21.31754
392.33        21.30543
392.78        21.30689
393.23        21.31767
393.67        21.32298
394.12        21.33898
394.57        21.34955
395.02        21.34983
395.47        21.33303
395.91        21.30288
396.36        21.25571
396.81         21.2046
397.26        21.15588
397.71        21.09711
398.15        21.02219
398.60         20.9582
399.05        20.82387
399.50        20.66754
399.95        20.70859
400.39        20.88608
400.84        20.81981
401.29        20.52619
401.74         20.3575
402.18        20.33649
402.63        20.25032
403.08        20.13075
403.53         20.1176
403.97        20.21467
404.42        20.38196
404.87        20.54386
405.32        20.57812
405.76        20.45803
406.21        20.23232
406.66        19.98779
407.11        19.86177
407.55        19.89233
408.00        20.03244
408.45        20.20967
408.90        20.28236
409.34        20.20951
409.79        20.04484
410.24        19.86223
410.68        19.75933
411.13        19.76301
411.58         19.8342
412.03        19.92834
412.47        19.97269
412.92        19.93619
413.37        19.85436
413.81        19.74953
414.26        19.66726
414.71         19.6131
415.15        19.57799
415.60        19.55398
416.05        19.54953
416.49        19.56549
416.94        19.60022
417.39        19.64264
417.83        19.67055
418.28        19.67803
418.73        19.66626
419.17        19.64983
419.62        19.65546
420.07        19.68782
420.51        19.73222
420.96        19.77407
421.41        19.78601
421.85        19.75751
422.30        19.69571
422.74        19.60956
423.19        19.60032
423.64        19.64355
424.08        19.60815
424.53        19.50733
424.98        19.51595
425.42        19.65288
425.87        19.77747
426.31        19.84962
426.76        19.95173
427.21        20.01226
427.65        19.77287
428.10        19.36226
428.54        19.18225
428.99        19.27948
429.44        19.52837
429.88        19.80187
430.33        19.82378
430.77        19.62585
431.22        19.61633
431.66         19.8002
432.11        19.84343
432.56        19.75447
433.00        19.79471
433.45        19.88421
433.89        19.74967
434.34        19.53133
434.78        19.13145
435.23        19.62269
435.67        19.73008
436.12        19.72053
436.57        19.65175
437.01        19.55792
437.46         19.5064
437.90         19.5004
438.35        19.46816
438.79        19.41041
439.24         19.3952
439.68        19.42459
440.13        19.47966
440.57        19.54574
441.02        19.60932
441.46        19.65807
441.91        19.66368
442.35         19.6319
442.80        19.72341
443.24        19.87862
443.69        19.85947
444.13        19.69407
444.58         19.6477
445.02        19.72903
445.47        19.80082
445.91         19.8314
446.36        19.83947
446.80        19.81474
447.24        19.75774
447.69        19.69596
448.13        19.66369
448.58        19.67364
449.02        19.71051
449.47        19.75836
449.91        19.78131
450.36        19.77536
450.80        19.74695
451.25        19.71194
451.69        19.68106
452.13        19.66162
452.58        19.64559
453.02        19.62934
453.47         19.6113
453.91        19.59037
454.36        19.57264
454.80        19.55034
455.24        19.50875
455.69        19.45376
456.13        19.37813
456.58        19.31828
457.02        19.29796
457.46        19.32942
457.91        19.40293
458.35        19.47378
458.79        19.47734
459.24        19.41841
459.68        19.30577
460.13        19.20676
460.57        19.17545
461.01        19.23716
461.46        19.35402
461.90        19.49723
462.34        19.60252
462.79        19.64185
463.23        19.64259
463.68        19.60024
464.12        19.52136
464.56        19.41646
465.01        19.31146
465.45        19.21137
465.89        19.17711
466.34        19.21325
466.78        19.29922
467.22          19.415
467.67        19.50231
468.11        19.55222
468.55        19.57089
468.99        19.56656
469.44         19.5525
469.88        19.53849
470.32        19.51803
470.77        19.50386
471.21        19.52159
471.65        19.57099
472.10        19.64603
472.54        19.72107
472.98        19.76135
473.42        19.75769
473.87        19.72726
474.31        19.67151
474.75        19.61214
475.20        19.56418
475.64        19.51907
476.08        19.48917
476.52        19.48197
476.97        19.49921
477.41        19.54903
477.85        19.63046
478.29        19.71032
478.74        19.79593
479.18        19.93443
479.62        20.09575
480.06        20.20149
480.50        20.24456
480.95        20.23378
481.39        20.17424
481.83        20.26842
482.27        20.22834
482.72        20.29684
483.16        20.38198
483.60        20.42447
484.04        20.40133
484.48        20.46265
484.93        20.68939
485.37        20.54669
485.81        20.69167
486.25        21.09623
486.69        21.09767
487.14        20.94366
487.58        21.65582
488.02        21.57804
488.46        21.11749
488.90         21.3522
489.34        21.04655
489.79        21.42743
490.23        21.62015
490.67        21.80779
491.11        21.84628
491.55        21.82449
491.99        21.80479
492.43        21.84354
492.88        21.96635
493.32        22.13128
493.76        22.31219
494.20        22.48973
494.64        22.65446
495.08        22.79663
495.52        22.91482
495.96        23.06605
496.41        23.23843
496.85        23.29471
497.29        23.24655
497.73        23.43737
498.17        23.54441
498.61        23.67508
499.05        23.72226
499.49        23.77481
499.93        23.79227
500.37        23.97758
500.82        24.27323
501.26        24.48101
501.70        24.57427
502.14        24.65897
502.58        24.75631
503.02        24.85057
503.46         24.9482
503.90        25.05362
504.34        25.14599
504.78        25.19336
505.22        25.19214
505.66         25.1534
506.10        25.11864
506.54        25.14558
506.98        25.24408
507.42        25.40891
507.86        25.59642
508.30        25.66236
508.74        25.70201
509.18        25.64941
509.62        25.58119
510.06        25.56399
510.50        25.61819
510.94        25.71975
511.38        25.84272
511.82        25.94859
512.26        26.02325
512.70        26.08029
513.14         26.1251
513.58        26.16527
514.02         26.2038
514.46        26.23286
514.90        26.25637
515.34         26.2837
515.78        26.31554
516.22        26.35166
516.66        26.37973
517.10         26.3786
517.54        26.34576
517.98        26.28878
518.42        26.22798
518.86        26.19517
519.30        26.19806
519.74        26.22825
520.18        26.26575
520.62        26.27832
521.06        26.25853
521.50        26.21584
521.93        26.17048
522.37        26.14706
522.81        26.15419
523.25        26.17843
523.69        26.20112
524.13        26.19504
524.57        26.15232
525.01        26.08168
525.45        25.99322
525.89        25.90279
526.32        25.81639
526.76        25.73929
527.20        25.66869
527.64        25.60283
528.08        25.54097
528.52        25.48197
528.96        25.43466
529.40        25.41116
529.83        25.40966
530.27        25.42775
530.71        25.43666
531.15        25.39473
531.59        25.29651
532.03        25.15424
532.46         25.0061
532.90        24.92965
533.34        24.93532
533.78        24.98822
534.22        25.04465
534.66        25.06717
535.09        25.02435
535.53        24.88134
535.97        24.69209
536.41        24.60543
536.85        24.64248
537.28        24.73406
537.72         24.8482
538.16        24.95234
538.60        25.02706
539.04        25.08443
539.47        25.11837
539.91        25.13484
540.35        25.13575
540.79        25.12256
541.22        25.11629
541.66        25.16051
542.10        25.26016
542.54        25.40465
542.97        25.56669
543.41        25.71233
543.85        25.82704
544.29        25.92192
544.72        26.00515
545.16        26.10834
545.60        26.23368
546.04        26.37532
546.47        26.52865
546.91        26.68169
547.35        26.82836
547.79         26.9757
548.22        27.12301
548.66        27.26195
549.10        27.42488
549.53        27.59935
549.97        27.78677
550.41        27.92699
550.84        28.04579
551.28        28.21836
551.72        28.41685
552.15        28.61999
552.59        28.85642
553.03        28.70894
553.46        29.04416
553.90        29.11572
554.34          29.181
554.77        29.24229
555.21        29.32507
555.65        29.44388
556.08        29.58896
556.52        29.73857
556.96        29.87052
557.39        30.03219
557.83        30.19372
558.27         30.1873
558.70        30.05649
559.14        30.05407
559.57        30.17698
560.01        30.26675
560.45        30.31104
560.88        30.38613
561.32        30.50302
561.75        30.60825
562.19        30.70409
562.63        30.78689
563.06        30.85042
563.50        30.90266
563.93        30.92583
564.37        30.97238
564.80        31.05987
565.24        31.10305
565.68        31.04631
566.11        31.47748
566.55        31.26642
566.98        31.35075
567.42        31.44565
567.85        31.59541
568.29        31.80905
568.72        32.09393
569.16        32.44259
569.60        32.64418
570.03        32.80222
570.47        32.95873
570.90        33.10892
571.34        33.04302
571.77        33.31261
572.21        33.48926
572.64         33.6794
573.08         33.7739
573.51        33.81413
573.95           33.88
574.38        34.05469
574.82        34.27657
