SpectraSmart Spectrum 2.9.0.0
--------- Device Information -----------
Spectrum Name :  反射率_0
Saving Time :  2024/04/27 00:28:20
Spectro-Module Model Name : SE2030-DUVN
Spectro-Module Serial Number : OS361AC55029948
Wavelength Start : 200
Wavelength End : 1025
Wavelength Unit : Wavelength(nm)
Spectrum Unit : Reflectance(%)
-----------Spectrum Setting ------------
Integration Time : 20ms
Average : 10
Boxcar : 0
Background removal :  enabled
linearity correction :  enabled
SC :  disabled
Intensity correction :  disabled
DWT denoise :  enabled
savitzky-golay :  disabled
FFT :  disabled
Running average :  disabled
Kalman :  disabled
High pass :  disabled
---------------BEGIN--------------------
Wavelength(nm)             Reflectance(%)
200.29               0
200.75        40.96033
201.21        41.92988
201.67         42.7267
202.13        42.98956
202.58        42.70284
203.04        42.48546
203.50        42.56517
203.96        43.22221
204.42        44.68593
204.88        46.57181
205.34        49.11269
205.80         52.7843
206.26         56.7856
206.72         60.0178
207.18        61.63422
207.64              61
208.10         58.1728
208.55        53.46996
209.01        46.01355
209.47        39.25474
209.93        37.41081
210.39        39.04506
210.85          42.353
211.31        47.22448
211.77        55.35317
212.23         72.3507
212.69        113.2339
213.14        179.5594
213.60        172.7565
214.06        122.8794
214.52        89.74709
214.98         74.4088
215.44        67.22822
215.90        62.70006
216.36        60.96904
216.81         63.4044
217.27        71.01841
217.73        86.68792
218.19        109.0758
218.65        120.7157
219.11         113.533
219.57        98.29575
220.02        87.36517
220.48        88.01063
220.94        99.62016
221.40        123.0066
221.86        158.4452
222.32        185.4918
222.77        183.1666
223.23        164.1582
223.69         142.538
224.15         126.575
224.61        116.2736
225.06        108.5448
225.52        104.1213
225.98        103.2841
226.44        105.4859
226.90         110.444
227.36        116.5936
227.81        120.8046
228.27        122.4166
228.73        122.0523
229.19        121.4386
229.65        122.8505
230.10        126.3807
230.56        131.2731
231.02        135.7798
231.48        137.2309
231.93        135.1814
232.39        131.4152
232.85        127.4689
233.31        125.3729
233.77         125.352
234.22        126.5827
234.68        128.3672
235.14        129.6936
235.60        130.1322
236.05        130.1678
236.51        129.2629
236.97        126.8388
237.43        122.9116
237.88        117.7122
238.34        112.3124
238.80        108.7888
239.26        107.7592
239.71        109.7606
240.17        113.5451
240.63         116.271
241.08         116.292
241.54        113.0407
242.00        109.1377
242.46        109.9887
242.91         119.226
243.37        138.1269
243.83        166.9384
244.28        190.7773
244.74        188.0731
245.20        160.1984
245.66        125.9398
246.11        100.5765
246.57        84.66716
247.03        73.53695
247.48        65.82618
247.94        61.19579
248.40        59.53759
248.85        60.17459
249.31        61.84607
249.77        63.18971
250.22        64.04292
250.68        64.43589
251.14        64.85224
251.59        66.45448
252.05        69.58301
252.51         73.7958
252.96        76.68863
253.42        76.78275
253.88        74.82024
254.33        71.59521
254.79        70.49788
255.25        74.31791
255.70        82.45468
256.16        93.50274
256.62        103.2774
257.07         105.166
257.53        100.8802
257.99        94.68157
258.44        89.43449
258.90        87.96835
259.35         89.1065
259.81        91.84225
260.27        95.07083
260.72        97.50878
261.18        99.06638
261.63        99.64674
262.09        99.82755
262.55        99.42463
263.00        98.43605
263.46        97.29161
263.91        95.76349
264.37        94.19428
264.83        92.61711
265.28        90.96912
265.74        89.77202
266.19        89.15723
266.65        89.20489
267.11        89.66411
267.56        90.13519
268.02        90.00093
268.47        89.10114
268.93         87.6953
269.38        86.01933
269.84        84.56222
270.30        83.43664
270.75        82.47515
271.21        81.70068
271.66        81.03467
272.12        80.43724
272.57         79.8872
273.03        79.24935
273.48        78.24865
273.94        76.94947
274.39        75.38734
274.85        73.85649
275.31        72.52532
275.76        71.39738
276.22        70.49155
276.67        69.67698
277.13         68.9713
277.58        68.23812
278.04        67.52955
278.49        66.72041
278.95        65.83506
279.40        64.79594
279.86        63.75581
280.31         62.6177
280.77         61.4654
281.22        60.24883
281.68        59.07228
282.13        58.00035
282.59        57.30141
283.04        56.90186
283.50        56.76255
283.95        56.60844
284.41        56.06193
284.86        55.05614
285.32        53.78648
285.77        52.50522
286.22        51.67213
286.68        51.34994
287.13        51.32148
287.59        51.37624
288.04        51.11162
288.50         50.4842
288.95         49.5948
289.41        48.62542
289.86         47.7191
290.32        46.99076
290.77        46.35181
291.22        45.81939
291.68        45.39901
292.13        45.05631
292.59        44.81964
293.04        44.65765
293.50        44.54808
293.95        44.46294
294.40        44.40239
294.86        44.36153
295.31        44.32318
295.77        44.30033
296.22        44.28945
296.68        44.31314
297.13        44.37669
297.58        44.49867
298.04        44.68538
298.49         44.9389
298.95         45.2864
299.40        45.70609
299.85        46.17296
300.31        46.66088
300.76        47.11143
301.21        47.50541
301.67        47.86487
302.12        48.13795
302.58        48.32945
303.03        48.41935
303.48        48.44973
303.94        48.49194
304.39        48.59971
304.84        48.80156
305.30        49.08022
305.75        49.37203
306.20         49.6475
306.66        49.89701
307.11         50.1079
307.57        50.26695
308.02        50.28608
308.47        50.18091
308.93        49.98516
309.38        49.76759
309.83        49.70099
310.29        49.81305
310.74        50.04709
311.19        50.28736
311.65        50.33493
312.10        50.13753
312.55        49.75954
313.00         49.3271
313.46        49.02699
313.91         48.8854
314.36        48.85608
314.82         48.8372
315.27        48.68277
315.72        48.35325
316.18        47.91494
316.63        47.44917
317.08        47.09746
317.53        46.88993
317.99         46.7732
318.44        46.67859
318.89        46.48235
319.35        46.15536
319.80        45.74451
320.25        45.31301
320.70        44.95876
321.16         44.7076
321.61        44.54174
322.06        44.41822
322.51        44.27399
322.97        44.07917
323.42        43.85096
323.87         43.6209
324.32         43.4477
324.78        43.32342
325.23         43.2527
325.68        43.13985
326.13        42.84428
326.59        42.35167
327.04        41.73547
327.49        41.13172
327.94        40.75454
328.39        40.64592
328.85        40.72129
329.30        40.90634
329.75        40.97684
330.20        40.85773
330.66        40.60548
331.11        40.28793
331.56        39.98495
332.01        39.73139
332.46        39.48479
332.92        39.24848
333.37        39.10084
333.82         39.0295
334.27        39.04082
334.72        39.06446
335.17         38.9695
335.63        38.72756
336.08        38.39493
336.53        38.06651
336.98        37.91949
337.43        37.99281
337.88        38.21732
338.34        38.49313
338.79        38.69149
339.24        38.73996
339.69        38.68347
340.14        38.52309
340.59        38.26495
341.05        37.95193
341.50        37.59192
341.95        37.27287
342.40         37.1297
342.85        37.18663
343.30        37.40066
343.75        37.69883
344.20        37.95313
344.66        38.11509
345.11        38.20915
345.56        38.22892
346.01         38.1731
346.46        38.06182
346.91        37.90158
347.36        37.74271
347.81        37.67227
348.26        37.70292
348.72        37.80147
349.17        37.93076
349.62        38.04197
350.07         38.1084
350.52        38.14961
350.97        38.10978
351.42        37.90428
351.87        37.54112
352.32        37.05768
352.77        36.59248
353.22        36.34718
353.67        36.35654
354.13        36.56614
354.58        36.83754
355.03        36.93158
355.48        36.78245
355.93        36.45695
356.38        36.08558
356.83        35.86705
357.28        35.84031
357.73        35.93246
358.18        36.02372
358.63        35.92823
359.08        35.60315
359.53        35.11858
359.98        34.58632
360.43        34.16346
360.88         33.8871
361.33         33.7107
361.78        33.55648
362.23        33.30363
362.68        32.93091
363.13        32.49067
363.58        32.05965
364.03        31.74862
364.48        31.57922
364.93        31.50604
365.38        31.47161
365.83         31.3866
366.28        31.22363
366.73         31.0141
367.18         30.7758
367.63        30.53696
368.08        30.30821
368.53        30.07047
368.98        29.84206
369.43         29.6552
369.88        29.51101
370.33        29.40857
370.78        29.29551
371.23        29.08174
371.68        28.75677
372.13        28.35319
372.58        27.95765
373.03        27.70834
373.48        27.63088
373.93        27.67288
374.38        27.75261
374.83          27.739
375.28        27.59257
375.72        27.35086
376.17        27.06341
376.62        26.76961
377.07        26.49695
377.52        26.23875
377.97        26.01811
378.42        25.88044
378.87         25.8265
379.32        25.82884
379.77        25.86544
380.22        25.89853
380.67        25.90752
381.11        25.91183
381.56        25.84044
382.01        25.61257
382.46        25.23957
382.91        24.76637
383.36        24.32981
383.81        24.11682
384.26        24.14823
384.71        24.36584
385.15        24.63783
385.60        24.73858
386.05        24.60794
386.50        24.31827
386.95        23.97269
387.40        23.73504
387.85        23.64613
388.29        23.62779
388.74        23.65779
389.19          23.652
389.64        23.59019
390.09        23.50511
390.54        23.39928
390.98        23.26741
391.43        23.13368
391.88        22.99184
392.33        22.87583
392.78        22.83666
393.23        22.87402
393.67        22.95794
394.12        23.05803
394.57        23.08373
395.02        23.01663
395.47        22.87048
395.91        22.69967
396.36        22.58744
396.81        22.56993
397.26        22.62538
397.71        22.68837
398.15        22.67631
398.60        22.60456
399.05        22.41317
399.50        22.19474
399.95        22.24258
400.39        22.50326
400.84        22.54558
401.29        22.35313
401.74        22.25538
402.18        22.26151
402.63        22.15671
403.08        21.99137
403.53        21.94346
403.97        22.02766
404.42        22.19097
404.87        22.35817
405.32        22.40826
405.76         22.3116
406.21         22.1204
406.66        21.90755
407.11        21.78729
407.55        21.79422
408.00        21.88368
408.45        22.00366
408.90        22.05089
409.34         21.9928
409.79        21.87018
410.24        21.73052
410.68        21.63169
411.13        21.59442
411.58        21.59589
412.03         21.6113
412.47        21.60377
412.92         21.5566
413.37        21.49436
413.81         21.4351
414.26        21.42124
414.71        21.45338
415.15        21.52465
415.60        21.60965
416.05        21.68593
416.49        21.74204
416.94        21.77663
417.39        21.79768
417.83        21.81686
418.28        21.83652
418.73        21.85072
419.17        21.85295
419.62        21.83447
420.07        21.79807
420.51        21.74779
420.96        21.70089
421.41        21.67729
421.85        21.67129
422.30        21.66352
422.74        21.63983
423.19        21.67797
423.64        21.73932
424.08        21.69288
424.53        21.53965
424.98        21.45048
425.42        21.45234
425.87        21.40259
426.31        21.31527
426.76          21.365
427.21        21.49291
427.65        21.39895
428.10        21.15534
428.54        21.09398
428.99        21.23847
429.44        21.47776
429.88        21.71486
430.33        21.71488
430.77        21.52944
431.22        21.58262
431.66        21.85097
432.11        21.92826
432.56        21.81322
433.00         21.7895
433.45        21.79845
433.89        21.64639
434.34        21.47642
434.78         21.0489
435.23        21.53961
435.67        21.63091
436.12        21.61343
436.57        21.49764
437.01        21.32553
437.46        21.20741
437.90         21.1536
438.35        21.07793
438.79        20.98071
439.24        20.93436
439.68        20.94081
440.13          20.981
440.57        21.04149
441.02        21.11815
441.46        21.19627
441.91        21.21591
442.35        21.17777
442.80        21.29843
443.24        21.48783
443.69        21.38097
444.13        21.04209
444.58        20.90758
445.02        21.00045
445.47        21.09634
445.91        21.14815
446.36        21.18334
446.80        21.18303
447.24        21.14878
447.69        21.09844
448.13        21.05084
448.58        21.01836
449.02         20.9871
449.47        20.96914
449.91        20.97257
450.36        21.00115
450.80        21.05019
451.25         21.0947
451.69        21.08014
452.13        21.00207
452.58        20.87095
453.02        20.73345
453.47        20.66861
453.91        20.69291
454.36        20.78829
454.80        20.88966
455.24        20.89162
455.69        20.78081
456.13        20.57906
456.58        20.38338
457.02        20.30493
457.46        20.37328
457.91        20.54936
458.35        20.73353
458.79        20.77587
459.24        20.66606
459.68        20.44628
460.13        20.23555
460.57         20.1586
461.01        20.25577
461.46        20.46196
461.90        20.71428
462.34        20.89233
462.79        20.94702
463.23        20.92208
463.68        20.82679
464.12        20.69208
464.56        20.54023
465.01        20.39282
465.45        20.25183
465.89        20.17648
466.34        20.17018
466.78        20.21458
467.22        20.29465
467.67        20.35929
468.11        20.40064
468.55         20.4197
468.99        20.41593
469.44        20.38853
469.88        20.34463
470.32         20.2849
470.77        20.22642
471.21        20.20182
471.65          20.216
472.10        20.26146
472.54        20.32358
472.98        20.38396
473.42        20.43318
473.87        20.48183
474.31        20.50652
474.75        20.49285
475.20        20.44602
475.64         20.3614
476.08        20.27558
476.52        20.23476
476.97        20.24837
477.41        20.31667
477.85        20.40542
478.29         20.4262
478.74        20.38215
479.18        20.34604
479.62        20.34156
480.06        20.37146
480.50         20.4445
480.95        20.54213
481.39        20.61546
481.83        20.78701
482.27        20.74295
482.72        20.76159
483.16        20.77621
483.60        20.77444
484.04        20.76014
484.48        20.82338
484.93        21.01545
485.37        20.91178
485.81        21.22149
486.25        21.33594
486.69        21.77621
487.14        21.66244
487.58        21.68984
488.02        21.77634
488.46         21.4973
488.90        21.56528
489.34        21.50693
489.79        21.72395
490.23        22.02043
490.67        22.11502
491.11         22.0249
491.55        21.96856
491.99        21.99169
492.43        22.01533
492.88        22.05895
493.32        22.18341
493.76        22.35204
494.20        22.49116
494.64        22.58987
495.08        22.61898
495.52        22.61941
495.96        22.78727
496.41        23.08134
496.85        23.18437
497.29         23.0843
497.73        23.19915
498.17        23.23041
498.61         23.3034
499.05        23.32874
499.49        23.38703
499.93         23.4282
500.37        23.63501
500.82        23.93459
501.26        24.12934
501.70         24.1881
502.14        24.19932
502.58        24.21121
503.02        24.26841
503.46        24.38649
503.90        24.54828
504.34        24.70389
504.78        24.77409
505.22        24.74298
505.66        24.63972
506.10        24.52362
506.54        24.48666
506.98        24.55133
507.42        24.68858
507.86        24.85287
508.30        24.96936
508.74          25.015
509.18        25.01306
509.62        24.98954
510.06        24.98591
510.50        25.01574
510.94        25.06396
511.38        25.11981
511.82        25.16801
512.26        25.20398
512.70        25.23644
513.14        25.27015
513.58        25.31003
514.02        25.35733
514.46        25.40683
514.90        25.45669
515.34        25.50624
515.78        25.55207
516.22        25.59163
516.66        25.61946
517.10        25.62685
517.54        25.61386
517.98        25.58709
518.42        25.55034
518.86        25.50993
519.30        25.47038
519.74        25.42969
520.18        25.40052
520.62          25.401
521.06        25.43216
521.50         25.4904
521.93        25.54917
522.37        25.55535
522.81        25.50292
523.25        25.40514
523.69        25.30061
524.13        25.25091
524.57        25.26584
525.01        25.32169
525.45        25.37993
525.89        25.37804
526.32        25.29907
526.76        25.17546
527.20        25.02948
527.64        24.89725
528.08        24.79379
528.52        24.70649
528.96        24.64581
529.40        24.62858
529.83        24.65011
530.27        24.70662
530.71        24.76041
531.15        24.75163
531.59        24.66969
532.03        24.53254
532.46        24.37614
532.90        24.27682
533.34        24.24813
533.78        24.25371
534.22        24.26996
534.66        24.28984
535.09        24.28434
535.53        24.21059
535.97        24.08718
536.41        24.00463
536.85        23.97595
537.28        23.95518
537.72        23.94868
538.16        23.98588
538.60        24.06382
539.04        24.17135
539.47        24.28228
539.91        24.37126
540.35        24.42583
540.79         24.4557
541.22        24.46982
541.66        24.49273
542.10        24.52954
542.54        24.57387
542.97        24.62613
543.41        24.69758
543.85        24.78532
544.29        24.89205
544.72        25.00033
545.16        25.09882
545.60        25.18079
546.04        25.25301
546.47        25.33814
546.91         25.4682
547.35        25.64577
547.79        25.86093
548.22        26.08041
548.66        26.24869
549.10        26.38618
549.53        26.49438
549.97        26.60338
550.41        26.70239
550.84         26.8271
551.28        27.03441
551.72        27.27008
552.15        27.46842
552.59         27.6455
553.03        27.42943
553.46        27.67775
553.90        27.69082
554.34         27.7175
554.77        27.86271
555.21        27.93074
555.65        28.07382
556.08        28.21275
556.52        28.34011
556.96        28.43671
557.39        28.55215
557.83         28.6654
558.27        28.61911
558.70        28.45929
559.14        28.43261
559.57        28.53596
560.01        28.61399
560.45        28.66611
560.88        28.76739
561.32        28.92355
561.75        29.11901
562.19        29.31465
562.63        29.35682
563.06        29.27509
563.50        29.28852
563.93        29.38847
564.37        29.47191
564.80        29.55484
565.24        29.65153
565.68         29.6855
566.11        30.13466
566.55        29.90926
566.98        29.93386
567.42        29.95598
567.85        30.04929
568.29        30.23494
568.72        30.50553
569.16        30.84242
569.60        31.06025
570.03        31.25941
570.47        31.39739
570.90        31.51446
571.34        31.57731
571.77        31.84754
572.21        32.01786
572.64         32.0638
573.08        32.50185
573.51        32.28005
573.95        32.36163
574.38        32.51076
574.82        32.72965
