SpectraSmart Spectrum 2.9.0.0
--------- Device Information -----------
Spectrum Name :  反射率_0
Saving Time :  2024/04/27 00:23:02
Spectro-Module Model Name : SE2030-DUVN
Spectro-Module Serial Number : OS361AC55029948
Wavelength Start : 200
Wavelength End : 1025
Wavelength Unit : Wavelength(nm)
Spectrum Unit : Reflectance(%)
-----------Spectrum Setting ------------
Integration Time : 20ms
Average : 10
Boxcar : 0
Background removal :  enabled
linearity correction :  enabled
SC :  disabled
Intensity correction :  disabled
DWT denoise :  enabled
savitzky-golay :  disabled
FFT :  disabled
Running average :  disabled
Kalman :  disabled
High pass :  disabled
---------------BEGIN--------------------
Wavelength(nm)             Reflectance(%)
200.29               0
200.75         14.9091
201.21         17.7499
201.67        19.89371
202.13        20.86108
202.58        20.71172
203.04        19.99093
203.50         18.9681
203.96         18.4492
204.42        18.99514
204.88        20.15566
205.34        22.04835
205.80        24.68969
206.26        27.43763
206.72        29.93951
207.18        31.01953
207.64        29.47842
208.10        25.11995
208.55        17.30648
209.01        6.501745
209.47        1.023492
209.93        5.196852
210.39        13.51367
210.85        20.52282
211.31        24.16643
211.77        25.24998
212.23        24.39956
212.69        19.98963
213.14        13.55455
213.60        13.74147
214.06        17.84164
214.52         20.8054
214.98        22.77508
215.44        24.29186
215.90        25.82676
216.36        26.86007
216.81        25.99874
217.27        23.15857
217.73        18.40049
218.19        11.95319
218.65        8.178849
219.11         9.96341
219.57        14.07899
220.02        19.02576
220.48        25.69422
220.94        35.45736
221.40         50.7963
221.86        71.38229
222.32        83.82492
222.77        77.25684
223.23        61.02376
223.69        45.87943
224.15        37.91951
224.61         35.7167
225.06        36.07644
225.52        37.82136
225.98        39.86221
226.44        41.84659
226.90        44.24076
227.36          46.306
227.81         46.5602
228.27           45.05
228.73        42.32294
229.19        39.72327
229.65        38.83496
230.10        39.72311
230.56         41.8558
231.02        44.28054
231.48        45.43792
231.93        44.97773
232.39        43.76086
232.85         42.4744
233.31        42.05666
233.77        42.61415
234.22        43.74603
234.68        45.08845
235.14          46.263
235.60        47.06001
236.05        47.62129
236.51        47.71211
236.97        46.87207
237.43        45.08749
237.88        42.65361
238.34        40.02859
238.80          38.097
239.26        37.17328
239.71        37.29843
240.17        38.70536
240.63         41.9796
241.08        47.21472
241.54        54.01978
242.00         61.0913
242.46        66.41928
242.91        69.48098
243.37         68.8468
243.83         63.1973
244.28        53.05932
244.74        41.61517
245.20        32.72066
245.66        28.22629
246.11        25.93183
246.57        24.93113
247.03        25.17311
247.48        26.83546
247.94        29.29074
248.40        31.61101
248.85        33.25436
249.31        33.89098
249.77        33.07206
250.22        30.64115
250.68        26.37059
251.14        21.06158
251.59        18.37238
252.05        20.71472
252.51         26.6198
252.96        32.29219
253.42        34.39856
253.88         33.3157
254.33        30.33143
254.79        28.30317
255.25        29.60884
255.70        33.99249
256.16        40.42436
256.62        45.88525
257.07        45.95279
257.53        41.89011
257.99        36.63758
258.44         32.6336
258.90        31.90496
259.35        33.53297
259.81         36.4928
260.27        39.33572
260.72         40.2813
261.18        39.42343
261.63        37.49966
262.09        35.65272
262.55        34.72617
263.00         34.6638
263.46        35.12832
263.91        35.49615
264.37        35.17296
264.83        34.13401
265.28        32.68855
265.74        31.39889
266.19        30.74247
266.65        30.80482
267.11        31.29958
267.56        31.90101
268.02        32.09133
268.47        31.73473
268.93        31.03555
269.38        30.15023
269.84        29.35275
270.30        28.73001
270.75        28.18847
271.21         27.7688
271.66        27.50094
272.12        27.36824
272.57        27.35265
273.03        27.34089
273.48        27.13007
273.94        26.71525
274.39        26.13256
274.85        25.52765
275.31        25.00754
275.76         24.5864
276.22        24.24482
276.67        23.94554
277.13        23.69533
277.58        23.44605
278.04         23.2236
278.49        22.94665
278.95        22.58039
279.40        22.09622
279.86        21.57988
280.31        21.05541
280.77        20.63384
281.22        20.30643
281.68        20.06674
282.13        19.88992
282.59        19.80017
283.04        19.75852
283.50        19.76389
283.95        19.73736
284.41         19.5606
284.86        19.22194
285.32        18.78543
285.77        18.33504
286.22        18.03222
286.68        17.90117
287.13        17.86357
287.59        17.86723
288.04        17.79731
288.50        17.64099
288.95        17.42607
289.41        17.17438
289.86         16.8704
290.32        16.55193
290.77         16.2148
291.22         15.9295
291.68        15.79516
292.13        15.81651
292.59        15.97093
293.04        16.18291
293.50        16.34405
293.95        16.41826
294.40        16.44095
294.86        16.45537
295.31        16.52844
295.77        16.68316
296.22        16.88911
296.68        17.13129
297.13        17.38034
297.58        17.62863
298.04        17.88932
298.49        18.15571
298.95        18.42628
299.40        18.69201
299.85        18.94242
300.31        19.18042
300.76        19.41471
301.21        19.64087
301.67        19.86529
302.12         20.0485
302.58        20.16867
303.03         20.2132
303.48        20.21333
303.94        20.21412
304.39        20.26579
304.84        20.38357
305.30        20.55532
305.75        20.73803
306.20        20.90312
306.66        21.03906
307.11        21.14307
307.57        21.21643
308.02        21.23674
308.47         21.2091
308.93        21.14228
309.38        21.04947
309.83        20.98293
310.29        20.95306
310.74        20.94649
311.19        20.93389
311.65        20.86203
312.10        20.71986
312.55        20.52704
313.00        20.32765
313.46         20.1853
313.91        20.10352
314.36        20.06551
314.82         20.0288
315.27        19.93087
315.72        19.75765
316.18        19.54033
316.63         19.3103
317.08        19.12373
317.53         18.9949
317.99        18.90028
318.44        18.83033
318.89         18.7624
319.35        18.68462
319.80        18.60079
320.25        18.50054
320.70        18.36656
321.16        18.19732
321.61        18.00598
322.06        17.80483
322.51        17.61801
322.97        17.45406
323.42        17.31077
323.87        17.20003
324.32        17.14245
324.78        17.12919
325.23        17.15901
325.68        17.17783
326.13        17.09967
326.59        16.90474
327.04        16.62519
327.49        16.31985
327.94         16.0844
328.39        15.94155
328.85        15.85921
329.30        15.81456
329.75        15.73567
330.20        15.60483
330.66        15.44981
331.11        15.29703
331.56        15.17361
332.01        15.08663
332.46        15.01158
332.92        14.94674
333.37        14.92013
333.82        14.91922
334.27        14.94393
334.72        14.93913
335.17        14.81274
335.63        14.55212
336.08        14.19493
336.53        13.83576
336.98        13.63608
337.43        13.63865
337.88        13.80166
338.34         14.0332
338.79         14.1834
339.24        14.19578
339.69        14.10964
340.14         13.9786
340.59        13.89513
341.05        13.88986
341.50        13.92258
341.95         13.9598
342.40        13.95561
342.85        13.90127
343.30         13.8208
343.75        13.73559
344.20        13.67838
344.66        13.66206
345.11        13.66785
345.56        13.68947
346.01        13.71853
346.46        13.75062
346.91        13.79457
347.36        13.82923
347.81        13.82191
348.26        13.77186
348.72        13.68738
349.17         13.6141
349.62        13.63544
350.07        13.76231
350.52        13.96677
350.97        14.17227
351.42        14.25486
351.87        14.18721
352.32        14.00963
352.77        13.79748
353.22        13.66344
353.67         13.6344
354.13        13.67889
354.58        13.74418
355.03        13.75007
355.48        13.67676
355.93        13.55889
356.38        13.43536
356.83        13.36092
357.28        13.34652
357.73        13.36435
358.18        13.39446
358.63        13.40821
359.08        13.39186
359.53        13.35669
359.98        13.29251
360.43        13.18083
360.88        13.02585
361.33        12.83624
361.78        12.64674
362.23        12.51631
362.68         12.4578
363.13        12.45208
363.58        12.46902
364.03        12.45821
364.48        12.40394
364.93        12.32334
365.38        12.22257
365.83        12.11223
366.28         12.0036
366.73        11.89529
367.18        11.80582
367.63        11.76595
368.08        11.77702
368.53        11.82533
368.98        11.88688
369.43        11.92179
369.88        11.91539
370.33        11.87663
370.78        11.80488
371.23        11.70269
371.68        11.57848
372.13        11.43503
372.58        11.29544
373.03        11.19618
373.48        11.14461
373.93         11.1312
374.38        11.13599
374.83        11.12384
375.28        11.08243
375.72         11.0176
376.17        10.94146
376.62        10.85714
377.07        10.77124
377.52        10.68518
377.97        10.60663
378.42        10.55159
378.87        10.52147
379.32        10.50513
379.77        10.50354
380.22        10.51651
380.67         10.5386
381.11        10.57575
381.56        10.58637
382.01        10.51242
382.46        10.35291
382.91        10.13364
383.36        9.929011
383.81        9.842397
384.26         9.88615
384.71        10.02631
385.15         10.1885
385.60         10.2526
386.05        10.18367
386.50        10.02196
386.95        9.826842
387.40        9.690368
387.85        9.638885
388.29        9.637822
388.74        9.665428
389.19        9.672625
389.64        9.647566
390.09        9.604049
390.54        9.561811
390.98           9.547
391.43        9.569016
391.88        9.611851
392.33        9.646828
392.78        9.635895
393.23        9.576174
393.67        9.479865
394.12        9.387557
394.57        9.338339
395.02        9.340066
395.47        9.375594
395.91        9.425116
396.36        9.446377
396.81        9.433653
397.26        9.403053
397.71        9.361009
398.15        9.322141
398.60        9.303277
399.05        9.258324
399.50        9.206304
399.95        9.244302
400.39        9.343037
400.84        9.331484
401.29        9.209429
401.74         9.12168
402.18        9.075445
402.63         8.98249
403.08        8.865115
403.53        8.798626
403.97        8.791272
404.42        8.822985
404.87        8.864748
405.32        8.867021
405.76        8.817091
406.21        8.736143
406.66        8.652199
407.11        8.610443
407.55        8.623393
408.00         8.67052
408.45        8.729443
408.90        8.755911
409.34        8.736601
409.79          8.6901
410.24        8.633355
410.68        8.586113
411.13        8.557414
411.58        8.535315
412.03        8.521924
412.47        8.524326
412.92        8.535882
413.37        8.556113
413.81        8.564563
414.26        8.535765
414.71        8.464292
415.15        8.360749
415.60        8.244102
416.05        8.156541
416.49        8.114285
416.94         8.10537
417.39        8.120946
417.83         8.14394
418.28        8.165877
418.73        8.193822
419.17        8.218201
419.62        8.223201
420.07        8.206899
420.51        8.166834
420.96        8.126694
421.41        8.123675
421.85        8.158643
422.30        8.218614
422.74        8.264796
423.19        8.280241
423.64        8.242285
424.08        8.112819
424.53        7.937468
424.98        7.861048
425.42        7.910501
425.87        8.007821
426.31        8.092924
426.76        8.130303
427.21        8.074564
427.65        7.850398
428.10        7.553344
428.54        7.404783
428.99        7.439306
429.44        7.583941
429.88        7.768755
430.33        7.857744
430.77          7.8481
431.22        7.905871
431.66         8.03157
432.11        8.079061
432.56        8.049685
433.00        8.047124
433.45        8.042494
433.89        7.934108
434.34        7.791132
434.78        7.578837
435.23        7.726161
435.67        7.729573
436.12        7.695087
436.57        7.645255
437.01        7.594805
437.46        7.571019
437.90        7.574219
438.35        7.574814
438.79        7.564241
439.24        7.554961
439.68        7.546637
440.13         7.53349
440.57        7.524492
441.02        7.542413
441.46        7.587684
441.91        7.630938
442.35         7.65588
442.80        7.716363
443.24        7.776834
443.69        7.713102
444.13          7.5647
444.58        7.517792
445.02        7.584194
445.47        7.673039
445.91        7.747526
446.36        7.787786
446.80        7.780635
447.24        7.737384
447.69         7.67976
448.13        7.636889
448.58        7.621196
449.02        7.621521
449.47        7.636923
449.91        7.663456
450.36        7.697536
450.80        7.739142
451.25        7.778166
451.69        7.794821
452.13        7.785856
452.58        7.754488
453.02        7.712408
453.47        7.681507
453.91        7.667874
454.36        7.667234
454.80        7.668482
455.24        7.651221
455.69        7.614757
456.13         7.56206
456.58        7.514927
457.02        7.491398
457.46        7.499042
457.91        7.529335
458.35         7.56138
458.79        7.561785
459.24        7.532218
459.68         7.47877
460.13        7.432045
460.57        7.415801
461.01         7.44192
461.46        7.491161
461.90        7.553959
462.34        7.605345
462.79        7.632731
463.23        7.647306
463.68        7.639112
464.12        7.598369
464.56        7.529453
465.01        7.449609
465.45        7.373395
465.89        7.341722
466.34        7.358442
466.78        7.409597
467.22        7.479556
467.67        7.531499
468.11        7.556392
468.55          7.5608
468.99        7.550033
469.44        7.532983
469.88        7.514554
470.32         7.49037
470.77        7.468939
471.21        7.467475
471.65        7.486632
472.10        7.524231
472.54         7.56223
472.98        7.574806
473.42        7.557219
473.87        7.521136
474.31        7.477249
474.75         7.45047
475.20        7.448888
475.64        7.461293
476.08        7.483555
476.52        7.504842
476.97        7.521848
477.41         7.54273
477.85        7.567697
478.29        7.584905
478.74        7.600021
479.18        7.630783
479.62         7.67451
480.06        7.716713
480.50        7.754999
480.95          7.7843
481.39        7.794465
481.83        7.847816
482.27        7.829545
482.72        7.837699
483.16        7.842278
483.60        7.840153
484.04        7.821228
484.48        7.838416
484.93         7.95776
485.37        7.955786
485.81        7.987751
486.25        8.361107
486.69        8.074947
487.14        7.801156
487.58         8.69038
488.02        8.554077
488.46        8.351397
488.90        8.345894
489.34        8.289924
489.79        8.406926
490.23        8.490494
490.67        8.615417
491.11        8.727626
491.55        8.741882
491.99         8.68822
492.43        8.695439
492.88        8.775909
493.32        8.843996
493.76        8.893351
494.20        8.964069
494.64        9.058029
495.08        9.145337
495.52        9.220854
495.96          9.3377
496.41        9.473407
496.85        9.487057
497.29        9.409869
497.73        9.511744
498.17        9.657878
498.61        9.779285
499.05        9.817673
499.49        9.863237
499.93         9.89577
500.37         9.96943
500.82        10.06583
501.26        10.12684
501.70        10.14831
502.14        10.16939
502.58        10.20569
503.02        10.26111
503.46        10.33844
503.90        10.43641
504.34        10.53492
504.78        10.59965
505.22         10.6228
505.66        10.61452
506.10        10.59645
506.54        10.60373
506.98        10.64619
507.42          10.714
507.86        10.79278
508.30        10.85869
508.74        10.90361
509.18        10.93372
509.62        10.95796
510.06        10.99065
510.50         11.0351
510.94        11.08591
511.38        11.13301
511.82        11.16098
512.26        11.16806
512.70        11.16216
513.14        11.15669
513.58        11.17224
514.02        11.21399
514.46        11.27413
514.90        11.34342
515.34        11.40743
515.78        11.45894
516.22        11.49938
516.66        11.52688
517.10        11.53913
517.54        11.53697
517.98        11.52187
518.42        11.49679
518.86        11.46736
519.30        11.43737
519.74        11.40754
520.18        11.38389
520.62        11.37393
521.06        11.37843
521.50        11.39594
521.93        11.41718
522.37        11.42143
522.81        11.40565
523.25        11.37343
523.69        11.33664
524.13        11.31438
524.57        11.31028
525.01        11.31818
525.45        11.32481
525.89        11.30917
526.32        11.26596
526.76        11.20523
527.20        11.14109
527.64         11.0959
528.08        11.07477
528.52        11.07056
528.96        11.07118
529.40        11.05779
529.83        11.02594
530.27        10.98247
530.71        10.93618
531.15        10.90164
531.59        10.88315
532.03         10.8751
532.46        10.86971
532.90        10.86343
533.34        10.85185
533.78        10.83096
534.22        10.80364
534.66        10.78703
535.09        10.77519
535.53         10.7427
535.97        10.69352
536.41        10.66243
536.85        10.65284
537.28        10.64586
537.72        10.64727
538.16        10.67342
538.60        10.72244
539.04        10.78741
539.47        10.84931
539.91        10.88557
540.35        10.89135
540.79        10.87823
541.22        10.86136
541.66        10.87003
542.10         10.9101
542.54        10.97016
542.97        11.04708
543.41        11.13962
543.85        11.24111
544.29        11.35407
544.72        11.45609
545.16        11.52118
545.60        11.54547
546.04        11.53903
546.47        11.53761
546.91        11.59832
547.35         11.7299
547.79        11.91173
548.22        12.10346
548.66        12.24052
549.10        12.32335
549.53        12.36754
549.97        12.39708
550.41        12.42167
550.84        12.46686
551.28        12.55506
551.72         12.6716
552.15        12.80442
552.59        12.96176
553.03        12.95627
553.46        13.16966
553.90         13.2498
554.34        13.30926
554.77        13.35146
555.21        13.39239
555.65        13.44731
556.08        13.51519
556.52        13.58437
556.96         13.6464
557.39        13.72549
557.83        13.80838
558.27        13.81878
558.70        13.77352
559.14        13.78207
559.57         13.8423
560.01        13.88419
560.45        13.90536
560.88         13.9458
561.32         14.0126
561.75        14.07968
562.19        14.14714
562.63        14.21214
563.06        14.27007
563.50        14.32286
563.93        14.36125
564.37        14.40794
564.80        14.47007
565.24        14.50791
565.68        14.49269
566.11        14.69448
566.55        14.58766
566.98        14.61465
567.42         14.6507
567.85        14.72887
568.29        14.85647
568.72        15.02865
569.16        15.23413
569.60        15.38626
570.03        15.53507
570.47        15.64605
570.90        15.73046
571.34        15.81955
571.77        15.88131
572.21        15.95287
572.64        16.02782
573.08        16.09159
573.51        16.17191
573.95        16.34686
574.38        16.58042
574.82        16.67844
