SpectraSmart Spectrum 2.9.0.0
--------- Device Information -----------
Spectrum Name :  反射率_0
Saving Time :  2024/04/27 00:29:11
Spectro-Module Model Name : SE2030-DUVN
Spectro-Module Serial Number : OS361AC55029948
Wavelength Start : 200
Wavelength End : 1025
Wavelength Unit : Wavelength(nm)
Spectrum Unit : Reflectance(%)
-----------Spectrum Setting ------------
Integration Time : 20ms
Average : 10
Boxcar : 0
Background removal :  enabled
linearity correction :  enabled
SC :  disabled
Intensity correction :  disabled
DWT denoise :  enabled
savitzky-golay :  disabled
FFT :  disabled
Running average :  disabled
Kalman :  disabled
High pass :  disabled
---------------BEGIN--------------------
Wavelength(nm)             Reflectance(%)
200.29               0
200.75        43.84367
201.21        41.36237
201.67        41.18042
202.13        42.63747
202.58         45.5258
203.04          51.084
203.50        59.79134
203.96        70.08815
204.42        79.84328
204.88        87.77921
205.34        92.61223
205.80        94.42727
206.26         93.5507
206.72        89.82028
207.18        85.21088
207.64        81.09995
208.10        77.34123
208.55        74.24571
209.01        70.54503
209.47        66.32748
209.93        63.85921
210.39        63.67036
210.85        65.82859
211.31        71.54546
211.77        83.27904
212.23        108.9283
212.69         172.438
213.14         280.708
213.60        280.1273
214.06        206.4791
214.52        154.9334
214.98        130.2256
215.44        117.7705
215.90        108.5884
216.36        102.6478
216.81        101.6981
217.27         106.619
217.73        120.6549
218.19        141.6143
218.65        150.1015
219.11        139.2675
219.57        121.6258
220.02        110.2023
220.48        112.8666
220.94        128.9979
221.40        159.9937
221.86        206.1625
222.32        240.7641
222.77        236.7325
223.23        210.9724
223.69        181.6074
224.15        159.1358
224.61        143.7385
225.06        131.5852
225.52        124.3068
225.98        122.9919
226.44        126.7244
226.90        134.7403
227.36        143.9509
227.81        148.6443
228.27        147.8941
228.73        143.4376
229.19         138.838
229.65        138.4035
230.10        142.2984
230.56        149.0346
231.02         155.663
231.48        157.6256
231.93        154.2376
232.39        148.2865
232.85        142.3398
233.31         139.689
233.77        140.7135
234.22        144.0167
234.68        148.4757
235.14        152.4477
235.60        155.2182
236.05        157.5137
236.51        158.5407
236.97         157.238
237.43        153.4387
237.88        147.3658
238.34        140.5275
238.80        135.9593
239.26        134.6302
239.71        137.1507
240.17        142.1423
240.63         146.342
241.08        147.8276
241.54        146.0412
242.00        143.7583
242.46        146.7387
242.91        159.2848
243.37        182.8401
243.83         218.132
244.28        249.0726
244.74        249.9477
245.20        220.2827
245.66         181.688
246.11        152.8226
246.57        134.6063
247.03        121.8911
247.48        111.0085
247.94        99.26779
248.40        88.93047
248.85        81.71394
249.31        78.03368
249.77        76.99792
250.22        77.84973
250.68        80.39201
251.14        84.28633
251.59        87.62341
252.05        89.25655
252.51        90.16926
252.96        90.40436
253.42        90.93065
253.88        91.85055
254.33        92.25718
254.79        94.36587
255.25        99.84412
255.70        108.1988
256.16        118.8986
256.62        127.7825
257.07        128.4035
257.53        122.9854
257.99         115.653
258.44        109.7599
258.90         108.706
259.35        110.9015
259.81        115.1848
260.27        119.5248
260.72        121.4627
261.18        121.2409
261.63        119.3989
262.09        117.6014
262.55        116.6361
263.00         116.331
263.46        116.5807
263.91        116.4184
264.37        115.3641
264.83        113.3544
265.28        110.7383
265.74        108.4353
266.19        106.9482
266.65        106.4712
267.11         106.555
267.56        106.8067
268.02        106.6559
268.47        105.9057
268.93        104.8516
269.38        103.5033
269.84        101.9996
270.30         100.412
270.75        98.67009
271.21        97.12801
271.66        96.21036
272.12        95.95204
272.57        96.12009
273.03        96.24731
273.48        95.51406
273.94        93.88281
274.39        91.60864
274.85        89.21881
275.31        87.14351
275.76        85.48287
276.22        84.19596
276.67        83.17321
277.13        82.51999
277.58        82.03895
278.04        81.72833
278.49        81.30525
278.95        80.59388
279.40        79.44521
279.86        78.10207
280.31        76.48824
280.77        74.77003
281.22        72.95107
281.68        71.19125
282.13        69.62182
282.59        68.63977
283.04        68.16177
283.50        68.09889
283.95        68.13472
284.41        67.82634
284.86        67.04507
285.32        65.99786
285.77        64.82189
286.22        63.84556
286.68         63.1403
287.13        62.53214
287.59        61.99858
288.04        61.41634
288.50        60.80298
288.95        60.15618
289.41         59.4971
289.86          58.702
290.32        57.84042
290.77        56.90363
291.22        56.02291
291.68        55.36506
292.13        54.93127
292.59        54.69742
293.04        54.57058
293.50        54.44569
293.95        54.27018
294.40        54.08045
294.86        53.91452
295.31        53.81018
295.77        53.79456
296.22        53.83442
296.68        53.91443
297.13         53.9808
297.58        54.03521
298.04        54.09545
298.49        54.19146
298.95        54.39956
299.40        54.70831
299.85        55.08493
300.31        55.46783
300.76        55.73667
301.21        55.87099
301.67        55.92028
302.12        55.89401
302.58        55.89961
303.03        55.92389
303.48          55.971
303.94        56.03968
304.39        56.06608
304.84        56.05863
305.30        56.04239
305.75        56.00587
306.20        56.00657
306.66        56.06634
307.11        56.15026
307.57        56.22441
308.02        56.16011
308.47        55.96389
308.93        55.67949
309.38        55.39524
309.83        55.31947
310.29        55.47526
310.74        55.78036
311.19        56.06855
311.65        56.06341
312.10        55.70218
312.55        55.08835
313.00        54.39926
313.46        53.89521
313.91        53.62608
314.36        53.52791
314.82        53.50406
315.27        53.41367
315.72        53.20727
316.18        52.95095
316.63        52.67854
317.08        52.46054
317.53        52.31146
317.99        52.18554
318.44        52.06513
318.89        51.91623
319.35         51.7249
319.80         51.5058
320.25        51.25711
320.70        50.97418
321.16         50.6607
321.61         50.3387
322.06        50.02187
322.51        49.74022
322.97        49.49412
323.42        49.27394
323.87        49.08838
324.32        48.95827
324.78        48.85856
325.23        48.81574
325.68        48.72278
326.13        48.41764
326.59        47.88701
327.04        47.20798
327.49        46.55201
327.94        46.19511
328.39        46.19144
328.85        46.43856
329.30        46.82503
329.75        47.04131
330.20        46.98199
330.66        46.72129
331.11        46.36623
331.56        46.05873
332.01        45.85455
332.46        45.69386
332.92        45.55065
333.37        45.46465
333.82        45.40481
334.27        45.38765
334.72        45.37367
335.17        45.27874
335.63        45.08677
336.08        44.85257
336.53        44.62289
336.98         44.4963
337.43         44.5025
337.88         44.5995
338.34         44.7747
338.79        45.05293
339.24        45.38663
339.69         45.7591
340.14        46.05651
340.59        46.10225
341.05        45.88211
341.50        45.45218
341.95        44.96234
342.40        44.64435
342.85        44.56578
343.30        44.67012
343.75        44.88036
344.20        45.06436
344.66         45.1732
345.11        45.23368
345.56        45.26821
346.01        45.31109
346.46        45.37274
346.91        45.43926
347.36        45.46781
347.81        45.40547
348.26        45.24936
348.72        45.01824
349.17        44.79965
349.62        44.74675
350.07        44.88179
350.52        45.16326
350.97        45.43784
351.42        45.45691
351.87        45.17614
352.32        44.68242
352.77        44.16172
353.22        43.88641
353.67        43.91409
354.13        44.16149
354.58        44.47609
355.03        44.59991
355.48        44.45811
355.93        44.12516
356.38        43.74341
356.83        43.52427
357.28        43.50846
357.73        43.62113
358.18        43.71982
358.63        43.58199
359.08        43.16677
359.53        42.56666
359.98        41.93697
360.43        41.49876
360.88        41.29906
361.33        41.26268
361.78        41.28025
362.23        41.18016
362.68        40.91611
363.13        40.54873
363.58        40.14304
364.03        39.79398
364.48        39.52827
364.93        39.30849
365.38        39.11008
365.83        38.90076
366.28        38.67179
366.73        38.44408
367.18        38.22178
367.63        38.00474
368.08        37.79332
368.53        37.57974
368.98        37.37439
369.43         37.1959
369.88        37.04481
370.33        36.91774
370.78        36.78413
371.23         36.5953
371.68        36.34344
372.13        36.04127
372.58        35.73918
373.03        35.51715
373.48        35.38815
373.93        35.32436
374.38        35.26266
374.83        35.10418
375.28        34.82666
375.72        34.45602
376.17        34.07182
376.62        33.74847
377.07        33.51425
377.52        33.35892
377.97        33.24619
378.42        33.12116
378.87        32.97102
379.32        32.80112
379.77        32.67361
380.22        32.68026
380.67        32.81957
381.11        33.06302
381.56        33.25667
382.01        33.17851
382.46        32.79847
382.91        32.22182
383.36        31.62575
383.81        31.25186
384.26        31.14505
384.71        31.22172
385.15        31.40017
385.60        31.53889
386.05        31.57836
386.50        31.56069
386.95        31.46977
387.40        31.28245
387.85        31.01746
388.29        30.66833
388.74         30.3437
389.19        30.12309
389.64        30.01775
390.09         29.9986
390.54        30.01512
390.98        29.97235
391.43        29.86432
391.88        29.71998
392.33        29.56743
392.78        29.44491
393.23        29.36359
393.67        29.29403
394.12        29.26146
394.57        29.24896
395.02        29.24992
395.47        29.25774
395.91        29.27073
396.36        29.26974
396.81        29.26259
397.26        29.25266
397.71        29.22293
398.15         29.1698
398.60        29.12877
399.05        28.98314
399.50        28.78956
399.95        28.83983
400.39        29.04818
400.84         28.8916
401.29        28.41288
401.74        28.13254
402.18        28.09048
402.63        27.98311
403.08        27.83701
403.53        27.81526
403.97        27.91523
404.42        28.09395
404.87        28.25787
405.32        28.25515
405.76        28.05729
406.21        27.72763
406.66        27.38572
407.11        27.22108
407.55        27.28431
408.00          27.509
408.45         27.7941
408.90        27.94094
409.34        27.88503
409.79        27.69443
410.24        27.46048
410.68        27.30494
411.13        27.26534
411.58         27.2977
412.03        27.34962
412.47        27.33946
412.92        27.23686
413.37        27.08729
413.81        26.93521
414.26        26.86207
414.71        26.87333
415.15        26.95267
415.60         27.0497
416.05        27.10668
416.49        27.10549
416.94        27.05954
417.39        27.00298
417.83        26.98526
418.28        27.01661
418.73        27.07426
419.17        27.13474
419.62        27.16346
420.07        27.15089
420.51        27.10527
420.96        27.04185
421.41        26.97611
421.85        26.90618
422.30        26.81731
422.74         26.7071
423.19        26.69154
423.64        26.72984
424.08        26.65586
424.53        26.47826
424.98        26.41556
425.42        26.49733
425.87         26.5414
426.31        26.53886
426.76        26.66875
427.21        26.85175
427.65        26.71756
428.10        26.37546
428.54        26.29795
428.99        26.52277
429.44        26.82702
429.88        27.08789
430.33        27.15179
430.77         27.0152
431.22         26.9167
431.66        26.88263
432.11        26.80876
432.56        26.74106
433.00         26.6974
433.45        26.61814
433.89        26.69385
434.34        26.92404
434.78        26.33416
435.23         26.3944
435.67        26.31429
436.12        26.45912
436.57        26.42787
437.01        26.23889
437.46        26.16117
437.90        26.19373
438.35        26.19198
438.79        26.14235
439.24        26.11404
439.68        26.10411
440.13        26.09872
440.57        26.09735
441.02        26.10887
441.46        26.12693
441.91        26.12072
442.35        26.08081
442.80         26.1677
443.24        26.31133
443.69        26.26928
444.13        26.07456
444.58        26.01595
445.02         26.1049
445.47         26.1891
445.91        26.24605
446.36        26.31712
446.80        26.38669
447.24        26.44346
447.69        26.48145
448.13        26.48163
448.58        26.44871
449.02        26.38468
449.47        26.30907
449.91        26.23852
450.36        26.18968
450.80        26.15629
451.25        26.14235
451.69        26.13279
452.13         26.1282
452.58        26.12678
453.02        26.13309
453.47        26.15749
453.91        26.19881
454.36        26.25656
454.80        26.30073
455.24        26.28541
455.69        26.21231
456.13        26.07776
456.58        25.95396
457.02        25.90908
457.46        25.96501
457.91        26.09878
458.35        26.22343
458.79        26.21067
459.24        26.06264
459.68        25.81338
460.13        25.58234
460.57        25.48369
461.01        25.56033
461.46        25.74937
461.90        25.99727
462.34        26.19468
462.79        26.29213
463.23         26.3283
463.68        26.29664
464.12        26.20543
464.56        26.06817
465.01         25.9182
465.45        25.75997
465.89        25.67225
466.34        25.66324
466.78        25.70905
467.22        25.79613
467.67        25.86975
468.11        25.92537
468.55        25.96632
468.99        25.98959
469.44        25.98868
469.88        25.96963
470.32        25.92952
470.77        25.89382
471.21        25.90994
471.65        25.98137
472.10        26.09536
472.54          26.212
472.98        26.27225
473.42        26.26096
473.87        26.21555
474.31         26.1443
474.75        26.05795
475.20        25.98998
475.64        25.98336
476.08        26.02655
476.52        26.03624
476.97        26.00539
477.41        25.98978
477.85        26.01112
478.29        26.04757
478.74        26.12074
479.18        26.28944
479.62        26.50147
480.06        26.62774
480.50        26.65583
480.95        26.61656
481.39        26.52851
481.83        26.64594
482.27        26.63519
482.72        26.76612
483.16        26.92443
483.60        27.02465
484.04        27.04077
484.48        27.13631
484.93        27.34496
485.37         27.0823
485.81         27.3101
486.25        27.35033
486.69        27.41849
487.14         27.6474
487.58        27.67597
488.02        27.77627
488.46        27.59049
488.90        27.71974
489.34        27.89626
489.79        28.06435
490.23         28.1317
490.67        28.25715
491.11        28.42612
491.55        28.47385
491.99        28.43387
492.43        28.47375
492.88        28.61183
493.32        28.76711
493.76        28.91263
494.20         29.0582
494.64        29.20378
495.08        29.28922
495.52        29.32687
495.96        29.52691
496.41        29.83222
496.85        29.79037
497.29        29.47061
497.73        29.67355
498.17        29.96748
498.61          30.135
499.05        30.04364
499.49         30.0948
499.93        30.21872
500.37        30.44352
500.82        30.69805
501.26         30.8822
501.70        30.97171
502.14        31.02903
502.58        31.09227
503.02        31.18923
503.46        31.32858
503.90        31.49902
504.34        31.65741
504.78        31.73215
505.22        31.71074
505.66        31.62369
506.10         31.5184
506.54        31.46805
506.98        31.49472
507.42        31.57574
507.86         31.6953
508.30        31.82587
508.74        31.95154
509.18        32.07916
509.62        32.19123
510.06        32.25976
510.50        32.28128
510.94        32.26025
511.38        32.22528
511.82        32.22556
512.26        32.27476
512.70         32.3635
513.14        32.46704
513.58        32.54281
514.02        32.57906
514.46          32.586
514.90        32.58765
515.34        32.62273
515.78        32.69678
516.22        32.79323
516.66        32.87852
517.10        32.90125
517.54        32.85186
517.98        32.75066
518.42        32.63145
518.86        32.54743
519.30        32.51424
519.74        32.51585
520.18        32.53617
520.62          32.548
521.06        32.54341
521.50        32.53598
521.93        32.52755
522.37        32.50845
522.81         32.4847
523.25        32.45236
523.69        32.42826
524.13        32.44241
524.57        32.49294
525.01        32.56271
525.45        32.61912
525.89        32.60938
526.32        32.51964
526.76        32.38174
527.20        32.21309
527.64        32.04407
528.08        31.89231
528.52        31.75183
528.96        31.64855
529.40        31.62073
529.83        31.66708
530.27        31.77747
530.71        31.89579
531.15        31.93389
531.59        31.87127
532.03        31.72907
532.46        31.55402
532.90        31.44605
533.34        31.42196
533.78        31.43485
534.22        31.44613
534.66        31.43485
535.09        31.36648
535.53        31.19496
535.97        30.96665
536.41        30.83134
536.85        30.81185
537.28        30.83727
537.72        30.89771
538.16        31.00062
538.60        31.13113
539.04        31.28332
539.47        31.42493
539.91         31.5268
540.35        31.57743
540.79        31.58813
541.22        31.58281
541.66        31.61325
542.10        31.68982
542.54        31.79962
542.97        31.92737
543.41        32.06171
543.85         32.1913
544.29        32.32442
544.72        32.45128
545.16        32.57758
545.60         32.6984
546.04        32.81523
546.47        32.94118
546.91        33.09302
547.35        33.26968
547.79        33.46765
548.22        33.66467
548.66        33.81893
549.10         33.9633
549.53        34.09262
549.97        34.22681
550.41        34.32153
550.84        34.41824
551.28        34.60221
551.72        34.82579
552.15        35.04082
552.59        35.27869
553.03        35.03952
553.46        35.39621
553.90        35.45941
554.34         35.5453
554.77         35.6447
555.21        35.77515
555.65        35.93403
556.08        36.10299
556.52        36.26355
556.96        36.38924
557.39        36.53849
557.83        36.67847
558.27         36.6047
558.70        36.38739
559.14        36.35975
559.57        36.52092
560.01        36.67128
560.45        36.77061
560.88        36.87119
561.32        36.98029
561.75        37.04867
562.19        37.10225
562.63        37.17356
563.06        37.26351
563.50        37.36521
563.93        37.44608
564.37        37.55351
564.80        37.69862
565.24        37.78134
565.68        37.72199
566.11        38.21664
566.55        37.89522
566.98        37.90191
567.42        37.90596
567.85        38.01675
568.29        38.25624
568.72        38.56504
569.16        38.93168
569.60        39.30626
570.03        39.33258
570.47        39.56929
570.90         39.9767
571.34        39.46005
571.77         39.9561
572.21        40.08915
572.64        40.11938
573.08        40.22601
573.51        40.34154
573.95        40.47646
574.38         40.7152
574.82        40.61877
