SpectraSmart Spectrum 2.9.0.0
--------- Device Information -----------
Spectrum Name :  反射率_0
Saving Time :  2024/04/27 00:26:18
Spectro-Module Model Name : SE2030-DUVN
Spectro-Module Serial Number : OS361AC55029948
Wavelength Start : 200
Wavelength End : 1025
Wavelength Unit : Wavelength(nm)
Spectrum Unit : Reflectance(%)
-----------Spectrum Setting ------------
Integration Time : 20ms
Average : 10
Boxcar : 0
Background removal :  enabled
linearity correction :  enabled
SC :  disabled
Intensity correction :  disabled
DWT denoise :  enabled
savitzky-golay :  disabled
FFT :  disabled
Running average :  disabled
Kalman :  disabled
High pass :  disabled
---------------BEGIN--------------------
Wavelength(nm)             Reflectance(%)
200.29               0
200.75        36.39325
201.21        32.15422
201.67        29.06594
202.13        27.21061
202.58        26.23088
203.04        26.45319
203.50        28.11111
203.96         31.0456
204.42        34.91745
204.88        39.40217
205.34        43.47298
205.80        45.90515
206.26        46.23756
206.72        44.46949
207.18         41.9664
207.64        39.91351
208.10        38.29542
208.55        37.17353
209.01        35.39971
209.47        31.87817
209.93        28.24025
210.39        26.17738
210.85        26.09378
211.31        28.35058
211.77        33.98629
212.23        46.97066
212.69        80.92271
213.14        145.7784
213.60        157.0539
214.06        121.6628
214.52        93.46071
214.98        78.63525
215.44        69.95332
215.90         62.3381
216.36        56.14361
216.81        52.89899
217.27        53.47938
217.73        59.43923
218.19        70.17772
218.65        76.69326
219.11        74.35559
219.57        67.81033
220.02         63.8279
220.48        67.40182
220.94          78.772
221.40        99.40707
221.86        128.3794
222.32        145.9414
222.77        136.1292
223.23        113.1163
223.69        91.53719
224.15        79.28463
224.61         74.6388
225.06        73.35339
225.52        74.47739
225.98        76.97095
226.44        80.33585
226.90         85.0098
227.36        89.60143
227.81        91.37572
228.27        90.14859
228.73        86.73781
229.19        83.45314
229.65        83.09422
230.10        85.73392
230.56        90.46386
231.02        95.21293
231.48        96.69603
231.93        94.38535
232.39        90.14344
232.85        85.85578
233.31        83.95955
233.77        84.71102
234.22        87.13892
234.68        90.17973
235.14        92.29501
235.60        92.90792
236.05        92.54505
236.51        91.19141
236.97        89.12228
237.43         86.6622
237.88          83.856
238.34        81.03494
238.80         79.0066
239.26        77.98488
239.71        78.33621
240.17        79.82121
240.63         82.2354
241.08        85.48486
241.54          89.209
242.00        93.37411
242.46        98.22179
242.91        104.7739
243.37        112.5529
243.83        122.2639
244.28        132.3201
244.74        136.1553
245.20        131.3747
245.66        120.8577
246.11        106.8937
246.57        90.71801
247.03        72.65196
247.48        54.09691
247.94        40.58725
248.40        34.87811
248.85        33.87584
249.31        35.33414
249.77         37.6421
250.22        40.42995
250.68        44.51603
251.14        49.57549
251.59        53.07503
252.05        53.69827
252.51        52.60686
252.96        50.74342
253.42        49.61921
253.88        49.51698
254.33        49.60858
254.79        51.53565
255.25          56.668
255.70        64.57116
256.16        74.68664
256.62        83.37537
257.07        84.88053
257.53        80.77797
257.99        74.70498
258.44        69.74374
258.90        68.76627
259.35        70.57314
259.81        74.05682
260.27        77.52145
260.72        78.89542
261.18        78.35684
261.63        76.56326
262.09        74.86179
262.55        74.01865
263.00        73.92905
263.46        74.37765
263.91        74.63806
264.37        74.25251
264.83        73.15064
265.28        71.59815
265.74        70.24096
266.19        69.45329
266.65        69.37518
267.11        69.69496
267.56        70.10671
268.02        70.15607
268.47        69.69232
268.93        68.90598
269.38        67.88673
269.84        66.85636
270.30        65.87543
270.75        64.87141
271.21        63.92722
271.66        63.08473
272.12        62.35874
272.57        61.71175
273.03        61.07749
273.48        60.30519
273.94        59.43139
274.39         58.4436
274.85        57.48208
275.31        56.54332
275.76        55.61177
276.22        54.75634
276.67        53.91942
277.13        53.17766
277.58        52.45426
278.04        51.76582
278.49        51.04786
278.95        50.37706
279.40         49.6747
279.86         49.0244
280.31        48.27176
280.77        47.36119
281.22        46.25475
281.68        45.10858
282.13        44.02396
282.59        43.27179
283.04        42.82441
283.50        42.61795
283.95        42.50979
284.41        42.31129
284.86         41.9522
285.32        41.52362
285.77        41.04224
286.22        40.61609
286.68        40.26669
287.13        39.91098
287.59        39.55576
288.04        39.15554
288.50        38.73949
288.95        38.29696
289.41        37.85524
289.86         37.3561
290.32        36.84663
290.77        36.31953
291.22        35.84537
291.68         35.5069
292.13         35.3008
292.59        35.22129
293.04        35.21393
293.50        35.22107
293.95        35.21328
294.40        35.21213
294.86        35.24817
295.31        35.35641
295.77        35.55459
296.22        35.81817
296.68         36.1261
297.13        36.42611
297.58        36.71517
298.04        37.00937
298.49         37.3333
298.95        37.74734
299.40        38.24233
299.85        38.78609
300.31        39.33142
300.76        39.79383
301.21        40.15495
301.67        40.45318
302.12        40.68003
302.58        40.89321
303.03        41.08115
303.48        41.25357
303.94        41.43893
304.39        41.63698
304.84        41.85983
305.30        42.11502
305.75        42.35067
306.20        42.54666
306.66        42.70699
307.11        42.82341
307.57        42.91866
308.02         42.9706
308.47        42.99508
308.93        42.99944
309.38        42.99613
309.83        43.06274
310.29         43.2047
310.74        43.39273
311.19        43.55239
311.65        43.55456
312.10         43.3723
312.55        43.05347
313.00        42.70054
313.46        42.46627
313.91        42.37008
314.36        42.37371
314.82        42.40312
315.27        42.34972
315.72        42.17791
316.18        41.93896
316.63        41.66272
317.08        41.41179
317.53        41.20578
317.99        41.01579
318.44        40.84387
318.89        40.68461
319.35        40.53103
319.80        40.38556
320.25        40.23285
320.70          40.046
321.16        39.81719
321.61        39.56731
322.06        39.30102
322.51        39.03379
322.97        38.76911
323.42        38.50509
323.87        38.26652
324.32        38.10001
324.78        37.99331
325.23        37.95564
325.68        37.89523
326.13        37.66883
326.59        37.25468
327.04        36.71688
327.49        36.17232
327.94        35.80936
328.39        35.66736
328.85        35.67297
329.30        35.77258
329.75        35.79165
330.20        35.67408
330.66        35.46893
331.11        35.22602
331.56        34.99757
332.01        34.80671
332.46        34.61538
332.92        34.43342
333.37        34.34296
333.82        34.33208
334.27        34.39904
334.72         34.4568
335.17        34.35187
335.63        34.05428
336.08        33.62843
336.53        33.19733
336.98        32.98004
337.43        33.03157
337.88        33.28115
338.34        33.61025
338.79        33.84831
339.24        33.91347
339.69        33.85621
340.14        33.70566
340.59        33.51603
341.05        33.32722
341.50        33.11555
341.95        32.91578
342.40        32.78531
342.85        32.73518
343.30         32.7588
343.75        32.81823
344.20        32.84344
344.66        32.81864
345.11         32.7596
345.56        32.68946
346.01        32.64825
346.46        32.65015
346.91        32.68237
347.36        32.72898
347.81        32.77174
348.26        32.79831
348.72         32.8035
349.17        32.79711
349.62        32.80862
350.07        32.83984
350.52        32.89197
350.97        32.89889
351.42        32.75757
351.87        32.46605
352.32        32.06664
352.77        31.69688
353.22        31.55605
353.67        31.67464
354.13        31.99252
354.58        32.35456
355.03        32.49828
355.48        32.35582
355.93        32.00661
356.38        31.60141
356.83        31.37087
357.28        31.36265
357.73        31.49282
358.18        31.64471
358.63        31.63232
359.08        31.40929
359.53        31.05379
359.98        30.64506
360.43        30.29103
360.88        30.02606
361.33        29.81196
361.78        29.63781
362.23        29.49266
362.68        29.36495
363.13        29.26212
363.58        29.15905
364.03        29.00889
364.48        28.80252
364.93        28.55057
365.38        28.28117
365.83        28.04732
366.28        27.86709
366.73        27.72655
367.18        27.61333
367.63        27.50643
368.08        27.39387
368.53        27.27897
368.98        27.15683
369.43        27.01705
369.88        26.85927
370.33        26.68934
370.78        26.50692
371.23        26.31614
371.68        26.12406
372.13        25.92878
372.58        25.75873
373.03        25.65743
373.48        25.62282
373.93        25.63419
374.38        25.63239
374.83         25.5233
375.28        25.29105
375.72        24.96831
376.17        24.62491
376.62        24.33453
377.07        24.12481
377.52        23.97636
377.97        23.88536
378.42        23.84677
378.87        23.84582
379.32         23.8725
379.77        23.90443
380.22        23.90668
380.67        23.86638
381.11        23.79642
381.56         23.6689
382.01        23.47521
382.46        23.23347
382.91        22.96273
383.36        22.72235
383.81        22.58861
384.26        22.56751
384.71        22.63616
385.15        22.73416
385.60        22.75961
386.05        22.68187
386.50        22.52596
386.95        22.33837
387.40        22.19497
387.85         22.1145
388.29        22.05945
388.74        22.02005
389.19         21.9296
389.64        21.77911
390.09        21.58974
390.54        21.40091
390.98          21.271
391.43         21.2274
391.88        21.24329
392.33        21.27947
392.78        21.28083
393.23        21.23426
393.67        21.14594
394.12        21.05882
394.57        20.99455
395.02        20.95623
395.47        20.92346
395.91        20.88468
396.36         20.8118
396.81         20.7146
397.26        20.61608
397.71        20.51519
398.15        20.41896
398.60        20.35792
399.05         20.2447
399.50        20.12981
399.95        20.23613
400.39        20.50137
400.84        20.54439
401.29        20.35429
401.74         20.2384
402.18        20.20725
402.63        20.05966
403.08        19.84406
403.53        19.72716
403.97        19.72806
404.42        19.80859
404.87        19.90164
405.32        19.89548
405.76        19.76614
406.21        19.56019
406.66        19.35996
407.11         19.2947
407.55        19.39438
408.00        19.60604
408.45        19.84178
408.90        19.93637
409.34        19.84002
409.79        19.61177
410.24        19.33789
410.68        19.13206
411.13        19.03051
411.58        19.00008
412.03        19.00274
412.47        18.97792
412.92        18.90251
413.37        18.80702
413.81        18.72468
414.26        18.71455
414.71         18.7777
415.15        18.89871
415.60        19.02228
416.05        19.07303
416.49         19.0306
416.94         18.9144
417.39        18.78121
417.83        18.71728
418.28        18.74197
418.73        18.82772
419.17        18.92804
419.62        18.96842
420.07        18.92994
420.51         18.8338
420.96        18.72111
421.41        18.64884
421.85        18.62424
422.30        18.62145
422.74        18.60575
423.19        18.61253
423.64        18.60401
424.08        18.47792
424.53        18.27335
424.98        18.19841
425.42        18.28739
425.87        18.39682
426.31        18.47781
426.76        18.58909
427.21        18.65633
427.65         18.4438
428.10         18.0742
428.54        17.92489
428.99        18.03916
429.44        18.29684
429.88         18.5699
430.33        18.58854
430.77        18.38195
431.22        18.33458
431.66        18.46594
432.11        18.48876
432.56        18.41516
433.00        18.48185
433.45        18.59009
433.89        18.43842
434.34        18.15147
434.78        17.66552
435.23        18.00046
435.67         18.0119
436.12        17.95981
436.57         17.9002
437.01        17.84696
437.46        17.81944
437.90        17.80923
438.35        17.76544
438.79        17.69715
439.24        17.67434
439.68        17.70256
440.13        17.76148
440.57        17.82574
441.02        17.87275
441.46        17.89082
441.91        17.83953
442.35        17.74978
442.80        17.84171
443.24        18.04363
443.69        18.03706
444.13        17.84021
444.58        17.76601
445.02         17.8235
445.47        17.84315
445.91        17.81644
446.36        17.81645
446.80         17.8384
447.24        17.86092
447.69        17.88624
448.13        17.91056
448.58        17.93351
449.02        17.95237
449.47        17.95744
449.91         17.9236
450.36        17.85575
450.80        17.76223
451.25        17.66932
451.69         17.6055
452.13        17.58075
452.58        17.58246
453.02        17.60115
453.47        17.62253
453.91        17.63945
454.36         17.6607
454.80        17.66798
455.24        17.63204
455.69        17.55605
456.13         17.4334
456.58        17.32167
457.02        17.28086
457.46        17.32625
457.91        17.43825
458.35        17.54041
458.79        17.51573
459.24        17.36389
459.68        17.12067
460.13        16.89186
460.57        16.78922
461.01        16.84871
461.46        17.01547
461.90        17.23695
462.34        17.40946
462.79        17.48944
463.23         17.5124
463.68        17.47923
464.12        17.40556
464.56        17.30454
465.01        17.19222
465.45        17.07572
465.89        17.01494
466.34        17.01416
466.78        17.05614
467.22        17.11942
467.67        17.14545
468.11        17.12778
468.55        17.07724
468.99        17.01012
469.44        16.95114
469.88        16.91201
470.32        16.88365
470.77        16.87296
471.21        16.89419
471.65        16.94418
472.10        17.02129
472.54        17.09981
472.98        17.14463
473.42        17.14786
473.87        17.12368
474.31        17.08312
474.75        17.06181
475.20        17.07215
475.64        17.09706
476.08        17.12982
476.52        17.15062
476.97        17.15453
477.41        17.15733
477.85        17.16867
478.29        17.17725
478.74        17.19932
479.18        17.27532
479.62         17.3818
480.06        17.45347
480.50        17.48427
480.95        17.48264
481.39        17.45218
481.83        17.56255
482.27        17.56389
482.72        17.67094
483.16        17.78782
483.60        17.85088
484.04        17.86325
484.48        17.87244
484.93        17.93451
485.37        17.88583
485.81        18.38979
486.25        18.23883
486.69        18.71685
487.14        18.75702
487.58        18.84679
488.02        18.90991
488.46        18.39499
488.90        18.57087
489.34        18.61117
489.79        18.78772
490.23        18.84432
490.67        19.00786
491.11        19.21658
491.55        19.15735
491.99        18.91235
492.43        18.85686
492.88        19.03115
493.32        19.24181
493.76         19.4317
494.20        19.59651
494.64        19.72195
495.08        19.78508
495.52        19.80915
495.96        19.94115
496.41        20.15762
496.85        20.17924
497.29        20.04714
497.73        20.26265
498.17        20.52498
498.61        20.72362
499.05        20.73757
499.49        20.74856
499.93        20.72078
500.37        20.77161
500.82        20.87983
501.26        20.95655
501.70        20.99769
502.14         21.0721
502.58        21.19282
503.02        21.33611
503.46        21.49559
503.90        21.67563
504.34        21.83445
504.78        21.90302
505.22        21.87138
505.66        21.76282
506.10         21.6366
506.54        21.58842
506.98        21.64389
507.42        21.77735
507.86        21.95031
508.30        22.09644
508.74        22.19216
509.18        22.25477
509.62        22.29842
510.06        22.34657
510.50        22.40558
510.94        22.46224
511.38        22.50821
511.82        22.53406
512.26        22.53896
512.70         22.5321
513.14        22.52102
513.58        22.51488
514.02        22.51827
514.46        22.52858
514.90        22.54852
515.34        22.58205
515.78        22.62663
516.22        22.67883
516.66        22.72591
517.10        22.74789
517.54         22.7402
517.98        22.70809
518.42        22.66287
518.86        22.62383
519.30        22.59763
519.74        22.58039
520.18        22.56808
520.62        22.55289
521.06        22.53355
521.50        22.51527
521.93        22.50228
522.37        22.49228
522.81        22.48806
523.25        22.48528
523.69        22.48433
524.13        22.48757
524.57        22.49165
525.01        22.49219
525.45        22.47933
525.89        22.43793
526.32        22.36478
526.76        22.27421
527.20        22.17439
527.64        22.07984
528.08        21.99779
528.52        21.92542
528.96        21.87151
529.40        21.84821
529.83        21.85343
530.27        21.88354
530.71        21.91391
531.15         21.9077
531.59        21.85618
532.03        21.76673
532.46        21.66075
532.90        21.58851
533.34        21.55834
533.78        21.54847
534.22        21.53605
534.66        21.51172
535.09        21.45468
535.53        21.32793
535.97        21.17473
536.41        21.11653
536.85         21.1678
537.28        21.27276
537.72        21.39331
538.16        21.48415
538.60        21.52657
539.04        21.53387
539.47        21.52252
539.91        21.53201
540.35        21.56954
540.79        21.62657
541.22        21.69204
541.66        21.75736
542.10        21.81668
542.54        21.87419
542.97         21.9392
543.41        22.03337
543.85        22.15583
544.29         22.3019
544.72        22.44446
545.16        22.55856
545.60        22.63632
546.04        22.68979
546.47        22.75282
546.91        22.87588
547.35        23.06467
547.79        23.30017
548.22        23.53989
548.66        23.71515
549.10        23.83918
549.53        23.92059
549.97        23.98854
550.41        24.03606
550.84        24.10131
551.28        24.23801
551.72        24.40889
552.15        24.57416
552.59        24.75445
553.03        24.60318
553.46        24.87606
553.90        24.95069
554.34        25.04859
554.77        25.15956
555.21        25.29224
555.65        25.43988
556.08        25.58634
556.52        25.71844
556.96        25.81684
557.39        25.92286
557.83        26.01486
558.27        25.95035
558.70        25.78181
559.14        25.74879
559.57        25.85342
560.01        25.95499
560.45        26.02879
560.88        26.11674
561.32        26.22306
561.75        26.30873
562.19        26.38415
562.63        26.46088
563.06        26.53521
563.50        26.60373
563.93        26.64721
564.37        26.70621
564.80        26.79413
565.24        26.84242
565.68        26.79358
566.11         27.1446
566.55        26.92453
566.98        26.93329
567.42        26.95509
567.85        27.10972
568.29         27.3913
568.72        27.71148
569.16         28.0695
569.60         28.2949
570.03        28.45877
570.47        28.66246
570.90        28.98682
571.34        28.60451
571.77        29.11511
572.21        29.23096
572.64         29.3438
573.08        29.56359
573.51        29.38193
573.95        29.57496
574.38        29.94994
574.82        30.20845
