SpectraSmart Spectrum 2.9.0.0
--------- Device Information -----------
Spectrum Name :  反射率_0
Saving Time :  2024/04/27 00:26:37
Spectro-Module Model Name : SE2030-DUVN
Spectro-Module Serial Number : OS361AC55029948
Wavelength Start : 200
Wavelength End : 1025
Wavelength Unit : Wavelength(nm)
Spectrum Unit : Reflectance(%)
-----------Spectrum Setting ------------
Integration Time : 20ms
Average : 10
Boxcar : 0
Background removal :  enabled
linearity correction :  enabled
SC :  disabled
Intensity correction :  disabled
DWT denoise :  enabled
savitzky-golay :  disabled
FFT :  disabled
Running average :  disabled
Kalman :  disabled
High pass :  disabled
---------------BEGIN--------------------
Wavelength(nm)             Reflectance(%)
200.29               0
200.75        36.73328
201.21        31.77052
201.67        26.82302
202.13        23.94446
202.58        23.16766
203.04        24.06981
203.50        26.43118
203.96        29.21355
204.42        31.52627
204.88        33.49556
205.34        35.36989
205.80         37.7608
206.26        40.29099
206.72        41.82225
207.18        42.13027
207.64        41.19033
208.10        38.94338
208.55        35.56397
209.01        29.86906
209.47        23.06241
209.93        18.88838
210.39        17.92482
210.85        19.01525
211.31        21.54329
211.77         26.3968
212.23        37.17867
212.69        65.56727
213.14        122.0782
213.60        135.2241
214.06        106.2323
214.52        81.87639
214.98        68.56385
215.44         60.2782
215.90        52.88211
216.36        46.24757
216.81        40.92198
217.27        37.39651
217.73        36.07118
218.19        38.06126
218.65        43.69804
219.11        50.27822
219.57        55.26813
220.02        59.34177
220.48        65.65427
220.94        75.71142
221.40        91.37147
221.86        112.7719
222.32        127.5599
222.77        123.9692
223.23        110.4445
223.69        96.44704
224.15        87.41036
224.61        82.76939
225.06        80.08048
225.52        79.36624
225.98        80.31667
226.44        82.56438
226.90        86.16937
227.36         89.9591
227.81        91.66437
228.27        91.06039
228.73        88.78107
229.19        86.49043
229.65        86.20523
230.10        87.97967
230.56        91.17471
231.02        94.31572
231.48        95.10706
231.93        93.20034
232.39        90.05339
232.85        86.96463
233.31        85.65616
233.77        86.28745
234.22        88.11649
234.68        90.48187
235.14        92.47884
235.60        93.71039
236.05        94.57442
236.51        94.61486
236.97        93.19212
237.43        90.28495
237.88          86.142
238.34        81.77724
238.80        79.16093
239.26        78.93716
239.71        81.47042
240.17         86.0479
240.63        90.66518
241.08        93.94383
241.54        95.41123
242.00        96.11896
242.46        98.74573
242.91        105.4981
243.37        116.2546
243.83        131.4627
244.28        145.0173
244.74        146.0598
245.20        134.5896
245.66        118.4177
246.11        103.7365
246.57        91.40145
247.03        79.38841
247.48        68.34796
247.94        61.41165
248.40        59.30681
248.85        59.96392
249.31        61.08796
249.77        60.18261
250.22        56.76709
250.68        50.97071
251.14        43.70187
251.59        39.54955
252.05        41.75851
252.51        48.36459
252.96        55.70577
253.42        60.84785
253.88        63.61055
254.33         64.6212
254.79        66.03574
255.25        69.47958
255.70         74.8241
256.16        81.55148
256.62        86.93563
257.07        86.91344
257.53        83.00689
257.99        77.85858
258.44        73.71641
258.90        72.86232
259.35        74.17188
259.81        76.91117
260.27        79.52194
260.72        80.14175
261.18        79.04858
261.63        76.78983
262.09        74.81623
262.55         74.0148
263.00        74.20734
263.46        75.10172
263.91        75.72697
264.37        75.30157
264.83        73.76987
265.28        71.55861
265.74        69.56387
266.19         68.4802
266.65        68.47517
267.11        69.11042
267.56        69.91422
268.02        70.16384
268.47        69.64265
268.93        68.65211
269.38        67.37238
269.84        66.15718
270.30         65.1122
270.75        64.10162
271.21        63.22052
271.66        62.54471
272.12        62.06126
272.57        61.70819
273.03        61.31155
273.48        60.54243
273.94        59.42424
274.39        58.04023
274.85        56.63777
275.31        55.36072
275.76        54.24088
276.22        53.29743
276.67        52.49601
277.13        51.94194
277.58        51.52974
278.04        51.24661
278.49        50.90904
278.95         50.4131
279.40        49.65993
279.86        48.80206
280.31        47.79641
280.77        46.75316
281.22        45.66636
281.68        44.62442
282.13        43.68573
282.59        43.06177
283.04        42.70502
283.50        42.58117
283.95        42.51934
284.41        42.28054
284.86         41.7994
285.32        41.18455
285.77        40.53205
286.22        40.06541
286.68        39.81822
287.13        39.66898
287.59        39.54086
288.04        39.25595
288.50        38.81791
288.95        38.26565
289.41        37.69267
289.86        37.13941
290.32        36.67305
290.77         36.2438
291.22        35.89168
291.68        35.65741
292.13         35.5225
292.59        35.50257
293.04        35.53477
293.50        35.54258
293.95        35.50594
294.40        35.46003
294.86        35.47676
295.31        35.65773
295.77        36.03053
296.22        36.54016
296.68         37.1328
297.13        37.70491
297.58        38.22759
298.04        38.72337
298.49        39.19467
298.95         39.6714
299.40        40.14691
299.85        40.60294
300.31        41.03779
300.76        41.43843
301.21        41.80556
301.67         42.1601
302.12         42.4698
302.58        42.75286
303.03        42.98387
303.48        43.18901
303.94        43.39666
304.39        43.60201
304.84        43.82308
305.30        44.06819
305.75        44.30246
306.20        44.53714
306.66        44.77842
307.11        45.00229
307.57        45.21165
308.02        45.34984
308.47        45.42438
308.93        45.45539
309.38        45.45701
309.83        45.51308
310.29        45.63537
310.74        45.79136
311.19        45.92406
311.65        45.93402
312.10        45.79427
312.55        45.53896
313.00        45.24292
313.46        45.01484
313.91        44.86613
314.36        44.77949
314.82        44.69415
315.27        44.52644
315.72        44.25493
316.18        43.92253
316.63        43.58203
317.08        43.33207
317.53        43.18936
317.99        43.11212
318.44        43.04653
318.89        42.89281
319.35        42.62693
319.80        42.28525
320.25        41.91256
320.70        41.58054
321.16        41.30991
321.61        41.09072
322.06        40.90427
322.51        40.72503
322.97        40.53506
323.42        40.34555
323.87        40.16082
324.32        39.99396
324.78        39.82779
325.23        39.67443
325.68        39.48094
326.13        39.17908
326.59        38.76868
327.04        38.29852
327.49        37.84027
327.94        37.50852
328.39        37.32318
328.85        37.22723
329.30        37.20919
329.75         37.1685
330.20        37.06936
330.66        36.93528
331.11        36.76609
331.56        36.53303
332.01        36.24099
332.46         35.8819
332.92        35.51115
333.37        35.29157
333.82        35.23833
334.27        35.32352
334.72        35.44209
335.17          35.408
335.63        35.17576
336.08        34.82596
336.53        34.45711
336.98        34.24867
337.43        34.24798
337.88        34.37879
338.34        34.58242
338.79        34.79714
339.24        34.96159
339.69        35.10195
340.14        35.14012
340.59        34.95284
341.05        34.55265
341.50        33.98208
341.95         33.4162
342.40        33.12584
342.85        33.16705
343.30        33.46189
343.75         33.8587
344.20        34.09853
344.66         34.1073
345.11        33.95971
345.56        33.74011
346.01        33.58759
346.46        33.54688
346.91        33.56293
347.36        33.60777
347.81        33.64974
348.26        33.66951
348.72        33.68301
349.17        33.67697
349.62        33.63586
350.07        33.56224
350.52        33.47027
350.97        33.35688
351.42        33.22375
351.87        33.08049
352.32        32.92313
352.77        32.80729
353.22        32.81194
353.67        32.93832
354.13        33.16333
354.58        33.37292
355.03        33.37642
355.48        33.13799
355.93        32.71984
356.38        32.27386
356.83        32.03103
357.28        32.03466
357.73        32.20583
358.18        32.41349
358.63        32.44234
359.08        32.23507
359.53        31.86958
359.98        31.43282
360.43         31.0498
360.88        30.75708
361.33        30.50961
361.78        30.28834
362.23        30.06942
362.68        29.84486
363.13        29.63855
363.58        29.43724
364.03        29.20873
364.48        28.95107
364.93        28.66914
365.38        28.40409
365.83        28.22939
366.28        28.15619
366.73        28.15512
367.18        28.17123
367.63        28.11815
368.08        27.97241
368.53        27.76106
368.98        27.51353
369.43        27.27701
369.88         27.0711
370.33        26.88354
370.78        26.71659
371.23        26.57624
371.68        26.46098
372.13        26.37016
372.58        26.29369
373.03        26.21119
373.48        26.11142
373.93        25.99215
374.38        25.84583
374.83        25.66626
375.28        25.45641
375.72        25.21658
376.17         24.9773
376.62        24.75082
377.07        24.54822
377.52        24.37609
377.97        24.23498
378.42        24.12651
378.87         24.0476
379.32        23.98459
379.77        23.94824
380.22        23.95519
380.67        23.99613
381.11        24.06945
381.56         24.0948
382.01        23.96707
382.46        23.68207
382.91        23.29498
383.36        22.91742
383.81        22.70065
384.26        22.66829
384.71        22.76999
385.15        22.93206
385.60           23.03
386.05        23.01791
386.50        22.92877
386.95        22.78697
387.40        22.63313
387.85        22.48757
388.29        22.32737
388.74        22.18299
389.19         22.0439
389.64          21.911
390.09        21.78959
390.54        21.69119
390.98        21.62541
391.43        21.60497
391.88        21.61752
392.33        21.64196
392.78        21.64992
393.23        21.63258
393.67        21.58298
394.12        21.53324
394.57        21.48967
395.02         21.4535
395.47        21.41447
395.91        21.36543
396.36        21.28456
396.81        21.18498
397.26        21.08347
397.71        20.98876
398.15        20.92322
398.60        20.91473
399.05        20.86683
399.50         20.8026
399.95        20.91042
400.39        21.12044
400.84        21.05321
401.29        20.73753
401.74        20.55203
402.18        20.52641
402.63        20.44141
403.08        20.31353
403.53        20.25956
403.97        20.28221
404.42        20.35291
404.87        20.42597
405.32        20.42466
405.76        20.32952
406.21        20.17175
406.66        20.00323
407.11        19.90824
407.55        19.91045
408.00        19.97618
408.45        20.05528
408.90        20.04941
409.34        19.93483
409.79        19.75439
410.24        19.56775
410.68        19.45006
411.13        19.42293
411.58        19.45729
412.03        19.51961
412.47        19.55504
412.92        19.53588
413.37        19.48573
413.81        19.41745
414.26        19.36485
414.71        19.33004
415.15        19.30946
415.60        19.28862
416.05         19.2653
416.49        19.24033
416.94        19.21267
417.39        19.19599
417.83        19.20644
418.28        19.24383
418.73        19.30129
419.17        19.35468
419.62        19.36611
420.07        19.33034
420.51        19.25628
420.96        19.17845
421.41         19.1463
421.85        19.16106
422.30        19.19565
422.74        19.21711
423.19        19.26589
423.64        19.30143
424.08        19.21469
424.53        19.02748
424.98        18.92636
425.42        18.94393
425.87        18.94481
426.31        18.91178
426.76        18.95392
427.21        19.00887
427.65        18.82503
428.10        18.50648
428.54        18.40489
428.99        18.55205
429.44        18.82801
429.88        19.10776
430.33        19.13257
430.77        18.93177
431.22         18.8798
431.66          18.995
432.11        18.99844
432.56        18.90421
433.00        18.94262
433.45        19.02925
433.89        18.89144
434.34        18.65945
434.78         18.2512
435.23        18.68081
435.67        18.71587
436.12         18.6135
436.57        18.43197
437.01        18.24094
437.46        18.16824
437.90        18.22627
438.35        18.32316
438.79        18.40264
439.24        18.44411
439.68        18.43364
440.13        18.38101
440.57        18.31211
441.02        18.29056
441.46        18.32778
441.91        18.35354
442.35        18.35989
442.80        18.51262
443.24        18.73207
443.69        18.73152
444.13        18.53516
444.58        18.45253
445.02        18.49681
445.47         18.4994
445.91        18.45853
446.36        18.45651
446.80        18.48998
447.24        18.53835
447.69        18.59018
448.13        18.61771
448.58         18.6179
449.02        18.59587
449.47        18.56179
449.91        18.52245
450.36        18.48724
450.80        18.44968
451.25        18.41721
451.69        18.38868
452.13          18.367
452.58        18.35244
453.02        18.33949
453.47        18.32072
453.91        18.29514
454.36        18.26774
454.80        18.23988
455.24        18.21322
455.69        18.19325
456.13        18.16437
456.58        18.14589
457.02        18.13891
457.46        18.14981
457.91        18.17602
458.35         18.1839
458.79        18.12662
459.24        18.01614
459.68        17.86068
460.13        17.72421
460.57        17.65604
461.01        17.68146
461.46        17.77011
461.90        17.89717
462.34        18.00489
462.79        18.06573
463.23        18.09735
463.68        18.09789
464.12        18.07753
464.56        18.03885
465.01        18.00021
465.45        17.94162
465.89        17.88772
466.34        17.84246
466.78        17.79777
467.22        17.77034
467.67        17.77044
468.11        17.80832
468.55        17.87231
468.99        17.93483
469.44        17.94884
469.88        17.90675
470.32        17.82215
470.77        17.72939
471.21        17.68784
471.65        17.71009
472.10        17.77976
472.54        17.86573
472.98        17.92521
473.42        17.94568
473.87        17.94746
474.31        17.93357
474.75        17.92537
475.20          17.934
475.64        17.94447
476.08        17.96318
476.52        17.99212
476.97        18.02979
477.41        18.08453
477.85        18.15121
478.29        18.19299
478.74        18.21963
479.18        18.28099
479.62        18.36296
480.06          18.414
480.50        18.43321
480.95        18.42505
481.39         18.3887
481.83        18.49517
482.27        18.48207
482.72        18.58334
483.16        18.70498
483.60        18.78334
484.04        18.79912
484.48        18.84208
484.93        19.00191
485.37        18.94123
485.81        19.28105
486.25        19.58571
486.69        19.70152
487.14        19.61189
487.58        19.82682
488.02        19.74547
488.46        19.53424
488.90         19.8978
489.34        19.65874
489.79         19.7821
490.23        19.87623
490.67        19.99453
491.11        20.09944
491.55        20.08462
491.99        19.99962
492.43        20.00966
492.88        20.13792
493.32        20.28753
493.76        20.43842
494.20        20.61593
494.64        20.81609
495.08        20.98715
495.52        21.11823
495.96        21.33058
496.41        21.57495
496.85        21.53266
497.29        21.27508
497.73        21.40529
498.17        21.62173
498.61        21.78551
499.05        21.78152
499.49        21.82216
499.93        21.86686
500.37         22.0338
500.82        22.27094
501.26        22.42927
501.70        22.49008
502.14        22.54256
502.58        22.61798
503.02        22.72165
503.46        22.85967
503.90        23.02788
504.34        23.18888
504.78        23.28055
505.22        23.29032
505.66        23.23968
506.10        23.16943
506.54        23.14479
506.98        23.18362
507.42         23.2659
507.86         23.3701
508.30        23.45955
508.74         23.5214
509.18        23.56974
509.62        23.60579
510.06        23.63103
510.50        23.64857
510.94          23.653
511.38        23.65997
511.82        23.69649
512.26        23.76655
512.70        23.86578
513.14        23.96505
513.58        24.01543
514.02          24.008
514.46        23.95682
514.90        23.90103
515.34        23.90467
515.78        23.97988
516.22        24.10316
516.66        24.23269
517.10        24.30181
517.54        24.29361
517.98        24.23166
518.42         24.1438
518.86        24.07409
519.30        24.03846
519.74        24.02327
520.18        24.02386
520.62        24.03304
521.06        24.04598
521.50        24.06725
521.93        24.08951
522.37        24.09039
522.81        24.06777
523.25        24.02166
523.69        23.96458
524.13        23.91814
524.57         23.8863
525.01        23.86408
525.45        23.83503
525.89        23.77235
526.32        23.67154
526.76          23.551
527.20        23.43456
527.64        23.35997
528.08          23.335
528.52        23.34614
528.96        23.37413
529.40        23.38861
529.83        23.37949
530.27        23.35735
530.71        23.32484
531.15        23.29014
531.59        23.25628
532.03         23.2154
532.46        23.17004
532.90        23.14189
533.34        23.12899
533.78        23.11736
534.22        23.08961
534.66        23.04601
535.09        22.96847
535.53        22.81428
535.97        22.62818
536.41        22.53873
536.85        22.56267
537.28         22.6441
537.72         22.7498
538.16        22.84077
538.60        22.89984
539.04        22.93994
539.47         22.9692
539.91        23.01573
540.35        23.08251
540.79        23.15951
541.22        23.24559
541.66        23.34984
542.10        23.46605
542.54        23.59084
542.97        23.70981
543.41        23.80891
543.85        23.88396
544.29        23.94734
544.72        24.00161
545.16        24.06756
545.60        24.14821
546.04        24.24066
546.47        24.36376
546.91        24.54203
547.35        24.76919
547.79        25.03335
548.22        25.28774
548.66        25.45619
549.10        25.55674
549.53        25.60076
549.97        25.63061
550.41        25.65925
550.84        25.73243
551.28        25.90032
551.72        26.11872
552.15        26.33674
552.59        26.56953
553.03        26.44455
553.46        26.76079
553.90        26.83051
554.34        26.89077
554.77        26.93748
555.21        26.99939
555.65        27.10154
556.08        27.23654
556.52        27.38383
556.96        27.50997
557.39          27.637
557.83        27.73638
558.27         27.6636
558.70        27.48246
559.14        27.45979
559.57        27.59848
560.01        27.74099
560.45        27.85351
560.88        27.96581
561.32        28.07757
561.75        28.16938
562.19        28.25363
562.63        28.29772
563.06        28.32366
563.50        28.43488
563.93        28.58138
564.37        28.66855
564.80        28.70185
565.24           28.68
565.68        28.57366
566.11        28.92862
566.55        28.71704
566.98        28.79702
567.42        28.90576
567.85        29.08834
568.29        29.34045
568.72         29.6585
569.16        30.04681
569.60        30.27193
570.03        30.41614
570.47        30.68651
570.90         30.9307
571.34        30.67331
571.77        31.04817
572.21        31.13068
572.64        31.24589
573.08        31.31799
573.51        31.39967
573.95        31.56668
574.38        31.81829
574.82        32.04286
