SpectraSmart Spectrum 2.9.0.0
--------- Device Information -----------
Spectrum Name :  反射率_0
Saving Time :  2024/04/27 00:22:03
Spectro-Module Model Name : SE2030-DUVN
Spectro-Module Serial Number : OS361AC55029948
Wavelength Start : 200
Wavelength End : 1025
Wavelength Unit : Wavelength(nm)
Spectrum Unit : Reflectance(%)
-----------Spectrum Setting ------------
Integration Time : 20ms
Average : 10
Boxcar : 0
Background removal :  enabled
linearity correction :  enabled
SC :  disabled
Intensity correction :  disabled
DWT denoise :  enabled
savitzky-golay :  disabled
FFT :  disabled
Running average :  disabled
Kalman :  disabled
High pass :  disabled
---------------BEGIN--------------------
Wavelength(nm)             Reflectance(%)
200.29               0
200.75        24.73601
201.21        23.47903
201.67        23.23681
202.13        24.77865
202.58        28.13122
203.04        33.98765
203.50        41.79124
203.96        47.88984
204.42        49.35299
204.88        45.91011
205.34        39.48269
205.80        35.19682
206.26          34.571
206.72        35.72881
207.18        36.99406
207.64        36.57765
208.10        34.15538
208.55        30.51319
209.01        24.98362
209.47        19.76416
209.93         18.0816
210.39        18.84088
210.85         21.2961
211.31        26.08525
211.77        35.10947
212.23        54.77438
212.69          102.56
213.14        179.2985
213.60        170.8421
214.06         112.178
214.52        73.95457
214.98        57.63015
215.44         51.4858
215.90        48.65643
216.36        48.05991
216.81        49.01449
217.27        51.46503
217.73        57.59857
218.19        65.03745
218.65        62.81638
219.11        50.52412
219.57        36.70795
220.02        28.56544
220.48        29.07285
220.94         37.4476
221.40         54.8145
221.86        80.93995
222.32        99.50574
222.77         95.3626
223.23        78.63202
223.69        61.39508
224.15        50.83362
224.61        45.89921
225.06        43.28695
225.52        42.11891
225.98        41.47075
226.44        41.01888
226.90        41.26745
227.36        41.60116
227.81        40.88659
228.27        39.26125
228.73        37.01243
229.19        35.46514
229.65         36.2434
230.10        39.28239
230.56        43.96323
231.02         48.6183
231.48        50.52444
231.93        49.23674
232.39        46.16336
232.85        42.97757
233.31        41.86309
233.77        43.08599
234.22        45.87254
234.68        49.24297
235.14        51.79052
235.60         53.0441
236.05        53.49475
236.51        53.40246
236.97        53.29174
237.43        53.47414
237.88        53.80987
238.34        54.32693
238.80        55.44901
239.26        57.41893
239.71        60.73716
240.17        65.39878
240.63        71.14144
241.08        77.51359
241.54        83.72099
242.00        89.69764
242.46        96.35271
242.91        105.1895
243.37        116.1321
243.83        129.2459
244.28        139.0821
244.74        136.5552
245.20        122.6043
245.66        105.4315
246.11        90.42901
246.57        78.20502
247.03        67.43477
247.48        58.73419
247.94        54.47011
248.40        54.62188
248.85        56.74501
249.31        59.36742
249.77        61.27633
250.22        62.35842
250.68        62.95641
251.14        62.80696
251.59        61.44496
252.05        59.51633
252.51         57.9867
252.96        56.81885
253.42         56.1737
253.88        55.98383
254.33        55.82957
254.79         57.1931
255.25        61.11185
255.70        67.19581
256.16         74.9418
256.62        81.31841
257.07        81.73972
257.53        77.65431
257.99        71.94998
258.44        67.15999
258.90        65.69513
259.35        66.43003
259.81        68.52446
260.27         70.4143
260.72        70.26311
261.18        68.39461
261.63        65.48757
262.09         62.9445
262.55        61.65318
263.00        61.45232
263.46        61.99803
263.91        62.42754
264.37        62.01869
264.83        60.69981
265.28        58.83481
265.74        57.14441
266.19        56.17269
266.65        56.04535
267.11        56.38092
267.56        56.81633
268.02        56.80309
268.47        56.17511
268.93        55.17743
269.38        53.89782
269.84        52.52884
270.30        51.16208
270.75        49.74421
271.21         48.4753
271.66        47.59346
272.12        47.12077
272.57        46.95329
273.03        46.84131
273.48        46.34921
273.94        45.44131
274.39        44.22702
274.85        42.97106
275.31        41.88533
275.76        41.01078
276.22        40.31937
276.67        39.73171
277.13        39.25081
277.58        38.79431
278.04        38.39628
278.49        37.97416
278.95        37.53225
279.40        37.00642
279.86         36.4744
280.31        35.86649
280.77        35.21501
281.22        34.49651
281.68        33.78957
282.13         33.1361
282.59        32.69098
283.04        32.42652
283.50        32.32043
283.95        32.26594
284.41        32.11275
284.86        31.82366
285.32         31.4771
285.77        31.13124
286.22         30.9376
286.68        30.91446
287.13        30.96208
287.59         31.0331
288.04        31.00729
288.50        30.87983
288.95        30.66707
289.41        30.40079
289.86        30.04975
290.32         29.6737
290.77        29.27595
291.22        28.95037
291.68        28.81931
292.13        28.89282
292.59        29.15402
293.04        29.53644
293.50        29.95081
293.95        30.35245
294.40        30.76426
294.86        31.19836
295.31        31.66826
295.77        32.18468
296.22        32.71966
296.68        33.27718
297.13        33.85267
297.58        34.45064
298.04        35.07639
298.49         35.7155
298.95         36.3624
299.40        36.99984
299.85        37.62315
300.31        38.23588
300.76        38.83218
301.21        39.40869
301.67        39.97286
302.12        40.48028
302.58        40.93197
303.03        41.30124
303.48        41.62271
303.94        41.93153
304.39        42.23525
304.84        42.55764
305.30        42.90368
305.75        43.24898
306.20        43.61838
306.66        44.01472
307.11        44.40651
307.57        44.77151
308.02        45.01617
308.47         45.1408
308.93        45.17675
309.38        45.16213
309.83         45.2175
310.29        45.36623
310.74        45.56983
311.19        45.75629
311.65        45.80021
312.10         45.6696
312.55        45.40773
313.00        45.11024
313.46          44.917
313.91        44.84217
314.36        44.85373
314.82        44.86344
315.27        44.74264
315.72        44.46025
316.18        44.07888
316.63        43.67214
317.08         43.3702
317.53        43.20278
317.99        43.11872
318.44        43.07063
318.89        42.96936
319.35        42.78427
319.80        42.54222
320.25        42.26088
320.70        41.96804
321.16        41.67404
321.61        41.38329
322.06        41.09028
322.51         40.7951
322.97        40.49481
323.42        40.19635
323.87        39.92472
324.32        39.72302
324.78         39.5781
325.23        39.49907
325.68        39.39435
326.13        39.12539
326.59        38.67204
327.04        38.09644
327.49        37.51799
327.94        37.12782
328.39        36.96445
328.85        36.95469
329.30        37.03382
329.75        37.00679
330.20        36.81303
330.66        36.50298
331.11        36.15257
331.56        35.85438
332.01        35.63901
332.46        35.46131
332.92        35.28874
333.37        35.13147
333.82        34.96274
334.27        34.80333
334.72        34.63191
335.17         34.4017
335.63        34.11018
336.08        33.79425
336.53        33.50696
336.98        33.35071
337.43        33.34519
337.88        33.44469
338.34        33.59558
338.79        33.74069
339.24        33.82668
339.69         33.8674
340.14        33.81349
340.59        33.59486
341.05        33.22752
341.50        32.73751
341.95        32.24384
342.40        31.92784
342.85        31.82969
343.30        31.90179
343.75        32.04801
344.20         32.1038
344.66        32.02417
345.11        31.85626
345.56        31.65648
346.01        31.51512
346.46        31.46317
346.91        31.47075
347.36        31.50789
347.81        31.53723
348.26        31.54179
348.72        31.52592
349.17        31.50902
349.62        31.53363
350.07        31.60004
350.52        31.69544
350.97         31.7424
351.42        31.62172
351.87         31.3258
352.32        30.90604
352.77        30.49089
353.22        30.26634
353.67        30.26515
354.13        30.42872
354.58        30.64401
355.03        30.71931
355.48        30.60159
355.93        30.35567
356.38        30.06492
356.83        29.85377
357.28         29.7542
357.73        29.71696
358.18         29.7072
358.63        29.67473
359.08        29.59859
359.53        29.49945
359.98        29.37264
360.43        29.20463
360.88        28.99523
361.33        28.74253
361.78        28.47098
362.23        28.22567
362.68        28.02229
363.13        27.85982
363.58         27.7106
364.03        27.52513
364.48        27.29471
364.93        27.03322
365.38        26.78782
365.83        26.63639
366.28        26.58997
366.73        26.61576
367.18        26.64701
367.63        26.58081
368.08        26.39376
368.53        26.12166
368.98        25.81432
369.43        25.55075
369.88        25.35842
370.33        25.21577
370.78        25.11022
371.23        25.02149
371.68         24.9382
372.13        24.86665
372.58        24.80083
373.03        24.72731
373.48        24.63937
373.93        24.53336
374.38        24.40427
374.83        24.25103
375.28        24.07718
375.72        23.88063
376.17        23.69108
376.62        23.52133
377.07        23.37877
377.52        23.26638
377.97        23.17412
378.42        23.08636
378.87        22.99848
379.32        22.90669
379.77        22.83229
380.22        22.80694
380.67        22.82791
381.11        22.88961
381.56        22.92073
382.01        22.82846
382.46        22.60457
382.91        22.29467
383.36        21.98728
383.81        21.80222
384.26        21.75769
384.71         21.8125
385.15        21.90738
385.60        21.94453
386.05        21.88961
386.50        21.77111
386.95        21.61213
387.40        21.45001
387.85        21.30207
388.29        21.14633
388.74        21.00823
389.19        20.87276
389.64        20.73716
390.09         20.6043
390.54        20.48255
390.98        20.37892
391.43        20.30846
391.88        20.26552
392.33        20.23383
392.78         20.1898
393.23        20.12909
393.67        20.04724
394.12        19.98132
394.57        19.94756
395.02        19.94619
395.47        19.96055
395.91         19.9733
396.36        19.94464
396.81        19.87894
397.26        19.79722
397.71        19.70572
398.15        19.62461
398.60        19.58455
399.05        19.49646
399.50        19.39939
399.95        19.49392
400.39        19.71834
400.84         19.7131
401.29        19.48037
401.74        19.33306
402.18        19.28895
402.63        19.15365
403.08        18.96818
403.53        18.88382
403.97        18.91149
404.42        19.00756
404.87         19.1106
405.32        19.11897
405.76        19.00709
406.21        18.82062
406.66        18.61278
407.11        18.46594
407.55        18.41026
408.00        18.41517
408.45        18.45542
408.90        18.47892
409.34        18.46318
409.79        18.42044
410.24        18.37487
410.68         18.3545
411.13        18.36662
411.58        18.39967
412.03        18.40524
412.47        18.30774
412.92        18.09824
413.37        17.82237
413.81        17.56243
414.26        17.44604
414.71        17.48742
415.15        17.65264
415.60        17.86798
416.05        18.01505
416.49         18.0493
416.94        17.99847
417.39        17.89815
417.83        17.80442
418.28        17.73829
418.73        17.68208
419.17        17.63398
419.62        17.59497
420.07         17.5662
420.51         17.5495
420.96        17.55169
421.41        17.57396
421.85        17.60389
422.30        17.62715
422.74        17.62283
423.19        17.64293
423.64        17.65736
424.08        17.56506
424.53        17.38689
424.98        17.29667
425.42        17.32587
425.87        17.34883
426.31        17.35763
426.76        17.46521
427.21        17.60996
427.65        17.54654
428.10        17.33715
428.54        17.26031
428.99        17.34107
429.44        17.49459
429.88        17.63146
430.33        17.54697
430.77        17.28872
431.22        17.20324
431.66        17.31017
432.11        17.34524
432.56        17.31689
433.00        17.44931
433.45        17.63092
433.89        17.53415
434.34        17.26482
434.78        16.77153
435.23        17.04374
435.67         17.0349
436.12        16.99787
436.57        16.96035
437.01        16.93489
437.46        16.95082
437.90         16.9957
438.35        17.01344
438.79        16.99917
439.24        17.00403
439.68         17.0305
440.13        17.06104
440.57        17.08773
441.02        17.11817
441.46        17.14868
441.91        17.13345
442.35        17.08302
442.80        17.18253
443.24         17.3596
443.69        17.31615
444.13        17.09183
444.58         17.0211
445.02        17.11751
445.47        17.20473
445.91        17.24828
446.36        17.27841
446.80        17.28312
447.24         17.2592
447.69        17.22807
448.13         17.2158
448.58        17.23283
449.02        17.26605
449.47        17.30756
449.91        17.33582
450.36        17.34879
450.80        17.35014
451.25        17.34418
451.69        17.32536
452.13        17.29782
452.58        17.25995
453.02        17.22063
453.47        17.19756
453.91        17.19403
454.36        17.20877
454.80        17.22235
455.24        17.20224
455.69        17.14696
456.13        17.05305
456.58        16.96256
457.02        16.91139
457.46        16.91314
457.91        16.95574
458.35        16.98805
458.79        16.93405
459.24        16.80106
459.68        16.61158
460.13        16.44526
460.57        16.37708
461.01        16.43382
461.46        16.56999
461.90        16.75073
462.34        16.90294
462.79        16.99056
463.23        17.03798
463.68         17.0265
464.12        16.94081
464.56        16.79088
465.01        16.61012
465.45        16.42751
465.89        16.32672
466.34        16.31837
466.78        16.37987
467.22        16.48287
467.67        16.55767
468.11        16.58976
468.55        16.58677
468.99        16.56963
469.44        16.57172
469.88        16.60237
470.32        16.64733
470.77        16.68684
471.21         16.6954
471.65        16.66759
472.10        16.61897
472.54        16.57011
472.98        16.55762
473.42        16.58874
473.87        16.65452
474.31        16.72554
474.75         16.7733
475.20        16.79339
475.64         16.7894
476.08        16.77709
476.52        16.77109
476.97        16.77783
477.41        16.80157
477.85        16.84315
478.29        16.87976
478.74         16.9222
479.18        17.01297
479.62        17.13496
480.06        17.23297
480.50        17.29996
480.95        17.33681
481.39        17.33463
481.83        17.44833
482.27        17.43068
482.72        17.49899
483.16        17.57817
483.60        17.64591
484.04        17.67771
484.48        17.74546
484.93        17.95043
485.37        17.94167
485.81         18.1432
486.25        18.65419
486.69         18.2047
487.14        17.98409
487.58        18.43643
488.02         18.8657
488.46        18.52417
488.90        18.68166
489.34        18.86588
489.79        19.03846
490.23        19.08791
490.67        19.24746
491.11        19.47431
491.55        19.49169
491.99        19.34879
492.43        19.33691
492.88        19.48342
493.32        19.63271
493.76        19.75956
494.20        19.90829
494.64        20.07612
495.08        20.20736
495.52        20.31385
495.96        20.54338
496.41        20.85127
496.85        20.93177
497.29        20.81127
497.73        20.98585
498.17        21.16522
498.61         21.3052
499.05        21.31127
499.49        21.35385
499.93        21.40104
500.37        21.59962
500.82        21.88976
501.26        22.09037
501.70        22.17531
502.14        22.24237
502.58        22.32229
503.02        22.41904
503.46         22.5397
503.90        22.67926
504.34          22.804
504.78        22.85968
505.22        22.83824
505.66        22.76315
506.10        22.67673
506.54        22.64436
506.98        22.68447
507.42        22.77761
507.86        22.90336
508.30        23.02637
508.74        23.13116
509.18        23.22716
509.62        23.30945
510.06          23.371
510.50        23.41202
510.94        23.42941
511.38        23.43762
511.82        23.46334
512.26        23.51212
512.70        23.57892
513.14        23.64613
513.58        23.68271
514.02        23.68328
514.46         23.6598
514.90         23.6313
515.34        23.62872
515.78        23.65802
516.22        23.70429
516.66        23.75607
517.10        23.79501
517.54         23.8144
517.98        23.82463
518.42        23.81565
518.86        23.77143
519.30          23.695
519.74         23.5904
520.18        23.49651
520.62          23.474
521.06        23.53248
521.50        23.65616
521.93        23.79128
522.37        23.83925
522.81        23.78121
523.25        23.64409
523.69        23.48841
524.13        23.40956
524.57        23.42661
525.01        23.50571
525.45        23.59322
525.89        23.60319
526.32        23.51322
526.76        23.36398
527.20        23.19297
527.64        23.05824
528.08        22.97862
528.52        22.93287
528.96        22.91503
529.40        22.91722
529.83        22.92962
530.27        22.95661
530.71        22.97533
531.15        22.94966
531.59        22.87462
532.03        22.75929
532.46        22.62891
532.90        22.54207
533.34        22.50783
533.78        22.49807
534.22         22.4934
534.66        22.49023
535.09        22.46429
535.53        22.37562
535.97        22.24547
536.41        22.16409
536.85        22.14406
537.28         22.1404
537.72        22.15419
538.16         22.2043
538.60        22.28497
539.04        22.38781
539.47        22.48918
539.91        22.56711
540.35        22.61169
540.79        22.63216
541.22        22.64048
541.66        22.66498
542.10         22.7123
542.54        22.77663
542.97        22.85467
543.41        22.95061
543.85        23.05913
544.29        23.18157
544.72        23.30679
545.16         23.4325
545.60        23.55334
546.04        23.67429
546.47        23.80135
546.91        23.94087
547.35        24.09064
547.79        24.24558
548.22        24.40158
548.66        24.54811
549.10        24.71051
549.53        24.87969
549.97        25.04574
550.41        25.13507
550.84        25.17271
551.28        25.23769
551.72        25.32883
552.15        25.46464
552.59        25.67966
553.03        25.58929
553.46        25.95077
553.90        26.07532
554.34        26.18123
554.77         26.2741
555.21        26.37012
555.65        26.47251
556.08        26.57304
556.52        26.65595
556.96        26.71366
557.39        26.80849
557.83        26.91982
558.27        26.89464
558.70        26.77037
559.14        26.76687
559.57        26.87845
560.01        26.96737
560.45        27.01728
560.88        27.08305
561.32        27.17344
561.75        27.25506
562.19         27.3381
562.63        27.40676
563.06        27.46888
563.50        27.58199
563.93        27.70371
564.37        27.78653
564.80        27.83627
565.24        27.82621
565.68        27.71497
566.11        28.02347
566.55        27.75387
566.98        27.74277
567.42        27.75806
567.85        27.87196
568.29        28.09508
568.72        28.42072
569.16        28.80741
569.60        29.01521
570.03        29.12469
570.47        29.17294
570.90        29.24092
571.34        29.10663
571.77        29.37784
572.21        29.61004
572.64        29.58348
573.08        30.03886
573.51        29.85842
573.95         29.8849
574.38        29.90231
574.82        30.10116
