SpectraSmart Spectrum 2.9.0.0
--------- Device Information -----------
Spectrum Name :  反射率_0
Saving Time :  2024/04/27 00:29:00
Spectro-Module Model Name : SE2030-DUVN
Spectro-Module Serial Number : OS361AC55029948
Wavelength Start : 200
Wavelength End : 1025
Wavelength Unit : Wavelength(nm)
Spectrum Unit : Reflectance(%)
-----------Spectrum Setting ------------
Integration Time : 20ms
Average : 10
Boxcar : 0
Background removal :  enabled
linearity correction :  enabled
SC :  disabled
Intensity correction :  disabled
DWT denoise :  enabled
savitzky-golay :  disabled
FFT :  disabled
Running average :  disabled
Kalman :  disabled
High pass :  disabled
---------------BEGIN--------------------
Wavelength(nm)             Reflectance(%)
200.29               0
200.75        52.33874
201.21        52.44737
201.67        52.48115
202.13        51.90704
202.58        50.62619
203.04        49.15413
203.50        48.26888
203.96        49.77057
204.42        54.68279
204.88        62.43477
205.34        70.86411
205.80        76.25777
206.26           77.23
206.72        74.56601
207.18        70.57044
207.64        67.13425
208.10        64.35396
208.55        62.17269
209.01        59.19162
209.47         54.9906
209.93        51.60662
210.39        50.10629
210.85        51.04027
211.31        55.39714
211.77        65.06336
212.23        86.92576
212.69        140.6929
213.14        227.9702
213.60        219.6094
214.06        154.3611
214.52        111.9732
214.98        94.65547
215.44        89.33669
215.90        88.09956
216.36          89.867
216.81        94.15921
217.27        101.2404
217.73        115.1205
218.19        133.0593
218.65        136.6775
219.11        121.9919
219.57        101.7526
220.02        89.42868
220.48        92.55092
220.94        110.4103
221.40        145.3775
221.86        196.8891
222.32        232.4015
222.77        222.5144
223.23        188.4562
223.69        153.8873
224.15        132.3765
224.61        122.1652
225.06        116.9308
225.52        115.7923
225.98        117.6243
226.44        121.6157
226.90        128.1395
227.36        135.2567
227.81          139.03
228.27        138.9505
228.73        136.0332
229.19        132.9868
229.65        133.2341
230.10        136.8719
230.56        142.7374
231.02         148.515
231.48        150.5636
231.93        148.2731
232.39        143.9858
232.85        139.4693
233.31        137.0339
233.77         137.004
234.22        138.3313
234.68        140.6582
235.14        143.5911
235.60        146.7433
236.05        150.5419
236.51        153.4763
236.97        152.9024
237.43        148.0786
237.88         139.724
238.34        130.1993
238.80        123.8924
239.26        122.2935
239.71        125.7472
240.17        132.9678
240.63        140.2684
241.08        145.1467
241.54        147.0244
242.00        148.0681
242.46        153.4067
242.91        167.0759
243.37        189.5429
243.83        220.3243
244.28        243.0899
244.74        234.6279
245.20        198.4955
245.66        156.9461
246.11        126.1287
246.57        106.0388
247.03        91.61044
247.48        81.80022
247.94        77.08122
248.40        76.66486
248.85        78.74155
249.31        81.14101
249.77        81.56844
250.22        79.71941
250.68        75.47588
251.14        69.67467
251.59        66.32004
252.05        68.39521
252.51        74.91017
252.96        81.81357
253.42        85.94796
253.88         87.4091
254.33        86.77864
254.79        87.99616
255.25         94.4317
255.70          105.49
256.16        119.8297
256.62        131.4263
257.07        131.3321
257.53        122.5918
257.99        111.2866
258.44        102.4147
258.90        100.2925
259.35         102.937
259.81        108.4763
260.27        114.0735
260.72         116.252
261.18        115.2862
261.63        112.3281
262.09        109.6193
262.55        108.5741
263.00        108.9896
263.46        110.3845
263.91        111.4561
264.37        111.2654
264.83        109.6757
265.28        107.2074
265.74        104.9534
266.19        103.6517
266.65         103.534
267.11        104.0718
267.56        104.7421
268.02         104.776
268.47        103.9372
268.93        102.5945
269.38        100.9164
269.84        99.27407
270.30        97.77873
270.75        96.28001
271.21        94.97713
271.66        94.05513
272.12        93.52045
272.57        93.26496
273.03        92.95178
273.48        91.97225
273.94        90.33573
274.39        88.17995
274.85        86.02419
275.31        84.30586
275.76        83.07153
276.22        82.27031
276.67        81.58565
277.13        80.81193
277.58        79.76265
278.04        78.57862
278.49        77.31342
278.95        76.28061
279.40        75.40948
279.86        74.74313
280.31         73.9356
280.77        72.75721
281.22        71.12153
281.68        69.31588
282.13        67.59821
282.59        66.52741
283.04        66.07281
283.50        66.09368
283.95        66.22955
284.41        65.97737
284.86        65.19587
285.32        64.11314
285.77        62.93357
286.22        62.07145
286.68        61.59261
287.13        61.27734
287.59        60.98756
288.04        60.42789
288.50        59.59787
288.95        58.58056
289.41        57.51731
289.86        56.46016
290.32        55.52561
290.77        54.65477
291.22        53.93756
291.68        53.47973
292.13        53.25098
292.59        53.23471
293.04        53.31809
293.50        53.35984
293.95        53.29609
294.40        53.16402
294.86        53.00267
295.31        52.86286
295.77        52.78411
296.22        52.73547
296.68        52.73474
297.13        52.77824
297.58        52.87309
298.04        53.02179
298.49        53.21074
298.95        53.44318
299.40        53.69244
299.85        53.95284
300.31        54.19732
300.76        54.35892
301.21        54.43828
301.67        54.47523
302.12        54.47558
302.58        54.53764
303.03          54.643
303.48        54.79405
303.94        54.98637
304.39        55.15351
304.84        55.29239
305.30        55.41341
305.75        55.48568
306.20        55.54144
306.66        55.59697
307.11        55.62811
307.57        55.61068
308.02        55.43223
308.47        55.11311
308.93        54.70409
309.38        54.31263
309.83        54.16903
310.29        54.30491
310.74        54.64017
311.19        54.99644
311.65        55.07449
312.10        54.79868
312.55        54.26334
313.00        53.65722
313.46        53.26322
313.91        53.12822
314.36        53.17741
314.82        53.26264
315.27         53.1629
315.72        52.81898
316.18        52.32691
316.63        51.80357
317.08        51.44514
317.53        51.29534
317.99        51.27793
318.44        51.30162
318.89        51.20765
319.35        50.95127
319.80        50.58691
320.25        50.18188
320.70        49.84109
321.16        49.59377
321.61        49.42145
322.06        49.27879
322.51        49.10123
322.97        48.86222
323.42        48.58571
323.87        48.31857
324.32        48.14168
324.78        48.05048
325.23        48.04753
325.68        48.01581
326.13        47.77875
326.59        47.30777
327.04        46.68028
327.49        46.05167
327.94         45.6699
328.39        45.58688
328.85        45.71363
329.30        45.95119
329.75        46.02004
330.20        45.83647
330.66          45.473
331.11        45.06487
331.56         44.7952
332.01        44.71817
332.46        44.75921
332.92        44.83134
333.37        44.86258
333.82        44.79309
334.27        44.67413
334.72        44.51428
335.17        44.31762
335.63        44.09806
336.08        43.87283
336.53        43.69919
336.98        43.69323
337.43        43.86943
337.88        44.18354
338.34        44.53083
338.79        44.77527
339.24        44.84556
339.69        44.78363
340.14        44.61449
340.59        44.39083
341.05         44.1621
341.50        43.91571
341.95        43.71535
342.40        43.65664
342.85        43.75305
343.30        43.97866
343.75        44.25595
344.20        44.45031
344.66        44.52187
345.11        44.49781
345.56        44.41497
346.01         44.3408
346.46        44.30344
346.91        44.28737
347.36        44.28278
347.81        44.27975
348.26        44.27194
348.72         44.2608
349.17        44.25734
349.62        44.29348
350.07        44.36487
350.52         44.4605
350.97        44.50764
351.42        44.39397
351.87        44.11127
352.32        43.70829
352.77        43.30203
353.22        43.05918
353.67        43.01534
354.13        43.12516
354.58        43.29618
355.03        43.36735
355.48        43.28761
355.93        43.09374
356.38        42.87072
356.83        42.74825
357.28         42.7458
357.73         42.8128
358.18        42.84232
358.63        42.66985
359.08        42.27019
359.53         41.7146
359.98        41.13152
360.43        40.70293
360.88        40.46947
361.33        40.37628
361.78        40.33551
362.23        40.20655
362.68        39.95327
363.13        39.62441
363.58        39.27766
364.03        38.99844
364.48        38.80478
364.93        38.65668
365.38        38.51868
365.83        38.34166
366.28        38.11125
366.73        37.85115
367.18        37.57012
367.63        37.27701
368.08        36.98029
368.53         36.6767
368.98        36.38571
369.43         36.1386
369.88         35.9393
370.33         35.7811
370.78        35.63434
371.23        35.44866
371.68        35.21355
372.13         34.9444
372.58        34.67326
373.03        34.45178
373.48         34.2896
373.93        34.16462
374.38        34.05138
374.83        33.91124
375.28        33.73266
375.72        33.52443
376.17        33.31224
376.62        33.09127
377.07        32.87347
377.52        32.66731
377.97        32.49237
378.42        32.38557
378.87         32.3475
379.32         32.3467
379.77        32.37478
380.22        32.42089
380.67        32.46557
381.11        32.51767
381.56        32.48434
382.01        32.25294
382.46        31.82961
382.91        31.28244
383.36        30.75295
383.81        30.43056
384.26         30.3432
384.71        30.42949
385.15        30.60005
385.60        30.69794
386.05        30.66908
386.50         30.5589
386.95        30.39084
387.40        30.20548
387.85        30.02623
388.29         29.8198
388.74        29.64556
389.19        29.51769
389.64        29.43433
390.09        29.38714
390.54        29.34941
390.98        29.26596
391.43        29.14499
391.88        29.00358
392.33        28.86045
392.78        28.74234
393.23        28.65521
393.67        28.57163
394.12        28.52205
394.57        28.49695
395.02        28.48875
395.47        28.48915
395.91          28.479
396.36        28.41163
396.81        28.29888
397.26        28.16529
397.71         28.0309
398.15        27.94205
398.60        27.94013
399.05        27.89112
399.50        27.82617
399.95        27.99827
400.39        28.31331
400.84         28.2641
401.29        27.87857
401.74        27.64856
402.18        27.60943
402.63        27.46608
403.08        27.25436
403.53        27.15346
403.97        27.17179
404.42        27.26865
404.87        27.36581
405.32        27.33205
405.76         27.1416
406.21        26.85241
406.66        26.56186
407.11        26.42377
407.55        26.47885
408.00        26.66748
408.45        26.90527
408.90        27.02635
409.34        26.97682
409.79        26.81545
410.24        26.61658
410.68        26.47745
411.13        26.43204
411.58         26.4463
412.03        26.48603
412.47        26.49929
412.92        26.46012
413.37        26.39709
413.81        26.33398
414.26        26.32608
414.71        26.37144
415.15         26.4593
415.60        26.54218
416.05        26.56783
416.49        26.52364
416.94        26.42491
417.39        26.31092
417.83        26.23786
418.28        26.22033
418.73        26.23877
419.17         26.2753
419.62        26.30153
420.07        26.30662
420.51        26.29345
420.96        26.26801
421.41        26.23194
421.85        26.17914
422.30        26.09948
422.74        25.99031
423.19        25.96503
423.64        25.98656
424.08        25.89356
424.53        25.70612
424.98        25.65576
425.42        25.77414
425.87        25.87792
426.31        25.93844
426.76        26.09844
427.21        26.26911
427.65        26.09763
428.10         25.7079
428.54        25.56674
428.99        25.71713
429.44        26.00211
429.88        26.28987
430.33         26.2732
430.77        26.01445
431.22        26.04551
431.66        26.32918
432.11         26.3858
432.56        26.22239
433.00         26.0975
433.45        25.98496
433.89        25.94107
434.34        26.04747
434.78        25.54586
435.23        25.90727
435.67        25.94961
436.12        26.03948
436.57        25.95612
437.01        25.73776
437.46        25.60988
437.90        25.58492
438.35        25.52839
438.79        25.45349
439.24         25.4709
439.68        25.57663
440.13        25.73804
440.57        25.89997
441.02        25.97592
441.46        25.94043
441.91        25.80514
442.35        25.60956
442.80         25.5702
443.24         25.6367
443.69        25.56317
444.13        25.38592
444.58        25.38046
445.02        25.54844
445.47        25.74439
445.91        25.90544
446.36        26.00435
446.80        26.01549
447.24        25.94907
447.69        25.84257
448.13        25.74887
448.58        25.69408
449.02        25.66065
449.47        25.64866
449.91         25.6427
450.36        25.64512
450.80         25.6576
451.25        25.68246
451.69        25.70147
452.13         25.7142
452.58        25.71524
453.02        25.70842
453.47        25.70745
453.91        25.71282
454.36        25.72408
454.80         25.7192
455.24        25.66275
455.69        25.56124
456.13        25.41571
456.58        25.28589
457.02        25.22039
457.46        25.23895
457.91        25.32172
458.35        25.41031
458.79        25.42086
459.24        25.35658
459.68        25.23251
460.13        25.11971
460.57        25.06444
461.01        25.09867
461.46        25.18111
461.90        25.30492
462.34        25.44067
462.79        25.56216
463.23         25.6844
463.68        25.76192
464.12        25.73642
464.56        25.60253
465.01        25.41689
465.45        25.21072
465.89        25.09564
466.34         25.0874
466.78        25.14972
467.22        25.25713
467.67        25.33762
468.11        25.38033
468.55        25.39498
468.99        25.38776
469.44        25.36569
469.88        25.33716
470.32        25.29349
470.77        25.25068
471.21        25.24155
471.65        25.26893
472.10        25.32955
472.54        25.39341
472.98        25.41901
473.42        25.39841
473.87        25.35347
474.31        25.29558
474.75        25.26692
475.20         25.2822
475.64        25.31687
476.08        25.36449
476.52        25.40236
476.97        25.42284
477.41        25.44551
477.85        25.47521
478.29        25.48145
478.74        25.48604
479.18        25.55409
479.62        25.66376
480.06         25.7373
480.50        25.77314
480.95        25.78302
481.39        25.75937
481.83        25.93438
482.27          25.932
482.72        26.06414
483.16        26.21428
483.60        26.32021
484.04        26.36858
484.48        26.46928
484.93        26.67348
485.37        26.47162
485.81        26.79309
486.25        26.67331
486.69        27.08928
487.14        26.91847
487.58        27.00932
488.02        27.08957
488.46        26.73815
488.90        26.92945
489.34        27.09295
489.79        27.32622
490.23         27.4421
490.67        27.61942
491.11        27.81715
491.55        27.78279
491.99        27.58561
492.43        27.53472
492.88        27.66915
493.32        27.83726
493.76        28.00144
494.20        28.17303
494.64        28.34248
495.08        28.47038
495.52         28.5552
495.96        28.73302
496.41        28.95869
496.85        28.90478
497.29        28.64403
497.73        28.82541
498.17        29.05749
498.61        29.33498
499.05        29.47227
499.49        29.56272
499.93        29.53854
500.37        29.65447
500.82        29.87221
501.26        30.01095
501.70        30.05919
502.14        30.12691
502.58        30.24158
503.02        30.38655
503.46        30.56053
503.90        30.76748
504.34        30.94872
504.78        31.00697
505.22        30.92882
505.66         30.7485
506.10         30.5517
506.54        30.47524
506.98        30.55262
507.42        30.74331
507.86        30.98444
508.30        31.17002
508.74        31.26434
509.18        31.29714
509.62        31.29494
510.06        31.30123
510.50        31.33141
510.94        31.36766
511.38        31.40355
511.82        31.43273
512.26        31.45472
512.70        31.48033
513.14        31.51348
513.58        31.55536
514.02        31.60675
514.46        31.66328
514.90        31.72709
515.34        31.80367
515.78        31.88819
516.22        31.97262
516.66         32.0402
517.10        32.06578
517.54        32.04494
517.98        31.98834
518.42        31.90849
518.86        31.82634
519.30        31.75235
519.74        31.68346
520.18         31.6297
520.62        31.60319
521.06        31.60575
521.50        31.63961
521.93        31.68524
522.37         31.6979
522.81        31.67273
523.25        31.61543
523.69        31.55935
524.13        31.55963
524.57        31.62072
525.01        31.71806
525.45        31.80304
525.89        31.79834
526.32        31.68565
526.76        31.50532
527.20        31.29669
527.64        31.12263
528.08        31.00647
528.52        30.93124
528.96        30.89652
529.40        30.90071
529.83        30.93302
530.27        30.99338
530.71        31.05277
531.15        31.06612
531.59         31.0237
532.03        30.93627
532.46         30.8199
532.90        30.72579
533.34        30.66339
533.78        30.60355
534.22        30.54769
534.66        30.53441
535.09        30.53863
535.53        30.49139
535.97        30.39487
536.41        30.33012
536.85        30.30407
537.28        30.26984
537.72        30.24576
538.16        30.28473
538.60        30.38843
539.04        30.53664
539.47         30.6913
539.91        30.81476
540.35        30.88878
540.79        30.92652
541.22        30.94343
541.66        30.97595
542.10        31.03107
542.54        31.09954
542.97        31.17209
543.41        31.24797
543.85        31.32329
544.29         31.4089
544.72        31.50046
545.16        31.60932
545.60        31.73242
546.04        31.86969
546.47        32.03287
546.91        32.23567
547.35        32.46997
547.79        32.72483
548.22        32.96893
548.66        33.14944
549.10         33.2959
549.53         33.4085
549.97        33.50661
550.41        33.54757
550.84        33.57915
551.28        33.68956
551.72         33.8521
552.15        34.04981
552.59        34.31688
553.03        34.15463
553.46         34.5847
553.90        34.70326
554.34        34.80747
554.77        34.89744
555.21        34.99779
555.65        35.11996
556.08        35.25282
556.52        35.37481
556.96        35.46532
557.39        35.58894
557.83        35.71624
558.27        35.65132
558.70        35.45666
559.14        35.44493
559.57        35.61311
560.01         35.7677
560.45        35.87902
560.88        36.01454
561.32        36.17975
561.75        36.31483
562.19        36.42704
562.63          36.521
563.06        36.59257
563.50        36.64853
563.93        36.66656
564.37        36.70781
564.80        36.79341
565.24        36.82436
565.68        36.73837
566.11        37.23515
566.55        36.97768
566.98        37.07275
567.42        37.17747
567.85         37.3364
568.29        37.55847
568.72        37.85219
569.16        38.21799
569.60         38.4151
570.03        38.56609
570.47         38.7186
570.90        38.93253
571.34        38.76165
571.77        39.09015
572.21        39.35526
572.64        39.20214
573.08        39.78498
573.51        39.55321
573.95         39.7243
574.38        39.93404
574.82        40.11307
