SpectraSmart Spectrum 2.9.0.0
--------- Device Information -----------
Spectrum Name :  反射率_0
Saving Time :  2024/04/27 00:23:50
Spectro-Module Model Name : SE2030-DUVN
Spectro-Module Serial Number : OS361AC55029948
Wavelength Start : 200
Wavelength End : 1025
Wavelength Unit : Wavelength(nm)
Spectrum Unit : Reflectance(%)
-----------Spectrum Setting ------------
Integration Time : 20ms
Average : 10
Boxcar : 0
Background removal :  enabled
linearity correction :  enabled
SC :  disabled
Intensity correction :  disabled
DWT denoise :  enabled
savitzky-golay :  disabled
FFT :  disabled
Running average :  disabled
Kalman :  disabled
High pass :  disabled
---------------BEGIN--------------------
Wavelength(nm)             Reflectance(%)
200.29               0
200.75        36.31285
201.21        37.92981
201.67        38.77611
202.13        38.29235
202.58         36.4245
203.04        33.54538
203.50        30.19945
203.96        28.40759
204.42        29.59587
204.88        33.23228
205.34        38.23315
205.80        42.16431
206.26        43.81879
206.72         43.9276
207.18        42.40761
207.64        38.77048
208.10        32.75168
208.55        23.19431
209.01        10.98969
209.47        6.456254
209.93        13.93509
210.39        26.10648
210.85         36.2695
211.31        42.67018
211.77        47.17353
212.23        52.06233
212.69          60.965
213.14         78.4804
213.60        81.98337
214.06        73.41483
214.52        65.55596
214.98        59.92297
215.44        54.80229
215.90        48.71012
216.36        43.68448
216.81        43.19579
217.27        48.74519
217.73        62.01538
218.19        79.21761
218.65        80.69342
219.11        62.63879
219.57        40.28962
220.02        25.92417
220.48         23.9479
220.94        32.78008
221.40        53.02135
221.86        84.45406
222.32        107.7258
222.77        104.3467
223.23        86.06644
223.69        66.76768
224.15        54.80957
224.61        49.24082
225.06        46.27065
225.52        45.14899
225.98        45.20942
226.44         46.0026
226.90        47.84883
227.36        49.78495
227.81        49.96239
228.27        48.32856
228.73        45.47114
229.19        42.86933
229.65         42.2839
230.10        43.73273
230.56        46.57416
231.02        49.52184
231.48        50.51649
231.93        49.21929
232.39        46.80762
232.85        44.39087
233.31        43.42358
233.77        44.06295
234.22        45.71214
234.68        47.82971
235.14         49.7283
235.60        51.12621
236.05        52.36368
236.51        53.14631
236.97        52.89268
237.43        51.51488
237.88        49.08836
238.34        46.53861
238.80        45.70482
239.26        47.24221
239.71         51.5379
240.17        57.66715
240.63         62.5447
241.08        64.01556
241.54        61.51444
242.00        57.14917
242.46        55.76975
242.91        60.30657
243.37        71.68758
243.83        89.84007
244.28        103.8529
244.74        100.1853
245.20        81.52098
245.66        61.67588
246.11        51.90884
246.57        52.25536
247.03        58.19048
247.48        66.11369
247.94        69.43813
248.40        67.35497
248.85        63.48786
249.31        59.73824
249.77        56.26709
250.22        52.54173
250.68        47.54075
251.14        41.78479
251.59        38.65796
252.05        40.45979
252.51        46.05644
252.96        51.60807
253.42        53.73463
253.88        52.74938
254.33        49.90958
254.79        48.12424
255.25        49.70752
255.70        54.39267
256.16        61.16029
256.62        67.03247
257.07        67.57368
257.53        63.97364
257.99        58.98561
258.44         54.9049
258.90        53.87183
259.35         54.8813
259.81        57.09447
260.27        59.09031
260.72        59.18431
261.18        57.63744
261.63        55.11556
262.09        52.83533
262.55        51.57447
263.00         51.2177
263.46        51.45258
263.91        51.62052
264.37        51.19527
264.83        50.10682
265.28        48.62358
265.74         47.2509
266.19        46.30312
266.65        45.88839
267.11        45.76215
267.56        45.73226
268.02         45.5132
268.47        45.02213
268.93         44.3994
269.38        43.67245
269.84        42.93291
270.30         42.2028
270.75        41.42381
271.21        40.70937
271.66        40.18351
272.12        39.85142
272.57        39.65182
273.03        39.39593
273.48        38.76608
273.94        37.77733
274.39        36.53347
274.85        35.32383
275.31        34.40826
275.76        33.81414
276.22        33.47322
276.67         33.2387
277.13        32.98878
277.58        32.63072
278.04        32.24025
278.49        31.77655
278.95         31.2925
279.40        30.75926
279.86        30.22977
280.31        29.68059
280.77        29.19095
281.22         28.7313
281.68        28.33523
282.13        27.97541
282.59        27.69264
283.04        27.45028
283.50        27.26024
283.95        27.06716
284.41        26.80122
284.86        26.45947
285.32        26.09734
285.77        25.76998
286.22        25.61153
286.68        25.63344
287.13        25.75016
287.59        25.90477
288.04        25.96545
288.50        25.91759
288.95        25.77758
289.41        25.57779
289.86        25.30268
290.32        25.00648
290.77        24.68897
291.22        24.42657
291.68        24.32046
292.13        24.37775
292.59        24.58205
293.04        24.88303
293.50        25.21503
293.95        25.53885
294.40        25.87094
294.86        26.20189
295.31        26.51259
295.77        26.81188
296.22        27.09371
296.68        27.39269
297.13        27.75279
297.58        28.18981
298.04        28.69361
298.49        29.23643
298.95        29.78698
299.40        30.31975
299.85        30.83752
300.31        31.33654
300.76        31.80451
301.21        32.23824
301.67        32.64498
302.12        33.00065
302.58        33.32939
303.03        33.61185
303.48        33.86726
303.94        34.10981
304.39        34.32634
304.84        34.52843
305.30        34.72589
305.75        34.90256
306.20        35.08649
306.66        35.28542
307.11        35.47744
307.57        35.64409
308.02        35.71051
308.47        35.67944
308.93        35.57835
309.38        35.45166
309.83        35.41524
310.29        35.48789
310.74        35.63163
311.19        35.76455
311.65        35.74727
312.10        35.54891
312.55        35.21983
313.00        34.86339
313.46        34.63129
313.91        34.54403
314.36         34.5619
314.82        34.59978
315.27         34.5307
315.72        34.31857
316.18        34.01663
316.63        33.68351
317.08        33.42299
317.53        33.25915
317.99        33.15015
318.44        33.05752
318.89         32.9106
319.35        32.68987
319.80        32.42165
320.25        32.13131
320.70        31.85679
321.16        31.60881
321.61        31.38391
322.06        31.16946
322.51         30.9503
322.97        30.71753
323.42        30.48114
323.87        30.25442
324.32        30.06196
324.78        29.89478
325.23        29.75899
325.68        29.60332
326.13         29.3568
326.59        29.00943
327.04         28.5963
327.49        28.18169
327.94        27.86747
328.39         27.6711
328.85        27.55101
329.30        27.46992
329.75        27.30811
330.20        27.03695
330.66         26.6909
331.11        26.33849
331.56        26.06426
332.01        25.89258
332.46        25.79224
332.92        25.71656
333.37        25.62992
333.82        25.50092
334.27        25.35137
334.72        25.19557
335.17        25.05284
335.63        24.93075
336.08          24.835
336.53        24.76495
336.98        24.73199
337.43        24.73282
337.88        24.75364
338.34        24.78299
338.79        24.82764
339.24        24.86622
339.69         24.8926
340.14        24.86423
340.59        24.71846
341.05        24.46184
341.50        24.12335
341.95        23.77565
342.40        23.52595
342.85        23.40357
343.30        23.37915
343.75        23.41624
344.20        23.45363
344.66        23.46705
345.11        23.46591
345.56        23.44657
346.01        23.40392
346.46        23.34406
346.91        23.27209
347.36         23.1908
347.81        23.11193
348.26        23.04025
348.72        22.96784
349.17        22.92145
349.62        22.95252
350.07        23.06096
350.52          23.235
350.97        23.38117
351.42        23.35061
351.87        23.12228
352.32        22.74463
352.77         22.3565
353.22        22.16381
353.67        22.20551
354.13        22.42484
354.58        22.68356
355.03        22.75263
355.48        22.57714
355.93        22.23438
356.38          21.865
356.83        21.67864
357.28        21.71767
357.73        21.90616
358.18        22.12867
358.63         22.2003
359.08        22.07221
359.53        21.81349
359.98        21.50705
360.43        21.27135
360.88        21.13966
361.33         21.0698
361.78        21.03029
362.23        20.97645
362.68        20.89187
363.13        20.79645
363.58        20.69422
364.03        20.58456
364.48        20.46971
364.93        20.34649
365.38        20.22023
365.83        20.10505
366.28        20.00549
366.73        19.91856
367.18        19.84432
367.63        19.78016
368.08        19.72346
368.53        19.67623
368.98        19.62669
369.43        19.55612
369.88        19.46062
370.33        19.34065
370.78        19.21654
371.23        19.12583
371.68        19.07381
372.13        19.04685
372.58        19.01327
373.03        18.92064
373.48        18.76058
373.93        18.55828
374.38        18.34326
374.83        18.16265
375.28        18.03461
375.72        17.93972
376.17        17.89141
376.62        17.88649
377.07        17.91634
377.52        17.97839
377.97        18.03862
378.42        18.04339
378.87        17.97887
379.32        17.85236
379.77        17.70491
380.22        17.59925
380.67        17.54724
381.11        17.54087
381.56        17.52253
382.01        17.41445
382.46         17.2101
382.91        16.94856
383.36        16.70695
383.81        16.58681
384.26        16.60139
384.71        16.71675
385.15        16.86132
385.60        16.91991
386.05        16.85871
386.50        16.71144
386.95        16.53808
387.40        16.43281
387.85        16.41561
388.29        16.44116
388.74         16.4803
389.19         16.4569
389.64        16.35732
390.09        16.20498
390.54        16.03776
390.98        15.91237
391.43        15.85572
391.88        15.84654
392.33        15.85064
392.78        15.81938
393.23        15.74452
393.67        15.63653
394.12        15.54048
394.57        15.48991
395.02        15.48947
395.47        15.51775
395.91        15.55008
396.36        15.53704
396.81        15.47644
397.26        15.38995
397.71        15.29065
398.15         15.2057
398.60        15.16186
399.05        15.08678
399.50         15.0046
399.95        15.06109
400.39        15.20768
400.84        15.17173
401.29        14.96441
401.74        14.84075
402.18        14.81685
402.63        14.73656
403.08        14.62542
403.53         14.5913
403.97        14.63795
404.42        14.73395
404.87        14.82334
405.32        14.81373
405.76        14.68732
406.21        14.48711
406.66        14.27397
407.11        14.14312
407.55        14.12283
408.00        14.17626
408.45        14.27084
408.90        14.33933
409.34        14.35324
409.79         14.3346
410.24        14.29257
410.68        14.23428
411.13         14.1698
411.58        14.09145
412.03        14.00711
412.47        13.93945
412.92        13.89302
413.37        13.87092
413.81        13.86478
414.26        13.87043
414.71        13.87941
415.15        13.89529
415.60        13.91082
416.05        13.92517
416.49        13.93687
416.94        13.94116
417.39        13.93581
417.83        13.91848
418.28        13.88805
418.73        13.84354
419.17        13.79284
419.62        13.74927
420.07        13.71595
420.51        13.68676
420.96        13.65396
421.41        13.60164
421.85        13.52406
422.30        13.42663
422.74        13.31542
423.19        13.25877
423.64         13.2389
424.08        13.16917
424.53        13.05798
424.98        13.02371
425.42        13.08065
425.87        13.13528
426.31        13.16528
426.76         13.2321
427.21        13.28736
427.65        13.15569
428.10        12.91183
428.54        12.80782
428.99         12.8707
429.44        13.01952
429.88         13.1753
430.33        13.16538
430.77        13.01429
431.22        12.98908
431.66        13.08967
432.11        13.08734
432.56        12.98707
433.00         12.9621
433.45        12.96627
433.89        12.83303
434.34        12.66163
434.78        12.38688
435.23        12.69472
435.67        12.74527
436.12        12.70899
436.57        12.62806
437.01        12.53425
437.46        12.48753
437.90        12.49406
438.35        12.50019
438.79        12.49698
439.24        12.51483
439.68        12.55088
440.13        12.59339
440.57        12.63416
441.02        12.67236
441.46        12.70166
441.91        12.68819
442.35        12.63575
442.80        12.67449
443.24        12.75341
443.69        12.66051
444.13        12.44006
444.58         12.3603
445.02        12.43486
445.47         12.5248
445.91         12.5993
446.36        12.67063
446.80        12.72225
447.24        12.75361
447.69        12.76043
448.13        12.73081
448.58        12.67193
449.02        12.58596
449.47        12.50471
449.91        12.47332
450.36        12.50222
450.80        12.57482
451.25        12.65987
451.69        12.69957
452.13        12.68168
452.58        12.62182
453.02        12.54319
453.47        12.48575
453.91        12.46195
454.36        12.46176
454.80        12.46861
455.24        12.45529
455.69        12.41958
456.13        12.36299
456.58        12.31467
457.02        12.29638
457.46        12.31647
457.91        12.36295
458.35        12.40132
458.79        12.38025
459.24        12.30446
459.68        12.18793
460.13        12.08036
460.57         12.0225
461.01        12.03422
461.46        12.08727
461.90        12.17197
462.34        12.25987
462.79        12.33198
463.23        12.40037
463.68        12.43797
464.12         12.4096
464.56        12.31566
465.01        12.18852
465.45        12.05731
465.89          11.996
466.34        12.01429
466.78        12.08802
467.22         12.1946
467.67        12.27937
468.11        12.32893
468.55        12.35318
468.99        12.35744
469.44        12.34975
469.88        12.33705
470.32        12.31403
470.77        12.29403
471.21        12.30356
471.65        12.34517
472.10        12.41491
472.54        12.49005
472.98        12.53803
473.42        12.55081
473.87         12.5416
474.31         12.5187
474.75         12.5084
475.20        12.52014
475.64        12.54056
476.08        12.56628
476.52        12.58523
476.97        12.59534
477.41        12.60969
477.85        12.63377
478.29         12.6559
478.74         12.6878
479.18        12.75901
479.62        12.85833
480.06        12.94864
480.50        13.02338
480.95        13.07937
481.39        13.10813
481.83        13.22343
482.27        13.23749
482.72        13.31869
483.16        13.39911
483.60        13.44802
484.04        13.44592
484.48         13.4407
484.93        13.54421
485.37        13.53681
485.81        13.75663
486.25        14.20337
486.69        14.01435
487.14        13.74668
487.58        14.24976
488.02         14.3419
488.46        13.98529
488.90        14.38217
489.34        14.55253
489.79        14.81859
490.23        14.83691
490.67        14.92763
491.11         15.0771
491.55        15.10883
491.99        15.05725
492.43        15.05989
492.88        15.13713
493.32        15.23098
493.76        15.34173
494.20        15.49763
494.64        15.69736
495.08        15.90207
495.52        16.08294
495.96        16.29048
496.41        16.47771
496.85        16.43075
497.29        16.22421
497.73          16.305
498.17        16.47249
498.61        16.71353
499.05        16.89748
499.49         17.0242
499.93        17.04293
500.37         17.1259
500.82        17.26663
501.26        17.37576
501.70        17.45294
502.14         17.5563
502.58        17.69111
503.02        17.83195
503.46        17.97423
503.90        18.12498
504.34         18.2613
504.78        18.34406
505.22        18.36774
505.66        18.34461
506.10        18.30824
506.54        18.31439
506.98        18.37721
507.42        18.48035
507.86        18.60326
508.30        18.70971
508.74        18.78731
509.18          18.849
509.62        18.89656
510.06        18.93327
510.50        18.96292
510.94         18.9803
511.38        19.00079
511.82        19.05056
512.26        19.13341
512.70        19.24515
513.14        19.35713
513.58        19.42115
514.02        19.42799
514.46        19.39077
514.90        19.34707
515.34        19.35867
515.78        19.43701
516.22        19.55898
516.66        19.68365
517.10        19.74592
517.54        19.72956
517.98        19.65787
518.42        19.55859
518.86        19.47581
519.30        19.42539
519.74          19.394
520.18        19.37796
520.62        19.37082
521.06        19.36898
521.50        19.37962
521.93         19.3942
522.37         19.3888
522.81        19.36236
523.25        19.31617
523.69        19.26981
524.13        19.25666
524.57        19.27901
525.01        19.32222
525.45        19.35727
525.89        19.33764
526.32        19.25266
526.76        19.12728
527.20        18.98435
527.64        18.86029
528.08        18.76944
528.52        18.70239
528.96         18.6624
529.40         18.6534
529.83        18.67027
530.27        18.71187
530.71        18.75575
531.15        18.76669
531.59        18.73629
532.03        18.67084
532.46        18.58681
532.90        18.52699
533.34        18.49713
533.78         18.4745
534.22        18.44652
534.66        18.41565
535.09        18.36551
535.53        18.26592
535.97        18.13422
536.41        18.04292
536.85        18.00316
537.28        17.97877
537.72        17.97943
538.16        18.03299
538.60        18.13573
539.04        18.27734
539.47        18.42011
539.91        18.51806
540.35        18.55883
540.79        18.55753
541.22        18.54757
541.66        18.59095
542.10         18.6987
542.54        18.85027
542.97        19.01583
543.41        19.15637
543.85        19.25801
544.29        19.33811
544.72        19.40512
545.16        19.48446
545.60        19.58129
546.04        19.69115
546.47        19.81974
546.91        19.97301
547.35        20.14568
547.79        20.33408
548.22        20.52236
548.66        20.68174
549.10        20.83087
549.53         20.9669
549.97        21.09596
550.41        21.18106
550.84        21.24814
551.28        21.35475
551.72        21.48778
552.15        21.64286
552.59        21.84446
553.03         21.7745
553.46        22.08143
553.90        22.18536
554.34        22.27566
554.77        22.35305
555.21         22.4406
555.65        22.55622
556.08        22.69257
556.52        22.83134
556.96        22.94434
557.39        23.05156
557.83         23.1311
558.27        23.06381
558.70        22.90756
559.14        22.89157
559.57        23.02042
560.01        23.16068
560.45        23.28021
560.88        23.40285
561.32        23.52767
561.75        23.62291
562.19         23.6995
562.63        23.77027
563.06        23.83464
563.50        23.89097
563.93        23.92391
564.37        23.97276
564.80        24.05091
565.24        24.09621
565.68        24.06111
566.11        24.39511
566.55        24.22351
566.98        24.26913
567.42        24.32549
567.85        24.46409
568.29         24.6874
568.72        24.95862
569.16        25.26489
569.60        25.45597
570.03        25.60856
570.47        25.73371
570.90        25.89458
571.34        25.80223
571.77        26.06902
572.21        26.23524
572.64        26.41688
573.08         26.4989
573.51        26.54886
573.95        26.65251
574.38        26.79449
574.82        27.22075
