SpectraSmart Spectrum 2.9.0.0
--------- Device Information -----------
Spectrum Name :  反射率_0
Saving Time :  2024/04/26 01:32:46
Spectro-Module Model Name : SE2030-DUVN
Spectro-Module Serial Number : OS361AC55029948
Wavelength Start : 200
Wavelength End : 1025
Wavelength Unit : Wavelength(nm)
Spectrum Unit : Reflectance(%)
-----------Spectrum Setting ------------
Integration Time : 20ms
Average : 10
Boxcar : 0
Background removal :  enabled
linearity correction :  enabled
SC :  disabled
Intensity correction :  disabled
DWT denoise :  enabled
savitzky-golay :  disabled
FFT :  disabled
Running average :  disabled
Kalman :  disabled
High pass :  disabled
---------------BEGIN--------------------
Wavelength(nm)             Reflectance(%)
200.29               0
200.75        93.60465
201.21        85.77591
201.67        76.01143
202.13        69.87348
202.58          68.204
203.04        69.38975
203.50        72.27815
203.96        74.96452
204.42         76.5517
204.88        77.77276
205.34        78.75886
205.80        79.68505
206.26        80.92018
206.72        82.66663
207.18        85.72585
207.64        90.04217
208.10        91.06549
208.55        88.39317
209.01        85.67339
209.47        83.53038
209.93        81.51347
210.39        79.73184
210.85        77.23002
211.31        72.77363
211.77        66.82991
212.23        59.83516
212.69        54.97395
213.14        57.26537
213.60        66.84019
214.06        82.22351
214.52        97.69878
214.98        104.5056
215.44        101.0014
215.90        90.25714
216.36          77.417
216.81        69.86623
217.27        69.23778
217.73        72.76342
218.19        76.80695
218.65        76.63992
219.11        70.69952
219.57        58.82685
220.02        42.52848
220.48        31.41759
220.94        31.60434
221.40        40.71403
221.86        50.68429
222.32        52.84953
222.77        47.68629
223.23        39.75052
223.69        33.01698
224.15        31.47997
224.61        34.71852
225.06        40.59151
225.52        46.48124
225.98        49.30666
226.44        48.45732
226.90        45.38628
227.36        41.52913
227.81        38.70985
228.27         37.7374
228.73        37.81264
229.19         38.7059
229.65        40.09419
230.10        41.62296
230.56        43.26064
231.02        44.69038
231.48        45.51328
231.93        45.72596
232.39        45.47009
232.85        44.95625
233.31         44.5715
233.77        44.41813
234.22        44.39839
234.68        44.41755
235.14        44.23394
235.60        43.82368
236.05        43.36501
236.51        43.02861
236.97        42.97421
237.43        43.32821
237.88        44.22457
238.34         45.7387
238.80        47.95491
239.26        50.66959
239.71        53.68927
240.17        56.69865
240.63        59.82364
241.08        63.03587
241.54        66.05582
242.00        68.58504
242.46        70.47709
242.91        72.23525
243.37        74.25197
243.83        80.46842
244.28        110.8516
244.74        164.8926
245.20        158.8186
245.66        142.1348
246.11        138.0647
246.57        143.5014
247.03         164.149
247.48        220.2182
247.94        173.6593
248.40        109.6546
248.85        91.98357
249.31          87.999
249.77        89.51682
250.22         94.7694
250.68        104.6126
251.14        119.0377
251.59        129.3098
252.05        126.1624
252.51        113.2789
252.96        98.71662
253.42        90.47005
253.88        88.08048
254.33        88.62952
254.79        91.52766
255.25        95.33127
255.70        98.82822
256.16        102.5168
256.62        104.5766
257.07        103.0601
257.53        98.99165
257.99        92.97738
258.44        87.10232
258.90        84.82607
259.35        85.00021
259.81        86.28142
260.27        86.39526
260.72         83.1699
261.18        77.58627
261.63        70.67464
262.09        64.32368
262.55        59.93724
263.00        57.47066
263.46        56.32481
263.91        55.50136
264.37        54.30719
264.83        52.48249
265.28        50.18042
265.74        47.91222
266.19        46.16871
266.65        45.21389
267.11        44.74933
267.56        44.30903
268.02        43.35028
268.47        41.73174
268.93        39.64506
269.38        37.43824
269.84        35.95506
270.30        35.41951
270.75        35.59377
271.21        35.98136
271.66        35.82698
272.12        34.95014
272.57        33.60047
273.03        32.19597
273.48        31.27418
273.94        30.98643
274.39        31.08474
274.85        31.29436
275.31        31.20952
275.76        30.72136
276.22        30.00394
276.67        29.21131
277.13        28.65778
277.58        28.35251
278.04        28.21632
278.49        28.06526
278.95        27.71736
279.40          27.113
279.86        26.39346
280.31        25.64437
280.77          25.104
281.22         24.7772
281.68        24.61199
282.13        24.52265
282.59        24.42789
283.04        24.29181
283.50        24.18415
283.95        24.07009
284.41        23.91538
284.86        23.72031
285.32        23.50306
285.77        23.36721
286.22         23.5369
286.68        24.00137
287.13        24.64294
287.59        25.24558
288.04        25.47643
288.50         25.3036
288.95        24.83039
289.41        24.25797
289.86        23.77932
290.32        23.52577
290.77        23.43097
291.22        23.52421
291.68        23.80653
292.13        24.26879
292.59        24.92555
293.04        25.73375
293.50        26.61295
293.95        27.52253
294.40        28.45118
294.86        29.40194
295.31        30.40242
295.77        31.46798
296.22        32.58533
296.68        33.74656
297.13        34.90548
297.58        36.06396
298.04        37.25481
298.49        38.50634
298.95          39.915
299.40        41.48826
299.85        43.19116
300.31        44.97321
300.76        46.74827
301.21        48.45477
301.67         50.1395
302.12        51.72761
302.58        53.21882
303.03        54.60572
303.48        55.92974
303.94         57.3538
304.39        59.06291
304.84        61.09046
305.30        63.35836
305.75        65.62397
306.20        67.54261
306.66        69.05637
307.11        70.21962
307.57        71.26019
308.02        72.39573
308.47        73.75301
308.93         75.2756
309.38        76.85464
309.83        78.37472
310.29        79.78237
310.74        81.07317
311.19        82.31468
311.65        83.60697
312.10        84.94926
312.55        86.31522
313.00        87.54192
313.46        88.37753
313.91        88.76788
314.36        88.82013
314.82        88.81397
315.27        89.12295
315.72        89.87314
316.18        90.95861
316.63        92.17776
317.08        93.14455
317.53        93.73676
317.99        94.04641
318.44         94.2702
318.89        94.73523
319.35        95.49606
319.80        96.47585
320.25        97.40858
320.70        97.86601
321.16        97.76237
321.61        97.24746
322.06        96.64532
322.51        96.46217
322.97        96.79336
323.42        97.52577
323.87        98.37786
324.32        98.86424
324.78        98.83668
325.23        98.49323
325.68        98.03273
326.13        97.80834
326.59        97.90787
327.04        98.24989
327.49        98.73616
327.94        99.24039
328.39        99.70136
328.85        100.1456
329.30        100.5999
329.75        100.9225
330.20        101.1165
330.66        101.1981
331.11        101.3471
331.56        101.7854
332.01        102.5797
332.46        103.6441
332.92        104.8363
333.37        106.0951
333.82        107.2377
334.27        108.2739
334.72        109.0596
335.17        109.3819
335.63        109.2339
336.08        108.7457
336.53        108.1765
336.98        107.9934
337.43        108.3307
337.88        109.0733
338.34        110.0693
338.79        111.1453
339.24        112.1599
339.69        113.1852
340.14        114.0892
340.59        114.6422
341.05        114.8207
341.50        114.6505
341.95        114.4115
342.40        114.5687
342.85        115.2175
343.30        116.2353
343.75        117.3404
344.20        118.0252
344.66        118.1565
345.11        117.8763
345.56         117.417
346.01        117.1263
346.46        117.1151
346.91        117.2854
347.36        117.5381
347.81        117.7249
348.26        117.8093
348.72         117.868
349.17        117.9484
349.62        118.1617
350.07        118.5096
350.52         118.912
350.97        119.2748
351.42        119.4753
351.87        119.4784
352.32        119.3273
352.77        119.0432
353.22        118.6638
353.67        118.2234
354.13        117.7367
354.58        117.2396
355.03        116.8476
355.48        116.5773
355.93         116.406
356.38        116.2461
356.83        115.9488
357.28        115.4766
357.73        114.8691
358.18        114.1973
358.63        113.5789
359.08        113.0456
359.53        112.5588
359.98        112.0659
360.43         111.487
360.88        110.7963
361.33        110.0166
361.78         109.198
362.23        108.4171
362.68        107.7101
363.13        107.0832
363.58        106.4758
364.03        105.7879
364.48        105.0022
364.93        104.1339
365.38        103.3146
365.83        102.7586
366.28        102.4806
366.73        102.3889
367.18        102.2548
367.63        101.7132
368.08        100.7065
368.53        99.39565
368.98        98.00162
369.43        96.84991
369.88        96.03719
370.33         95.4623
370.78        95.08339
371.23        94.83015
371.68        94.64471
372.13        94.54463
372.58        94.43331
373.03        94.14024
373.48        93.64177
373.93        92.99252
374.38        92.30111
374.83        91.74458
375.28        91.36745
375.72        91.09759
376.17        90.93018
376.62        90.83046
377.07        90.75115
377.52        90.67604
377.97        90.50902
378.42        90.09964
378.87         89.4426
379.32        88.62212
379.77        87.73112
380.22        86.89645
380.67        86.15755
381.11        85.47909
381.56        84.90935
382.01        84.52965
382.46        84.34773
382.91        84.35899
383.36        84.40003
383.81        84.20582
384.26        83.72596
384.71        83.01822
385.15        82.27885
385.60        81.88862
386.05        81.85545
386.50        82.05206
386.95         82.2245
387.40        81.95542
387.85        81.20778
388.29        80.16171
388.74        79.17256
389.19        78.42389
389.64        77.95198
390.09        77.63003
390.54        77.48811
390.98        77.58108
391.43        77.86578
391.88        78.29581
392.33        78.61196
392.78        78.38927
393.23        77.62475
393.67        76.56988
394.12        75.62347
394.57         74.8828
395.02        74.54282
395.47        74.98101
395.91        76.01374
396.36        76.70944
396.81        76.88686
397.26        76.92661
397.71         76.8623
398.15        76.49347
398.60         75.9477
399.05        75.43057
399.50         74.9751
399.95        74.08781
400.39        73.28588
400.84        73.09593
401.29         73.5071
401.74        73.62622
402.18        73.37804
402.63         73.1954
403.08        73.19345
403.53        73.31522
403.97        73.56222
404.42        73.90588
404.87        74.16066
405.32        74.02525
405.76        73.46054
406.21        72.64047
406.66        71.79404
407.11        71.32829
407.55        71.34679
408.00        71.50633
408.45        71.72057
408.90        72.27316
409.34        72.83688
409.79        72.40621
410.24        71.25323
410.68        70.74021
411.13        70.98981
411.58        71.11781
412.03        71.01747
412.47        71.72298
412.92        71.74744
413.37        72.18149
413.81        72.47382
414.26        72.49451
414.71        72.19717
415.15        71.64494
415.60        71.03236
416.05        70.65364
416.49        70.59912
416.94        70.81144
417.39        71.09465
417.83        71.08916
418.28        70.73654
418.73        70.17269
419.17        69.65105
419.62        69.57703
420.07        69.98011
420.51        70.69814
420.96        71.48357
421.41        71.84528
421.85         71.6278
422.30        71.32155
422.74        70.96006
423.19        70.17532
423.64        69.25203
424.08        69.39127
424.53        70.42554
424.98        70.94724
425.42        70.80473
425.87        70.93946
426.31        71.35859
426.76        71.29416
427.21        70.95989
427.65        71.31752
428.10        72.22677
428.54        72.96676
428.99        73.46893
429.44        73.49897
429.88        73.22791
430.33        74.09265
430.77         75.3546
431.22           74.41
431.66         71.7595
432.11        70.14458
432.56         69.9599
433.00        70.62294
433.45        72.06232
433.89        74.12522
434.34        75.16978
434.78         77.1478
435.23         72.3063
435.67        70.64584
436.12        72.68439
436.57        73.86532
437.01        74.39655
437.46        75.08634
437.90        74.97853
438.35        74.55109
438.79        75.18507
439.24        75.17861
439.68        75.00584
440.13        74.45784
440.57        73.97082
441.02        74.67531
441.46        76.23561
441.91        77.42199
442.35        77.78037
442.80        76.93785
443.24        75.41495
443.69        75.86688
444.13        77.92171
444.58        77.91921
445.02        76.09936
445.47        75.85174
445.91        77.07571
446.36        77.48438
446.80         76.9959
447.24        76.77638
447.69        76.90844
448.13        77.05814
448.58        77.23957
449.02        77.47509
449.47        77.72442
449.91        77.94495
450.36        78.11314
450.80        78.21511
451.25        78.21989
451.69        78.04929
452.13        77.73417
452.58        77.32104
453.02        76.92323
453.47        76.76741
453.91         76.8717
454.36        77.14892
454.80        77.49958
455.24        77.65668
455.69        77.52733
456.13        77.32361
456.58        77.19098
457.02        76.40475
457.46        76.10658
457.91        76.38103
458.35        77.23937
458.79        77.57883
459.24        77.34262
459.68        77.06023
460.13        76.79214
460.57        76.44181
461.01        76.11279
461.46        75.59012
461.90        74.89752
462.34        75.40666
462.79        74.78656
463.23         75.1777
463.68        75.72312
464.12         76.0868
464.56        76.16087
465.01        76.11639
465.45        75.89602
465.89        75.76128
466.34        75.57974
466.78        74.49037
467.22        73.10123
467.67        72.40736
468.11        73.99031
468.55        74.74643
468.99        74.77995
469.44        74.37943
469.88        73.76216
470.32        73.63099
470.77        73.93462
471.21        73.86098
471.65        73.39162
472.10        73.19566
472.54        73.29124
472.98        73.37875
473.42        73.43302
473.87        73.61655
474.31        73.82561
474.75        73.78824
475.20        73.56847
475.64        73.47667
476.08         73.5568
476.52        73.50003
476.97        73.28587
477.41        73.27909
477.85        73.59187
478.29        73.03681
478.74         73.9408
479.18        73.89417
479.62        72.33583
480.06        72.75442
480.50        73.22696
480.95        73.72496
481.39         73.7027
481.83        72.82594
482.27        73.24181
482.72        72.50864
483.16        71.45354
483.60        71.64344
484.04        73.14651
484.48        73.47695
484.93        73.11523
485.37         74.9609
485.81        75.82975
486.25        74.53522
486.69        101.6165
487.14        82.76345
487.58        50.93066
488.02         62.5392
488.46        70.66013
488.90         69.9341
489.34        71.60058
489.79        70.64741
490.23        72.81831
490.67        73.60738
491.11        72.47385
491.55         72.3611
491.99        72.85147
492.43          72.677
492.88        71.94592
493.32        72.01881
493.76        72.33128
494.20        72.64613
494.64        72.69061
495.08        72.71859
495.52        72.81417
495.96        72.74319
496.41        72.50542
496.85        72.99233
497.29        73.87559
497.73        72.67387
498.17        70.42693
498.61        70.57772
499.05        73.13097
499.49        73.59216
499.93        73.53931
500.37        73.29553
500.82        72.75555
501.26        72.78496
501.70        73.13438
502.14        73.33854
502.58        73.25701
503.02        73.09502
503.46        72.97117
503.90        72.61568
504.34        72.19531
504.78        71.98958
505.22        72.03395
505.66        72.28533
506.10        72.63036
506.54        72.74881
506.98        72.55082
507.42        72.63268
507.86        72.19303
508.30        72.11785
508.74        72.19077
509.18        72.37006
509.62        72.56419
510.06        72.64226
510.50        72.58075
510.94        72.42104
511.38        72.25169
511.82        72.20293
512.26        72.30496
512.70        72.51289
513.14        72.74841
513.58        72.88786
514.02        72.89127
514.46        72.79068
514.90        72.65102
515.34        72.55994
515.78        72.53274
516.22        72.59972
516.66        72.70647
517.10        72.60884
517.54        72.28883
517.98         72.3549
518.42        72.07674
518.86        72.12273
519.30         72.2681
519.74        72.54013
520.18        72.85088
520.62         73.0522
521.06        73.11317
521.50        73.07133
521.93        72.97237
522.37        72.89094
522.81        72.85886
523.25         72.8522
523.69        72.87049
524.13        72.91549
524.57        72.98204
525.01        73.07376
525.45        73.16972
525.89        73.23172
526.32        73.24281
526.76         73.2099
527.20        73.14611
527.64        73.09586
528.08        73.08617
528.52        73.03871
528.96        72.91772
529.40        72.88424
529.83        72.96883
530.27         72.3671
530.71        72.54082
531.15        72.41035
531.59        72.41624
532.03        72.48356
532.46        72.63169
532.90        72.86318
533.34        73.14063
533.78         73.4516
534.22        73.70656
534.66        73.78069
535.09        73.64676
535.53        73.37357
535.97        73.04019
536.41        72.79774
536.85        72.69601
537.28        72.69917
537.72        72.76622
538.16        72.84059
538.60          72.896
539.04        72.89191
539.47        72.83192
539.91        72.91492
540.35        73.06293
540.79        72.96629
541.22        72.66605
541.66        72.52496
542.10        72.55903
542.54        72.56932
542.97        72.55684
543.41        72.63503
543.85        72.78391
544.29        72.99052
544.72        73.15694
545.16        73.12962
545.60        72.87711
546.04        72.51598
546.47        72.21055
546.91        71.97101
547.35        72.20666
547.79        72.72518
548.22        73.35049
548.66        73.59746
549.10        73.32511
549.53        72.52004
549.97        71.54697
550.41        71.08332
550.84        71.24921
551.28        71.76565
551.72        72.41264
552.15        72.81801
552.59        72.85252
553.03        72.83372
553.46        72.62006
553.90        72.36703
554.34        72.42159
554.77        72.46898
555.21        72.61994
555.65        72.34951
556.08        72.85892
556.52         72.3166
556.96        72.72626
557.39        72.52072
557.83        72.28996
558.27        72.21989
558.70        72.33108
559.14        72.49044
559.57        72.65407
560.01        72.85568
560.45        73.04729
560.88        73.23441
561.32        73.32658
561.75        73.06859
562.19        72.58785
562.63        71.98586
563.06        71.48052
563.50        71.63705
563.93        72.27979
564.37        72.57994
564.80         72.4437
565.24        72.38489
565.68        72.41805
566.11        72.38788
566.55        72.36148
566.98         72.2756
567.42        72.20044
567.85        72.44466
568.29        72.94698
568.72        73.02245
569.16        72.91803
569.60        73.29316
570.03        73.75967
570.47        73.98177
570.90        74.01633
571.34        71.65232
571.77        72.79768
572.21        72.98346
572.64        72.34546
573.08        71.50107
573.51        68.50945
573.95        71.17649
574.38        75.72031
574.82        73.81422
