SpectraSmart Spectrum 2.9.0.0
--------- Device Information -----------
Spectrum Name :  反射率_0
Saving Time :  2024/04/26 02:05:00
Spectro-Module Model Name : SE2030-DUVN
Spectro-Module Serial Number : OS361AC55029948
Wavelength Start : 200
Wavelength End : 1025
Wavelength Unit : Wavelength(nm)
Spectrum Unit : Reflectance(%)
-----------Spectrum Setting ------------
Integration Time : 20ms
Average : 10
Boxcar : 0
Background removal :  enabled
linearity correction :  enabled
SC :  disabled
Intensity correction :  disabled
DWT denoise :  enabled
savitzky-golay :  disabled
FFT :  disabled
Running average :  disabled
Kalman :  disabled
High pass :  disabled
---------------BEGIN--------------------
Wavelength(nm)             Reflectance(%)
200.29               0
200.75        101.7705
201.21        94.54512
201.67        86.29233
202.13        81.59835
202.58        81.05054
203.04        83.87383
203.50        87.76607
203.96        88.87276
204.42        86.65102
204.88        82.70983
205.34        79.59481
205.80        80.13921
206.26        85.71684
206.72        99.59985
207.18        127.3929
207.64        152.1187
208.10        136.6578
208.55        104.0873
209.01        83.20913
209.47        75.51897
209.93        75.29162
210.39        79.47196
210.85         85.1081
211.31        86.28079
211.77        81.19317
212.23        72.34203
212.69        63.88739
213.14        62.15165
213.60        68.04785
214.06        79.39874
214.52        92.28445
214.98        100.8124
215.44        103.2054
215.90        101.3696
216.36         97.1002
216.81        92.75802
217.27        89.70677
217.73        87.30285
218.19        84.98911
218.65          81.923
219.11        77.41962
219.57        70.70574
220.02        62.39102
220.48        57.24506
220.94        57.69288
221.40         62.8124
221.86         66.9215
222.32        63.93895
222.77        55.05882
223.23        44.28062
223.69        35.57951
224.15        33.04225
224.61        36.03517
225.06         42.2757
225.52        48.84693
225.98        52.20807
226.44         51.6005
226.90         48.5171
227.36        44.52414
227.81        41.66154
228.27        40.78624
228.73        41.05107
229.19        42.02769
229.65        43.13159
230.10        44.06333
230.56        44.96494
231.02        45.85514
231.48        46.72638
231.93        47.53227
232.39         48.2176
232.85        48.64071
233.31        48.64644
233.77        48.21255
234.22        47.42065
234.68        46.40855
235.14         45.4257
235.60        44.69435
236.05        44.28863
236.51        44.28723
236.97        44.73648
237.43        45.70647
237.88         47.3595
238.34        49.78298
238.80        52.93946
239.26        56.45476
239.71        60.17431
240.17        63.30766
240.63        65.32384
241.08        66.26508
241.54        66.15768
242.00        65.86073
242.46        66.77289
242.91        70.18739
243.37        78.70382
243.83        104.3823
244.28        182.7416
244.74        262.5336
245.20        207.5866
245.66        162.6748
246.11        150.9037
246.57        158.4125
247.03        192.6424
247.48        297.8153
247.94        252.4049
248.40        141.5799
248.85        106.6819
249.31        96.09656
249.77         94.4996
250.22        97.73255
250.68        105.6454
251.14        117.4498
251.59         124.169
252.05        117.6974
252.51        102.4188
252.96        87.58867
253.42        81.67549
253.88        83.76154
254.33        90.61589
254.79        99.00225
255.25        103.9261
255.70        104.4545
256.16         103.039
256.62        100.9248
257.07        99.13257
257.53        98.05224
257.99        96.58981
258.44        94.36578
258.90        92.19959
259.35        89.47986
259.81        86.73137
260.27        83.43536
260.72        78.96909
261.18        73.99711
261.63        68.59293
262.09        63.77403
262.55        60.03049
263.00        57.30475
263.46        55.47477
263.91        53.93223
264.37        52.33604
264.83        50.45068
265.28        48.27805
265.74        46.17038
266.19        44.41639
266.65        43.26355
267.11        42.52799
267.56        41.89042
268.02        40.95584
268.47         39.5912
268.93        37.92302
269.38         36.1729
269.84        34.95632
270.30        34.42266
270.75        34.40011
271.21        34.51816
271.66         34.2182
272.12        33.36556
272.57        32.14653
273.03        30.89148
273.48        30.00798
273.94        29.62505
274.39         29.5614
274.85        29.60815
275.31        29.45047
275.76        29.00088
276.22        28.38826
276.67        27.74043
277.13        27.33523
277.58        27.15919
278.04        27.13272
278.49        27.05412
278.95        26.71245
279.40        26.05236
279.86         25.2308
280.31         24.3587
280.77        23.71016
281.22        23.31093
281.68        23.10677
282.13        23.01881
282.59        22.96992
283.04        22.91688
283.50        22.91206
283.95        22.90865
284.41        22.85225
284.86        22.72939
285.32        22.55847
285.77        22.41736
286.22        22.49264
286.68        22.78219
287.13        23.19654
287.59        23.57784
288.04         23.6816
288.50        23.49186
288.95        23.08254
289.41        22.61684
289.86        22.23232
290.32        22.03662
290.77        21.97729
291.22        22.07613
291.68        22.32407
292.13        22.71559
292.59        23.26476
293.04        23.94841
293.50        24.72359
293.95        25.55561
294.40        26.41737
294.86        27.29997
295.31        28.20837
295.77        29.15292
296.22        30.14153
296.68        31.15023
297.13        32.10674
297.58        33.02184
298.04        33.93636
298.49        34.95383
298.95        36.28346
299.40        37.94221
299.85        39.85144
300.31        41.84364
300.76        43.64852
301.21        45.16452
301.67        46.49626
302.12        47.67839
302.58        48.86599
303.03        50.09062
303.48        51.34258
303.94        52.71665
304.39        54.29851
304.84        56.10062
305.30        58.08936
305.75        60.07887
306.20         61.8019
306.66         63.2185
307.11        64.35547
307.57        65.39949
308.02        66.52162
308.47        67.82574
308.93        69.26198
309.38        70.73697
309.83        72.15511
310.29        73.46776
310.74        74.66976
311.19        75.80311
311.65        76.93053
312.10        78.05257
312.55        79.15731
313.00        80.13958
313.46        80.84126
313.91        81.22398
314.36        81.35955
314.82        81.45506
315.27        81.77523
315.72         82.4201
316.18        83.32684
316.63        84.33275
317.08        85.12094
317.53        85.59752
317.99        85.82647
318.44        86.01935
318.89        86.52798
319.35         87.3979
319.80         88.5406
320.25        89.61982
320.70        90.08432
321.16        89.82516
321.61        89.03594
322.06        88.12476
322.51        87.72729
322.97        87.98013
323.42        88.73548
323.87         89.6832
324.32        90.28326
324.78        90.36033
325.23        90.12033
325.68        89.75645
326.13        89.60894
326.59        89.76167
327.04         90.1213
327.49        90.58626
327.94        91.03232
328.39        91.40311
328.85        91.73206
329.30        92.06046
329.75        92.28359
330.20        92.41557
330.66        92.46873
331.11        92.60193
331.56        93.00182
332.01        93.72455
332.46        94.69805
332.92        95.79802
333.37        96.97343
333.82        98.06233
334.27        99.07321
334.72        99.87034
335.17        100.2541
335.63        100.2128
336.08        99.85622
336.53        99.42702
336.98        99.36658
337.43        99.79074
337.88        100.5789
338.34        101.5558
338.79        102.5092
339.24        103.2964
339.69        104.0042
340.14        104.5471
340.59        104.7797
341.05        104.7181
341.50        104.3896
341.95        104.0534
342.40        104.1278
342.85        104.6914
343.30        105.6325
343.75        106.6907
344.20        107.3884
344.66        107.5969
345.11        107.4468
345.56        107.1238
346.01        106.9154
346.46        106.9144
346.91        107.0196
347.36        107.1989
347.81        107.4127
348.26        107.6367
348.72        107.9226
349.17        108.1846
349.62        108.3172
350.07        108.3012
350.52        108.1513
350.97        107.9765
351.42        107.9585
351.87        108.1218
352.32        108.4015
352.77        108.6585
353.22        108.6723
353.67        108.3952
354.13        107.9184
354.58        107.3332
355.03        106.8448
355.48         106.505
355.93        106.2455
356.38        106.0011
356.83        105.6697
357.28         105.216
357.73        104.6845
358.18        104.0844
358.63        103.4196
359.08        102.7164
359.53        101.9921
359.98         101.285
360.43         100.658
360.88        100.1155
361.33        99.61633
361.78        99.16249
362.23        98.75578
362.68        98.37705
363.13        98.03265
363.58        97.60483
364.03        96.90651
364.48        95.92745
364.93        94.73526
365.38        93.54627
365.83        92.71599
366.28        92.31371
366.73        92.21254
367.18        92.21405
367.63        91.98489
368.08        91.43554
368.53        90.70337
368.98        89.85177
369.43        88.96801
369.88        88.10703
370.33        87.22334
370.78        86.45358
371.23        86.03854
371.68        86.00497
372.13        86.28828
372.58        86.62897
373.03        86.57311
373.48        86.01664
373.93        85.10831
374.38        84.09351
374.83        83.35223
375.28         82.9819
375.72        82.84318
376.17        82.84072
376.62        82.79708
377.07        82.62973
377.52        82.37968
377.97        82.03084
378.42        81.55232
378.87        80.96439
379.32        80.29788
379.77        79.58312
380.22         78.8628
380.67        78.15364
381.11        77.44961
381.56        76.82256
382.01        76.38937
382.46         76.1763
382.91         76.1722
383.36        76.21577
383.81        76.04726
384.26        75.61506
384.71        74.97314
385.15        74.32379
385.60        74.04694
386.05        74.14952
386.50        74.50167
386.95        74.81257
387.40        74.60275
387.85         73.8261
388.29        72.69241
388.74        71.60455
389.19        70.83395
389.64          70.428
390.09        70.23749
390.54         70.2433
390.98        70.41296
391.43        70.68376
391.88        71.04874
392.33         71.3071
392.78        71.08506
393.23         70.3834
393.67        69.46665
394.12        68.72163
394.57        67.91773
395.02        67.90534
395.47        68.28127
395.91        69.09408
396.36        69.66131
396.81        69.82829
397.26         69.8082
397.71        69.65866
398.15        69.28207
398.60        68.79655
399.05         68.4521
399.50        68.17863
399.95        67.23724
400.39        66.17816
400.84        65.82582
401.29        66.23642
401.74        66.55613
402.18        66.62597
402.63        66.55743
403.08        66.46043
403.53        66.59741
403.97        66.97092
404.42        67.32671
404.87        67.50379
405.32        67.34857
405.76         66.8265
406.21        66.12908
406.66         65.4488
407.11        64.92908
407.55         64.7411
408.00        65.08883
408.45        65.79128
408.90        66.30634
409.34        66.35336
409.79        65.75748
410.24         64.8234
410.68        64.33997
411.13        64.41779
411.58        64.62677
412.03        64.89124
412.47        65.26181
412.92        65.62876
413.37        66.00103
413.81        66.27679
414.26        66.34225
414.71        66.16905
415.15        65.77731
415.60        65.30888
416.05          65.021
416.49        64.98439
416.94        65.15474
417.39        65.36732
417.83        65.31416
418.28        64.95705
418.73          64.427
419.17        63.94889
419.62        63.87888
420.07        64.24117
420.51        64.88674
420.96        65.62444
421.41        66.04183
421.85        65.98833
422.30        65.93726
422.74        65.83664
423.19        65.12953
423.64         64.1205
424.08        64.19849
424.53        65.23484
424.98        65.74869
425.42        65.61324
425.87        65.82198
426.31         66.3679
426.76         66.4927
427.21        66.34983
427.65        66.73359
428.10        67.56255
428.54        68.29053
428.99        68.86319
429.44        69.14365
429.88        69.13381
430.33        69.68987
430.77        70.29174
431.22        69.14935
431.66        66.78765
432.11        65.56781
432.56        65.76876
433.00        66.49409
433.45         67.6048
433.89        69.47751
434.34        70.72879
434.78        71.77699
435.23        68.00314
435.67        66.14315
436.12         69.0038
436.57        70.25562
437.01        70.61625
437.46        70.97361
437.90        71.56072
438.35        70.64568
438.79         71.5005
439.24        71.33168
439.68        71.14049
440.13        70.80457
440.57        70.65796
441.02        71.48392
441.46        72.88361
441.91        73.83359
442.35        73.99033
442.80        72.98946
443.24         71.4155
443.69        72.04541
444.13        74.42126
444.58        74.61646
445.02        72.83019
445.47        72.48626
445.91        73.70795
446.36        74.09655
446.80        73.64462
447.24        73.49329
447.69        73.71535
448.13        73.96375
448.58         74.2427
449.02        74.58394
449.47        74.93433
449.91        75.22742
450.36        75.43587
450.80        75.55067
451.25        75.56239
451.69        75.42887
452.13        75.18893
452.58         74.8816
453.02        74.59805
453.47        74.52242
453.91        74.66219
454.36        74.95446
454.80         75.3145
455.24        75.48618
455.69        75.41094
456.13         75.3577
456.58        75.35966
457.02        74.82356
457.46        74.03055
457.91        74.29612
458.35        74.94144
458.79        75.25377
459.24        75.04005
459.68        74.88729
460.13        74.80442
460.57        74.56902
461.01        74.27631
461.46        73.76202
461.90        73.02715
462.34        73.53732
462.79        73.05138
463.23        73.27871
463.68        73.51107
464.12        74.07015
464.56        74.69614
465.01        74.76053
465.45        74.21883
465.89        73.78867
466.34        73.48191
466.78        72.52409
467.22        71.43326
467.67        71.11146
468.11        72.68578
468.55        73.39938
468.99        73.33081
469.44        72.99341
469.88        72.61982
470.32        72.75839
470.77        73.28667
471.21        73.34126
471.65        72.86971
472.10        72.55244
472.54        72.47217
472.98         72.4076
473.42        72.36111
473.87        72.56542
474.31        72.86404
474.75        72.69774
475.20         72.2114
475.64        72.19153
476.08        72.62654
476.52        72.69688
476.97        72.36106
477.41        72.34393
477.85        72.71809
478.29        72.00059
478.74        72.86828
479.18          72.653
479.62        71.87453
480.06        72.40397
480.50        72.57434
480.95          72.965
481.39        73.18797
481.83        71.67971
482.27        72.09441
482.72        72.02327
483.16        70.60586
483.60        70.85084
484.04         72.4476
484.48         73.0357
484.93        73.09632
485.37         74.1618
485.81        74.71668
486.25        73.09468
486.69        98.99595
487.14         80.4147
487.58        50.19669
488.02        61.96413
488.46         70.3188
488.90        69.91978
489.34        71.71014
489.79        70.55036
490.23        72.89507
490.67        73.70856
491.11        72.67045
491.55          72.634
491.99         73.1591
492.43        72.99387
492.88        72.22198
493.32        72.14903
493.76        72.28783
494.20         72.5624
494.64        72.72056
495.08        73.01863
495.52        73.41454
495.96        73.34093
496.41        72.82681
496.85        73.14705
497.29        74.03737
497.73        72.82566
498.17        70.57755
498.61        70.89172
499.05        73.72071
499.49        74.34487
499.93        74.28951
500.37        73.94962
500.82         73.3188
501.26        73.31707
501.70        73.64722
502.14         74.3989
502.58         74.0486
503.02        73.95731
503.46        73.80922
503.90        73.32692
504.34        72.72844
504.78        72.46213
505.22        72.61402
505.66         73.0444
506.10        73.55677
506.54        73.82051
506.98        73.73912
507.42        73.41734
507.86        73.03292
508.30        72.85474
508.74        72.94989
509.18        73.23121
509.62         73.5574
510.06        73.70552
510.50        73.62077
510.94        73.38568
511.38        73.12845
511.82        73.04089
512.26         73.1683
512.70        73.43898
513.14        73.74773
513.58        73.92881
514.02        73.92867
514.46        73.79906
514.90        73.60966
515.34        73.45305
515.78        73.35421
516.22         73.3419
516.66        73.38809
517.10        73.29654
517.54        73.05471
517.98        73.23717
518.42        73.10007
518.86        73.23532
519.30        73.40966
519.74        73.66264
520.18        73.92255
520.62        74.06988
521.06        74.08691
521.50        74.00665
521.93        73.88046
522.37        73.79135
522.81        73.77418
523.25        73.80724
523.69        73.88512
524.13        73.99947
524.57        74.13867
525.01        74.30048
525.45        74.46108
525.89        74.58157
526.32        74.63903
526.76        74.63416
527.20        74.56889
527.64         74.4757
528.08        74.38784
528.52        74.23175
528.96         73.9882
529.40        73.87615
529.83        73.92251
530.27        73.23571
530.71        73.33525
531.15        73.24661
531.59        73.41601
532.03        73.71004
532.46        74.06805
532.90        74.37639
533.34        74.57423
533.78        74.69384
534.22        74.73313
534.66        74.70312
535.09        74.60617
535.53        74.45979
535.97         74.2994
536.41        74.20738
536.85        74.20248
537.28        74.27167
537.72        74.35184
538.16         74.3488
538.60        74.24585
539.04         74.0228
539.47        73.74699
539.91        73.71712
540.35        73.87363
540.79        73.87318
541.22        73.71915
541.66        73.71011
542.10        73.83321
542.54         73.9147
542.97        73.94444
543.41        73.98888
543.85        74.05314
544.29        74.20523
544.72         74.3485
545.16        74.30442
545.60        74.05381
546.04        73.66879
546.47        73.31855
546.91        73.29903
547.35        73.64317
547.79        74.19978
548.22        74.70969
548.66        74.93011
549.10        74.71301
549.53        73.85951
549.97        72.76603
550.41        72.27144
550.84        72.51162
551.28        73.12289
551.72        73.85283
552.15        74.36132
552.59        74.51575
553.03        74.42558
553.46        74.18677
553.90        74.01977
554.34         73.9817
554.77        73.92283
555.21        73.81853
555.65        73.87029
556.08        74.10818
556.52        73.60346
556.96         74.0513
557.39        73.95209
557.83        73.85962
558.27        73.83249
558.70        73.90686
559.14        74.03764
559.57        74.18748
560.01        74.38869
560.45        74.58221
560.88         74.6744
561.32        74.65295
561.75        74.49523
562.19        74.28438
562.63        73.93358
563.06        73.57018
563.50        73.63283
563.93          74.017
564.37        74.20551
564.80        74.13145
565.24        74.11649
565.68         74.1652
566.11        74.16936
566.55        74.18163
566.98        74.18626
567.42        74.19377
567.85        74.30599
568.29        74.55137
568.72        74.52414
569.16        74.40101
569.60        74.97708
570.03         75.2216
570.47        75.19601
570.90        75.01003
571.34        73.01916
571.77        73.82419
572.21        74.21589
572.64        73.31512
573.08        72.93956
573.51        69.62135
573.95        72.35586
574.38        76.94389
574.82        74.57822
