SpectraSmart Spectrum 2.9.0.0
--------- Device Information -----------
Spectrum Name :  反射率_0
Saving Time :  2024/04/26 01:37:33
Spectro-Module Model Name : SE2030-DUVN
Spectro-Module Serial Number : OS361AC55029948
Wavelength Start : 200
Wavelength End : 1025
Wavelength Unit : Wavelength(nm)
Spectrum Unit : Reflectance(%)
-----------Spectrum Setting ------------
Integration Time : 20ms
Average : 10
Boxcar : 0
Background removal :  enabled
linearity correction :  enabled
SC :  disabled
Intensity correction :  disabled
DWT denoise :  enabled
savitzky-golay :  disabled
FFT :  disabled
Running average :  disabled
Kalman :  disabled
High pass :  disabled
---------------BEGIN--------------------
Wavelength(nm)             Reflectance(%)
200.29               0
200.75        88.38897
201.21        80.38475
201.67        71.24555
202.13        65.14758
202.58        62.57441
203.04        62.81614
203.50        64.62836
203.96        65.80943
204.42        65.67727
204.88        64.92719
205.34        64.24886
205.80         64.3608
206.26        65.66553
206.72        68.95456
207.18        75.17338
207.64        79.55517
208.10        73.91068
208.55        64.75898
209.01         59.7677
209.47        59.57307
209.93        62.42888
210.39        67.83721
210.85        73.22531
211.31        72.83181
211.77        65.27274
212.23        52.95593
212.69         41.1309
213.14        37.84183
213.60        44.40413
214.06        58.56194
214.52        75.14247
214.98        86.03139
215.44          88.909
215.90        86.19643
216.36        80.83322
216.81        76.89697
217.27        75.74164
217.73        75.86557
218.19         75.5969
218.65         72.6885
219.11        66.04514
219.57        54.93875
220.02        40.28048
220.48        29.58483
220.94        27.98519
221.40        34.62935
221.86        42.46694
222.32         43.5336
222.77        38.25756
223.23        30.41672
223.69        24.31563
224.15        24.43618
224.61        30.08019
225.06        38.87656
225.52        47.05831
225.98         49.7904
226.44        46.38959
226.90        39.09658
227.36        30.94731
227.81        26.04616
228.27        25.58894
228.73        27.99087
229.19        31.81302
229.65        34.89665
230.10        36.52026
230.56         37.3683
231.02         37.8027
231.48        38.16127
231.93        38.54742
232.39        38.77508
232.85         38.8014
233.31        38.67671
233.77        38.40154
234.22        37.98483
234.68         37.5191
235.14        37.07803
235.60        36.73013
236.05        36.54245
236.51        36.41571
236.97        36.10789
237.43         35.6159
237.88        35.07727
238.34        34.81779
238.80        35.67025
239.26        37.97306
239.71        41.49548
240.17        45.67134
240.63        49.93612
241.08        53.94695
241.54        57.50887
242.00        60.52406
242.46        63.32602
242.91        66.84496
243.37         72.5805
243.83        87.79915
244.28        136.5428
244.74        192.3282
245.20        162.1776
245.66        134.0011
246.11        125.4466
246.57        127.6285
247.03        142.5569
247.48        185.5927
247.94        149.8671
248.40        100.0878
248.85        86.47011
249.31        83.23894
249.77        83.75673
250.22         86.5662
250.68        92.00248
251.14        99.73026
251.59        104.0762
252.05         99.9888
252.51        90.36937
252.96        80.48776
253.42        75.42316
253.88        74.54735
254.33        75.87936
254.79        78.95312
255.25        82.49892
255.70        85.53397
256.16        88.42879
256.62        89.78494
257.07        88.12175
257.53          84.304
257.99        78.80183
258.44        73.36572
258.90         70.9661
259.35        70.64541
259.81        71.28059
260.27        70.92686
260.72        67.70635
261.18        62.44995
261.63        56.07704
262.09        50.26788
262.55        46.30144
263.00        44.14325
263.46        43.20731
263.91        42.58893
264.37        41.58516
264.83        39.98867
265.28        37.95333
265.74        35.98191
266.19        34.59377
266.65        33.98613
267.11        33.84311
267.56        33.70643
268.02         33.0102
268.47        31.65373
268.93        29.84729
269.38        27.91335
269.84        26.63678
270.30        26.22773
270.75        26.46069
271.21        26.93814
271.66        27.06745
272.12        26.67251
272.57        25.93445
273.03        25.10717
273.48        24.49549
273.94        24.20526
274.39        24.08739
274.85        23.99606
275.31        23.72754
275.76         23.2304
276.22        22.60853
276.67        21.97228
277.13        21.55112
277.58        21.33876
278.04        21.28142
278.49        21.20528
278.95        20.91382
279.40        20.36079
279.86        19.67461
280.31        18.97124
280.77        18.52073
281.22        18.33773
281.68        18.35132
282.13        18.44499
282.59        18.47798
283.04        18.41025
283.50        18.31301
283.95        18.19809
284.41        18.09319
284.86        18.00685
285.32        17.92905
285.77        17.89925
286.22        18.03725
286.68        18.32508
287.13        18.70124
287.59        19.03115
288.04        19.11233
288.50         18.9338
288.95        18.55618
289.41        18.12572
289.86        17.76594
290.32          17.576
290.77        17.51522
291.22        17.60307
291.68        17.82816
292.13        18.18559
292.59        18.68027
293.04         19.3014
293.50        20.02399
293.95        20.81572
294.40        21.64693
294.86        22.47321
295.31        23.24669
295.77        23.96902
296.22        24.66109
296.68        25.35854
297.13        26.08823
297.58        26.88104
298.04        27.74773
298.49        28.71492
298.95        29.86506
299.40        31.19375
299.85        32.66897
300.31        34.20872
300.76         35.6806
301.21        37.02302
301.67        38.29618
302.12        39.47785
302.58         40.6235
303.03        41.74098
303.48        42.83506
303.94        44.03331
304.39        45.48056
304.84        47.19069
305.30        49.10158
305.75        50.97649
306.20        52.46824
306.66        53.53181
307.11        54.24588
307.57        54.86225
308.02        55.65924
308.47         56.7578
308.93         58.0712
309.38         59.4766
309.83        60.82232
310.29        62.03791
310.74        63.14364
311.19        64.16997
311.65        65.16069
312.10        66.12428
312.55        67.05188
313.00         67.8811
313.46         68.5266
313.91        68.96285
314.36         69.2327
314.82        69.49146
315.27        69.93539
315.72        70.63312
316.18        71.53168
316.63        72.47674
317.08        73.17229
317.53        73.53597
317.99        73.63299
318.44        73.66912
318.89        73.98319
319.35        74.63384
319.80        75.54877
320.25        76.44296
320.70        76.84422
321.16        76.65435
321.61        76.02879
322.06        75.32104
322.51        75.08202
322.97        75.42057
323.42         76.2053
323.87        77.11636
324.32        77.60308
324.78        77.50513
325.23        77.02902
325.68        76.43678
326.13        76.17728
326.59        76.36165
327.04        76.86786
327.49        77.52534
327.94         78.0797
328.39        78.43621
328.85         78.6675
329.30        78.85309
329.75         78.9832
330.20        79.09868
330.66        79.17209
331.11        79.33519
331.56        79.74394
332.01        80.43433
332.46        81.34899
332.92        82.34778
333.37        83.31625
333.82        84.10426
334.27        84.74506
334.72        85.17171
335.17        85.30211
335.63        85.16107
336.08        84.82069
336.53        84.49004
336.98        84.54079
337.43        85.05783
337.88        85.94358
338.34        86.98766
338.79        87.91106
339.24        88.57001
339.69        89.05482
340.14         89.3809
340.59         89.5862
341.05        89.71226
341.50        89.71954
341.95        89.72387
342.40        89.93063
342.85        90.37273
343.30        91.00756
343.75        91.66557
344.20        92.03251
344.66        92.04156
345.11        91.77921
345.56        91.41251
346.01         91.1939
346.46         91.1999
346.91         91.3574
347.36        91.59787
347.81        91.81777
348.26        91.98095
348.72         92.1364
349.17        92.27273
349.62        92.41998
350.07        92.57563
350.52        92.71081
350.97        92.79787
351.42        92.80872
351.87        92.74005
352.32        92.60739
352.77        92.43288
353.22         92.2495
353.67        92.07159
354.13         91.9076
354.58        91.73011
355.03        91.54855
355.48         91.3567
355.93        91.14923
356.38        90.91729
356.83        90.64574
357.28         90.3289
357.73        89.97319
358.18        89.57076
358.63        89.11037
359.08        88.60217
359.53        88.06013
359.98        87.51987
360.43        87.03535
360.88        86.60889
361.33        86.21004
361.78        85.81419
362.23        85.38068
362.68         84.9006
363.13        84.40571
363.58        83.86463
364.03        83.22526
364.48        82.49297
364.93         81.6779
365.38         80.9019
365.83        80.36383
366.28        80.08768
366.73        80.00328
367.18        79.93114
367.63        79.57655
368.08        78.88322
368.53        77.96989
368.98        76.99229
369.43        76.18155
369.88        75.60722
370.33        75.19512
370.78        74.91355
371.23        74.71409
371.68        74.55614
372.13        74.44831
372.58        74.33606
373.03         74.1209
373.48        73.78729
373.93        73.36852
374.38        72.90561
374.83        72.46784
375.28        72.07967
375.72        71.70658
376.17        71.40267
376.62        71.22462
377.07        71.16074
377.52        71.17528
377.97        71.15374
378.42        70.91434
378.87         70.4309
379.32        69.78318
379.77         69.0688
380.22        68.42387
380.67        67.88506
381.11        67.41147
381.56        67.00643
382.01        66.68173
382.46        66.43709
382.91        66.29148
383.36        66.16932
383.81        65.94438
384.26        65.59485
384.71        65.13851
385.15        64.68066
385.60        64.44638
386.05        64.42459
386.50        64.53835
386.95        64.61478
387.40        64.37119
387.85         63.7941
388.29        63.00978
388.74        62.27852
389.19        61.73308
389.64        61.39492
390.09        61.16188
390.54        61.06755
390.98        61.16732
391.43        61.43276
391.88        61.82983
392.33        62.11589
392.78         61.9182
393.23        61.24063
393.67        60.25014
394.12        59.34762
394.57        58.83823
395.02        58.83419
395.47        59.34903
395.91        60.18872
396.36        60.76302
396.81        60.90871
397.26        60.80138
397.71        60.52863
398.15        60.09366
398.60        59.62881
399.05        59.26061
399.50        58.95369
399.95        58.25765
400.39        57.57084
400.84        57.25645
401.29        57.40616
401.74        57.66702
402.18        57.93351
402.63        58.09015
403.08         58.1634
403.53         58.3554
403.97        58.65466
404.42        58.86783
404.87        58.89843
405.32        58.69136
405.76        58.23903
406.21        57.64744
406.66        57.08995
407.11        56.74769
407.55        56.71749
408.00        57.09749
408.45        57.70178
408.90        57.94696
409.34        57.70597
409.79        57.25195
410.24         56.7706
410.68        56.45924
411.13        56.39432
411.58        56.48033
412.03        56.69903
412.47        57.03531
412.92        57.40197
413.37        57.81993
413.81        58.15073
414.26        58.21891
414.71        57.98947
415.15        57.50867
415.60         56.9493
416.05         56.6181
416.49        56.60197
416.94        56.83764
417.39        57.15423
417.83        57.24458
418.28        57.04151
418.73        56.63887
419.17         56.2429
419.62        56.18151
420.07        56.49249
420.51        57.06533
420.96        57.65766
421.41        57.85988
421.85        57.56974
422.30        57.04483
422.74        56.47256
423.19        56.13623
423.64         56.1104
424.08         56.4935
424.53        57.12322
424.98        57.57552
425.42        57.74654
425.87        57.92256
426.31          58.122
426.76        58.01945
427.21        57.79655
427.65        58.08991
428.10        58.82074
428.54        59.49829
428.99        60.08371
429.44        60.39212
429.88        60.42461
430.33        61.19738
430.77        62.11154
431.22        60.91545
431.66        58.28632
432.11         57.2615
432.56        58.01298
433.00        58.94018
433.45         59.8091
433.89        61.18323
434.34        61.95889
434.78        63.00844
435.23        59.85557
435.67        58.18213
436.12        60.58785
436.57        61.60502
437.01         61.9653
437.46        62.27748
437.90        62.74253
438.35        62.05689
438.79         62.7743
439.24        62.67256
439.68        62.54293
440.13        62.23274
440.57        62.06203
441.02        62.89996
441.46        64.35065
441.91         65.1822
442.35        65.13916
442.80        64.25591
443.24        63.01818
443.69        63.59302
444.13        65.58169
444.58        65.70567
445.02        64.14299
445.47        63.90474
445.91        64.94032
446.36        65.29214
446.80        64.90437
447.24        64.77848
447.69        64.97504
448.13        65.18197
448.58        65.40488
449.02        65.67776
449.47        65.95695
449.91        66.18528
450.36        66.34666
450.80        66.43881
451.25        66.46201
451.69        66.39523
452.13        66.26415
452.58        66.07314
453.02         65.9024
453.47        65.91447
453.91        66.11334
454.36        66.45751
454.80        66.80093
455.24        66.82421
455.69        66.47231
456.13        65.98209
456.58         65.5742
457.02        65.07523
457.46        64.63248
457.91        65.39581
458.35        65.74417
458.79         66.1077
459.24        66.03321
459.68        65.74808
460.13        65.32541
460.57        65.21352
461.01        64.95675
461.46        64.36401
461.90        64.37463
462.34        64.36057
462.79        64.41145
463.23        64.60015
463.68        64.82893
464.12        65.12327
464.56        65.38744
465.01        65.53542
465.45        65.40091
465.89        65.14967
466.34        64.77037
466.78         63.7369
467.22        62.54513
467.67          62.401
468.11        63.59858
468.55         64.2887
468.99        64.27202
469.44        63.93906
469.88        63.47736
470.32         63.3994
470.77        63.67669
471.21        63.67131
471.65         63.3665
472.10        63.30769
472.54         63.4893
472.98        63.62626
473.42        63.69355
473.87        63.84003
474.31        63.97554
474.75        63.89456
475.20        63.65045
475.64        63.40649
476.08        63.34827
476.52        63.26706
476.97        63.19995
477.41        63.39725
477.85        63.80882
478.29        63.55049
478.74        63.92787
479.18        63.69334
479.62        63.15417
480.06        63.63739
480.50        63.76091
480.95         63.9496
481.39        63.84063
481.83        63.08376
482.27        63.19872
482.72        63.10887
483.16        62.02982
483.60        62.34042
484.04        63.63966
484.48        63.86536
484.93        63.54814
485.37        64.96886
485.81        65.15234
486.25        64.60017
486.69        86.53046
487.14        69.72354
487.58        43.78165
488.02        54.31499
488.46        61.99747
488.90        61.12843
489.34        63.02705
489.79        61.94275
490.23        63.53918
490.67        64.42251
491.11        64.01671
491.55        64.08685
491.99        64.22588
492.43        63.95807
492.88        63.38645
493.32        63.28926
493.76        63.23755
494.20        63.37131
494.64        63.49529
495.08          63.691
495.52        63.97014
495.96        64.12736
496.41        64.08042
496.85        64.43533
497.29         64.9921
497.73        63.86334
498.17        61.98783
498.61        62.31802
499.05        64.77573
499.49        65.09956
499.93        64.74564
500.37         64.4763
500.82        64.20354
501.26        64.29883
501.70        64.55115
502.14         64.8285
502.58        64.94482
503.02        64.88309
503.46        64.62125
503.90        64.10078
504.34        63.52921
504.78        63.28556
505.22        63.43139
505.66        63.88027
506.10         64.4407
506.54        64.68536
506.98          64.493
507.42        64.39706
507.86        63.82913
508.30         63.6297
508.74        63.65139
509.18        63.83278
509.62        64.06666
510.06        64.19991
510.50        64.19643
510.94        64.11007
511.38        64.02151
511.82        64.04551
512.26        64.20634
512.70        64.45255
513.14        64.71223
513.58        64.87775
514.02        64.90999
514.46        64.83701
514.90        64.70734
515.34        64.57865
515.78        64.46354
516.22        64.42506
516.66        64.44263
517.10        64.27712
517.54        63.92365
517.98        64.14571
518.42        63.94641
518.86        64.12022
519.30        64.35397
519.74        64.70003
520.18        65.06785
520.62        65.30375
521.06        65.38026
521.50        65.33568
521.93        65.21295
522.37        65.08695
522.81        64.99543
523.25        64.91912
523.69        64.88444
524.13        64.93185
524.57        65.05896
525.01         65.2552
525.45        65.45982
525.89        65.56897
526.32        65.55019
526.76        65.43096
527.20        65.25861
527.64        65.12912
528.08        65.08541
528.52        65.04828
528.96        64.97039
529.40        64.96022
529.83        65.04234
530.27        64.52956
530.71        64.72827
531.15        64.66016
531.59        64.71501
532.03        64.82965
532.46        65.00809
532.90        65.22875
533.34        65.45403
533.78         65.6835
534.22        65.84768
534.66        65.85077
535.09        65.67513
535.53        65.37891
535.97        65.03969
536.41        64.80195
536.85        64.71061
537.28        64.73324
537.72        64.81729
538.16        64.88462
538.60        64.90752
539.04        64.85876
539.47        64.76397
539.91        64.83397
540.35        65.00618
540.79        64.99312
541.22        64.80936
541.66        64.74493
542.10          64.803
542.54         64.8111
542.97        64.78608
543.41         64.8558
543.85          65.011
544.29        65.23359
544.72        65.40772
545.16        65.38321
545.60        65.13301
546.04        64.70087
546.47        64.27234
546.91        64.17461
547.35         64.4519
547.79        64.98388
548.22        65.51432
548.66        65.70828
549.10        65.45783
549.53        64.76659
549.97        63.96696
550.41        63.59173
550.84         63.7429
551.28        64.26784
551.72        64.96436
552.15        65.18156
552.59        65.35288
553.03        65.16102
553.46        64.87567
553.90        64.70936
554.34        64.71838
554.77        64.75102
555.21         64.7589
555.65        64.88167
556.08        65.12846
556.52        64.70941
556.96        65.11207
557.39        64.97544
557.83        64.80951
558.27        64.76235
558.70        64.86649
559.14        64.97939
559.57          65.082
560.01        65.31549
560.45        65.59582
560.88        65.70739
561.32        65.60876
561.75        65.33564
562.19        64.99729
562.63        64.48919
563.06        64.00311
563.50        64.15119
563.93        64.77113
564.37        65.06297
564.80        64.93288
565.24        64.86584
565.68        64.89266
566.11        64.83698
566.55        64.78283
566.98        64.83633
567.42        64.97761
567.85        65.15146
568.29        65.38221
568.72        65.38323
569.16        65.26693
569.60        65.85302
570.03        66.12229
570.47        65.96284
570.90        65.43323
571.34        64.27548
571.77        64.65473
572.21        64.84985
572.64        64.54171
573.08        63.43385
573.51        60.86576
573.95         63.2394
574.38        67.26543
574.82        65.37347
