SpectraSmart Spectrum 2.9.0.0
--------- Device Information -----------
Spectrum Name :  反射率_0
Saving Time :  2024/04/26 01:08:01
Spectro-Module Model Name : SE2030-DUVN
Spectro-Module Serial Number : OS361AC55029948
Wavelength Start : 200
Wavelength End : 1025
Wavelength Unit : Wavelength(nm)
Spectrum Unit : Reflectance(%)
-----------Spectrum Setting ------------
Integration Time : 20ms
Average : 10
Boxcar : 0
Background removal :  enabled
linearity correction :  enabled
SC :  disabled
Intensity correction :  disabled
DWT denoise :  enabled
savitzky-golay :  disabled
FFT :  disabled
Running average :  disabled
Kalman :  disabled
High pass :  disabled
---------------BEGIN--------------------
Wavelength(nm)             Reflectance(%)
200.29               0
200.75        92.06978
201.21        89.09963
201.67        84.94051
202.13        81.55446
202.58        79.36035
203.04        78.28902
203.50        78.00011
203.96        78.07133
204.42        78.29261
204.88        78.58848
205.34        79.32409
205.80        81.18862
206.26        84.92097
206.72        92.57794
207.18        106.5368
207.64        116.5669
208.10        104.7915
208.55        85.63004
209.01        74.32638
209.47        70.97069
209.93        72.21671
210.39         76.7778
210.85        82.26921
211.31        83.52485
211.77        78.96919
212.23        70.41313
212.69        62.17222
213.14        60.98963
213.60        67.72056
214.06        80.26782
214.52        93.55977
214.98        99.87111
215.44        97.58385
215.90        89.60287
216.36        79.87209
216.81        73.85452
217.27        73.00201
217.73        75.19385
218.19        77.93383
218.65        78.13011
219.11        74.63812
219.57        67.10619
220.02         56.5318
220.48        49.44975
220.94        49.68724
221.40        56.01841
221.86        61.67046
222.32         59.4265
222.77        50.51801
223.23        39.28839
223.69        30.66382
224.15        29.72492
224.61        35.54704
225.06        45.26019
225.52        54.65047
225.98        58.21878
226.44        55.05714
226.90         47.6024
227.36        38.86425
227.81        32.90454
228.27        31.05644
228.73        31.84323
229.19        34.23771
229.65        36.70623
230.10        38.56687
230.56        40.18943
231.02        41.61654
231.48        42.83833
231.93        43.87652
232.39        44.66002
232.85        45.10443
233.31        45.19295
233.77        44.94027
234.22        44.36822
234.68        43.71288
235.14        43.34577
235.60        43.43637
236.05        43.99394
236.51        44.76368
236.97        45.32391
237.43        45.64885
237.88        45.91125
238.34        46.54398
238.80        48.60215
239.26        52.37303
239.71        57.57271
240.17        62.90078
240.63        66.70987
241.08        68.58189
241.54         68.7475
242.00        68.39747
242.46        69.52075
242.91        73.78822
243.37        84.23971
243.83        114.6126
244.28        201.9592
244.74        280.1391
245.20        211.8495
245.66        161.2752
246.11        147.1609
246.57        152.5103
247.03        182.4666
247.48        275.5107
247.94        231.7795
248.40        132.5959
248.85        101.9607
249.31        92.80186
249.77         91.4085
250.22        94.12817
250.68        100.7124
251.14        110.6716
251.59        116.8812
252.05        112.7084
252.51        101.7112
252.96        90.54373
253.42        85.64527
253.88        86.42366
254.33         90.2943
254.79         96.0607
255.25        101.4667
255.70         105.187
256.16        107.9719
256.62        109.0005
257.07        107.3064
257.53        103.8203
257.99        98.81626
258.44        93.34064
258.90        89.78153
259.35        87.42141
259.81         85.7925
260.27        83.74339
260.72        80.11057
261.18        75.51649
261.63        70.29103
262.09        65.45201
262.55        61.44551
263.00        58.31263
263.46        56.00632
263.91        54.08472
264.37        52.39745
264.83        50.68367
265.28        48.84847
265.74        47.11574
266.19        45.56176
266.65        44.39285
267.11         43.5159
267.56        42.67525
268.02        41.54309
268.47        39.99667
268.93         38.1303
269.38        36.18705
269.84        34.83419
270.30        34.23903
270.75        34.23593
271.21        34.39959
271.66        34.07566
272.12        33.11775
272.57         31.7412
273.03        30.35574
273.48        29.49408
273.94        29.29072
274.39        29.49625
274.85        29.80715
275.31        29.77344
275.76        29.28025
276.22        28.51715
276.67        27.65492
277.13        27.03184
277.58        26.67313
278.04        26.49336
278.49        26.32746
278.95        26.01444
279.40        25.49212
279.86        24.88625
280.31         24.2534
280.77        23.78181
281.22        23.46917
281.68         23.2819
282.13        23.15186
282.59        23.02082
283.04        22.86329
283.50        22.73692
283.95        22.62179
284.41        22.50377
284.86        22.38171
285.32        22.26755
285.77        22.22742
286.22        22.42492
286.68        22.84394
287.13        23.39049
287.59        23.89497
288.04        24.09964
288.50        23.98023
288.95        23.60506
289.41        23.13963
289.86        22.72614
290.32        22.48179
290.77        22.36831
291.22        22.40901
291.68        22.59401
292.13        22.92687
292.59        23.42681
293.04        24.11122
293.50        24.99599
293.95        26.05054
294.40        27.22777
294.86         28.4477
295.31        29.60607
295.77        30.69204
296.22        31.74118
296.68        32.80067
297.13        33.91855
297.58        35.12504
298.04        36.40946
298.49         37.8055
298.95         39.4183
299.40        41.24415
299.85        43.25816
300.31        45.32256
300.76        47.20752
301.21        48.83885
301.67        50.30924
302.12        51.69704
302.58         53.2341
303.03        54.94073
303.48        56.76981
303.94        58.72084
304.39         60.7268
304.84         62.7685
305.30        64.86038
305.75        66.87636
306.20        68.65266
306.66        70.18629
307.11        71.46992
307.57        72.68746
308.02        73.99398
308.47        75.49058
308.93        77.14126
309.38        78.83251
309.83         80.4359
310.29        81.89513
310.74        83.20195
311.19        84.42627
311.65        85.67795
312.10        86.96396
312.55        88.26289
313.00        89.42834
313.46        90.23276
313.91        90.62836
314.36        90.71732
314.82        90.76481
315.27         91.1186
315.72        91.89645
316.18        92.99522
316.63        94.21672
317.08        95.18245
317.53        95.77045
317.99        96.06642
318.44        96.26223
318.89         96.6795
319.35         97.3719
319.80        98.26872
320.25        99.10926
320.70        99.47345
321.16        99.28442
321.61        98.69707
322.06        98.04067
322.51        97.82647
322.97        98.14926
323.42        98.89304
323.87        99.77632
324.32        100.3121
324.78        100.3478
325.23        100.0809
325.68        99.69138
326.13        99.50574
326.59        99.60438
327.04        99.90551
327.49        100.3413
327.94        100.8396
328.39        101.3496
328.85        101.8854
329.30        102.4202
329.75        102.7176
330.20        102.7613
330.66         102.598
331.11        102.4865
331.56        102.7707
332.01        103.5518
332.46        104.7207
332.92        106.0655
333.37        107.3968
333.82        108.4913
334.27        109.3924
334.72        110.0394
335.17        110.3616
335.63        110.3848
336.08         110.187
336.53        109.9256
336.98        109.9154
337.43         110.246
337.88        110.8363
338.34        111.6153
338.79        112.5465
339.24        113.5249
339.69        114.5868
340.14        115.5128
340.59         115.926
341.05        115.7859
341.50        115.1967
341.95        114.5578
342.40         114.494
342.85        115.1326
343.30        116.2955
343.75        117.6349
344.20        118.5232
344.66         118.782
345.11        118.5922
345.56        118.1902
346.01        117.9349
346.46        117.9455
346.91        118.0974
347.36        118.3378
347.81        118.6038
348.26        118.8574
348.72        119.1438
349.17        119.4016
349.62        119.5589
350.07        119.5931
350.52        119.5087
350.97        119.3387
351.42        119.1488
351.87        118.9632
352.32        118.7756
352.77        118.5797
353.22        118.3614
353.67        118.1225
354.13          117.89
354.58        117.6503
355.03         117.441
355.48        117.2547
355.93        117.0619
356.38        116.8301
356.83        116.5133
357.28        116.0942
357.73        115.5898
358.18        114.9894
358.63        114.2799
359.08        113.4799
359.53        112.6084
359.98         111.736
360.43        110.9672
360.88        110.3153
361.33        109.7433
361.78        109.1884
362.23        108.5444
362.68        107.7944
363.13        106.9963
363.58         106.169
364.03         105.336
364.48        104.5161
364.93        103.6879
365.38         102.927
365.83        102.3616
366.28        101.9878
366.73        101.7467
367.18        101.4772
367.63        100.9186
368.08          100.03
368.53        98.92753
368.98        97.74934
369.43         96.6983
369.88        95.84152
370.33        95.11604
370.78        94.53853
371.23        94.13634
371.68        93.88662
372.13         93.7821
372.58        93.69905
373.03        93.42162
373.48        92.90849
373.93        92.22783
374.38        91.50602
374.83        90.94204
375.28        90.58384
375.72        90.35194
376.17        90.20757
376.62        90.06565
377.07        89.87248
377.52        89.62682
377.97        89.29591
378.42        88.82903
378.87        88.23597
379.32        87.56598
379.77        86.82912
380.22        86.03133
380.67        85.18913
381.11        84.30394
381.56        83.49878
382.01        82.97872
382.46        82.78666
382.91        82.88383
383.36        83.04037
383.81        82.88493
384.26        82.34207
384.71        81.50555
385.15        80.63682
385.60        80.20802
386.05        80.24395
386.50        80.58396
386.95        80.90927
387.40        80.69498
387.85        79.88201
388.29         78.6981
388.74        77.56146
389.19        76.73751
389.64        76.27538
390.09        76.01981
390.54         75.9668
390.98        76.11393
391.43        76.39977
391.88        76.80019
392.33        77.07545
392.78        76.82452
393.23        76.05033
393.67        75.00225
394.12        74.07195
394.57        73.32954
395.02        72.98067
395.47        73.46243
395.91        74.56591
396.36        75.26942
396.81        75.37083
397.26        75.28236
397.71        75.09924
398.15        74.65516
398.60        74.07677
399.05        73.69106
399.50        73.41753
399.95        72.30462
400.39         70.9967
400.84        70.75337
401.29        71.53667
401.74        71.78356
402.18        71.37123
402.63        71.11003
403.08        71.15122
403.53        71.33099
403.97        71.64956
404.42        72.08537
404.87        72.42697
405.32         72.3373
405.76        71.76756
406.21        70.91189
406.66        70.00282
407.11        69.43643
407.55        69.34044
408.00        69.40035
408.45        69.54842
408.90        70.13446
409.34        70.78459
409.79        70.31125
410.24         69.0319
410.68        68.45302
411.13        68.68545
411.58        68.89229
412.03        68.99649
412.47         69.2541
412.92        69.57254
413.37        69.91101
413.81        70.15604
414.26        70.17457
414.71        69.93258
415.15        69.46687
415.60        68.93542
416.05        68.61127
416.49         68.5699
416.94        68.76071
417.39        68.99541
417.83        68.93093
418.28        68.51595
418.73         67.8815
419.17        67.28707
419.62        67.14363
420.07        67.49046
420.51        68.17342
420.96        68.93726
421.41        69.31062
421.85        69.14034
422.30         68.8046
422.74        68.38168
423.19        67.77941
423.64        67.18736
424.08        67.30902
424.53        67.99843
424.98        68.38478
425.42        68.36855
425.87        68.47159
426.31         68.7265
426.76         68.8188
427.21        68.84183
427.65        69.09268
428.10        69.50111
428.54        70.02005
428.99        70.63852
429.44        70.75665
429.88        70.46085
430.33        71.32547
430.77        72.59036
431.22        71.33652
431.66        68.26573
432.11        66.89817
432.56        67.44124
433.00        68.25867
433.45        69.29177
433.89        71.03773
434.34        71.92391
434.78        74.63817
435.23        70.08044
435.67        67.91409
436.12        69.93302
436.57        71.00765
437.01        71.87782
437.46        72.18426
437.90        72.11492
438.35        71.66878
438.79        72.22228
439.24        72.20438
439.68        72.03089
440.13        71.72267
440.57        71.57926
441.02         72.3486
441.46        73.66628
441.91        74.51819
442.35        74.57943
442.80        73.56483
443.24        72.03207
443.69        72.53008
444.13        74.63236
444.58        74.94223
445.02        73.23709
445.47         72.8895
445.91        73.96173
446.36        74.22798
446.80        73.70318
447.24        73.40424
447.69        73.43841
448.13        73.56158
448.58        73.79222
449.02        74.14008
449.47        74.51366
449.91        74.78214
450.36        74.90584
450.80        74.89762
451.25        74.79878
451.69        74.64482
452.13        74.48293
452.58        74.31637
453.02        74.17341
453.47         74.1423
453.91        74.20772
454.36        74.34196
454.80        74.50109
455.24        74.48943
455.69        74.28406
456.13        74.15362
456.58        74.11871
457.02        73.54074
457.46        72.78483
457.91        72.98217
458.35        73.90565
458.79        74.23592
459.24        73.95192
459.68        73.58307
460.13        73.18314
460.57        72.99741
461.01        73.21642
461.46        71.90947
461.90        72.02941
462.34        72.40011
462.79        71.50871
463.23        71.58392
463.68         71.9209
464.12        72.41123
464.56        72.83132
465.01        72.99348
465.45        72.78299
465.89        72.51315
466.34        72.10252
466.78        71.05977
467.22        69.65559
467.67        68.85023
468.11        70.92313
468.55        71.52523
468.99        71.10801
469.44        70.57506
469.88        70.17368
470.32        70.17683
470.77         70.4897
471.21        70.47614
471.65        70.09541
472.10         69.9381
472.54        70.03455
472.98        70.08459
473.42         70.0646
473.87         70.2546
474.31        70.51048
474.75        70.25222
475.20        69.65623
475.64        69.57842
476.08        70.00536
476.52        70.08862
476.97        69.77177
477.41        69.79477
477.85         70.1947
478.29        69.66641
478.74        69.72512
479.18        69.97427
479.62        68.86034
480.06         69.4858
480.50        69.75574
480.95        70.22688
481.39        70.42382
481.83        69.37511
482.27        69.72151
482.72        69.23779
483.16        67.97862
483.60        68.18769
484.04         69.6554
484.48        70.06794
484.93        69.84505
485.37        71.56267
485.81        72.07928
486.25        70.97681
486.69        98.15766
487.14        79.36497
487.58        48.61682
488.02        59.28592
488.46        67.68853
488.90        66.41212
489.34        68.49718
489.79        67.78345
490.23        69.35889
490.67        70.06522
491.11        69.09579
491.55         69.1137
491.99        69.63658
492.43        69.45936
492.88        68.67764
493.32        68.61001
493.76        68.78117
494.20         69.0014
494.64        69.02274
495.08        69.18938
495.52        69.49945
495.96        69.33252
496.41        68.76939
496.85        69.29053
497.29        70.54194
497.73        69.46111
498.17        67.05978
498.61        67.27767
499.05        70.06415
499.49        70.36164
499.93        69.77272
500.37        69.48012
500.82        69.33362
501.26        69.39053
501.70        69.44543
502.14        69.63632
502.58        69.80463
503.02        69.81171
503.46        69.63458
503.90         69.2756
504.34        68.89165
504.78        68.75289
505.22        68.90724
505.66        69.27425
506.10         69.6955
506.54        69.83676
506.98        69.61099
507.42        69.25541
507.86        68.98026
508.30         68.3918
508.74        68.69769
509.18        68.89907
509.62        69.20432
510.06         69.3755
510.50         69.3618
510.94        69.22395
511.38        69.04724
511.82        68.98997
512.26        69.08674
512.70        69.27819
513.14         69.4916
513.58        69.61745
514.02        69.61638
514.46        69.52022
514.90        69.37872
515.34        69.24982
515.78        69.14627
516.22        69.12054
516.66        69.14159
517.10        68.98284
517.54        68.63574
517.98        68.76694
518.42        68.53262
518.86        68.66149
519.30        68.88513
519.74        69.23869
520.18        69.60596
520.62        69.79346
521.06        69.76709
521.50        69.58081
521.93        69.32048
522.37        69.12892
522.81        69.06013
523.25        69.07501
523.69         69.1537
524.13        69.26457
524.57        69.38892
525.01         69.5375
525.45         69.6884
525.89        69.80148
526.32        69.85766
526.76        69.85706
527.20        69.80976
527.64        69.76216
528.08        69.74298
528.52        69.67182
528.96        69.51971
529.40        69.46834
529.83        69.53992
530.27        68.92129
530.71        69.02211
531.15        68.87896
531.59        68.91574
532.03        69.03036
532.46        69.22011
532.90         69.4648
533.34        69.72119
533.78        69.98341
534.22        70.18908
534.66        70.25626
535.09         70.1629
535.53        69.95751
535.97         69.6925
536.41        69.47569
536.85        69.34634
537.28        69.28768
537.72        69.27003
538.16        69.25428
538.60        69.22719
539.04        69.14869
539.47        69.04242
539.91        69.12561
540.35        69.32547
540.79        69.33896
541.22        69.16827
541.66        69.10066
542.10        69.13569
542.54        69.09421
542.97        69.01188
543.41        69.05379
543.85        69.21761
544.29        69.47699
544.72        69.69272
545.16        69.67886
545.60        69.39865
546.04        68.90634
546.47        68.41525
546.91        68.28661
547.35        68.56943
547.79        69.16283
548.22        69.77386
548.66        69.93266
549.10        69.56142
549.53        68.86078
549.97        68.15063
550.41        67.79454
550.84        67.88695
551.28        68.37523
551.72         69.0832
552.15        69.36436
552.59        69.51862
553.03        69.58512
553.46         69.3028
553.90        69.18944
554.34        69.15631
554.77        69.07581
555.21           68.94
555.65        68.96506
556.08        69.18541
556.52        68.77009
556.96        69.26238
557.39        69.08736
557.83        68.81176
558.27        68.76437
558.70        68.97145
559.14        69.14645
559.57        69.24045
560.01        69.44518
560.45        69.69606
560.88        69.74863
561.32        69.60986
561.75         69.4722
562.19        69.38017
562.63        68.94649
563.06        68.36435
563.50        68.46792
563.93        69.10417
564.37        69.36092
564.80        69.15317
565.24        69.02264
565.68        69.01559
566.11        68.94301
566.55        68.85828
566.98        68.86797
567.42        69.03596
567.85        68.94183
568.29        69.55309
568.72         69.6906
569.16        69.78883
569.60        70.34447
570.03        70.75716
570.47        70.76845
570.90        70.67303
571.34        68.68242
571.77        69.59151
572.21        70.18463
572.64        69.28981
573.08        68.45824
573.51         65.5045
573.95        68.06277
574.38        72.32999
574.82        70.57557
