SpectraSmart Spectrum 2.9.0.0
--------- Device Information -----------
Spectrum Name :  反射率_0
Saving Time :  2024/04/26 02:07:10
Spectro-Module Model Name : SE2030-DUVN
Spectro-Module Serial Number : OS361AC55029948
Wavelength Start : 200
Wavelength End : 1025
Wavelength Unit : Wavelength(nm)
Spectrum Unit : Reflectance(%)
-----------Spectrum Setting ------------
Integration Time : 20ms
Average : 10
Boxcar : 0
Background removal :  enabled
linearity correction :  enabled
SC :  disabled
Intensity correction :  disabled
DWT denoise :  enabled
savitzky-golay :  disabled
FFT :  disabled
Running average :  disabled
Kalman :  disabled
High pass :  disabled
---------------BEGIN--------------------
Wavelength(nm)             Reflectance(%)
200.29               0
200.75        93.30376
201.21        89.64338
201.67        85.02335
202.13        80.84529
202.58        77.45744
203.04        75.02835
203.50        73.73112
203.96        73.97245
204.42        75.46559
204.88        77.50656
205.34        79.87729
205.80        82.86472
206.26        87.27869
206.72        95.43338
207.18        109.4485
207.64         118.048
208.10        103.7998
208.55        82.88205
209.01        71.03664
209.47        67.92795
209.93        69.85856
210.39        75.59863
210.85        82.24075
211.31        83.35321
211.77        77.09837
212.23        65.86884
212.69         55.0009
213.14        52.78239
213.60        60.44835
214.06        75.38372
214.52        91.89412
214.98        101.2523
215.44        101.2791
215.90        95.00131
216.36        86.10147
216.81        79.65656
217.27        77.34753
217.73        77.43495
218.19        77.90515
218.65        76.13149
219.11        71.04263
219.57         62.2085
220.02        50.99067
220.48        44.86965
220.94         47.8195
221.40        57.69564
221.86         66.5808
222.32          66.443
222.77        58.44949
223.23        47.32483
223.69        38.02961
224.15        35.60547
224.61        39.42155
225.06        46.92376
225.52        54.39252
225.98        57.08484
226.44        54.25308
226.90        48.00388
227.36        41.13929
227.81        37.43105
228.27        37.92179
228.73        40.99446
229.19         45.0791
229.65        47.89288
230.10        48.79906
230.56        48.70171
231.02        48.16859
231.48        47.76207
231.93         47.6136
232.39        47.50029
232.85        47.35623
233.31         47.2061
233.77        47.03231
234.22        46.86491
234.68         46.7515
235.14        46.66914
235.60        46.63394
236.05        46.70453
236.51        46.79433
236.97        46.73229
237.43        46.53731
237.88        46.31609
238.34        46.36989
238.80        47.55191
239.26        50.14315
239.71        53.94699
240.17        58.08258
240.63        61.54478
241.08        63.96368
241.54        65.31461
242.00        66.05257
242.46        67.03943
242.91         69.1372
243.37        73.50153
243.83        86.04491
244.28        124.7336
244.74        164.8363
245.20        138.6186
245.66        117.2093
246.11        112.9057
246.57        119.9103
247.03        146.0005
247.48        227.8003
247.94        206.7428
248.40         124.408
248.85        96.75793
249.31        87.84552
249.77         86.2354
250.22        88.50975
250.68        94.08224
251.14        102.6073
251.59        108.1644
252.05        105.0164
252.51        96.17155
252.96        86.30547
253.42        79.95618
253.88        76.71067
254.33        74.90952
254.79        75.24321
255.25        78.04982
255.70        82.30962
256.16         87.4398
256.62        90.99771
257.07        90.54746
257.53        86.99802
257.99        81.21638
258.44        75.44739
258.90        73.20075
259.35        73.43397
259.81         74.7407
260.27        74.82131
260.72        71.48356
261.18        65.69032
261.63         58.5742
262.09        52.11779
262.55        47.91537
263.00        45.89016
263.46        45.27309
263.91        44.94287
264.37        43.99243
264.83        42.21265
265.28        39.85851
265.74         37.5554
266.19        36.00111
266.65        35.43062
267.11        35.43899
267.56        35.48321
268.02        34.92193
268.47        33.63199
268.93        31.84037
269.38        29.88974
269.84         28.5954
270.30        28.17195
270.75        28.38519
271.21        28.78737
271.66        28.70973
272.12        27.98757
272.57        26.85511
273.03        25.67734
273.48        24.91814
273.94        24.70829
274.39         24.8306
274.85        25.05283
275.31         25.0406
275.76        24.69938
276.22         24.1728
276.67        23.57005
277.13        23.12736
277.58        22.85113
278.04        22.68302
278.49        22.50307
278.95        22.19893
279.40        21.72952
279.86        21.20442
280.31        20.65956
280.77        20.24516
281.22        19.95738
281.68        19.76846
282.13        19.65321
282.59        19.60398
283.04         19.5984
283.50        19.66519
283.95        19.72192
284.41        19.65575
284.86        19.45195
285.32        19.15533
285.77        18.90213
286.22        18.95774
286.68        19.32791
287.13        19.89012
287.59         20.4263
288.04        20.60939
288.50        20.40172
288.95        19.91102
289.41        19.32937
289.86        18.84327
290.32        18.57427
290.77        18.45725
291.22         18.5109
291.68        18.72519
292.13        19.08892
292.59        19.61047
293.04        20.25783
293.50        20.96894
293.95        21.70646
294.40        22.45356
294.86        23.19353
295.31          23.922
295.77        24.65414
296.22        25.40202
296.68        26.18714
297.13        27.01128
297.58        27.89671
298.04        28.86103
298.49         29.9422
298.95        31.24008
299.40        32.75418
299.85        34.44728
300.31        36.21554
300.76        37.89277
301.21        39.40656
301.67        40.82032
302.12         42.1429
302.58        43.48293
303.03        44.85326
303.48        46.24686
303.94        47.73994
304.39        49.39417
304.84        51.21627
305.30        53.17657
305.75        55.10703
306.20        56.76907
306.66         58.1328
307.11        59.22403
307.57        60.22721
308.02        61.31739
308.47        62.59184
308.93        63.99697
309.38        65.43628
309.83        66.80251
310.29        68.04682
310.74        69.17889
311.19        70.23378
311.65         71.2632
312.10        72.27554
312.55        73.26349
313.00        74.16779
313.46        74.90259
313.91        75.43613
314.36        75.80887
314.82        76.15239
315.27        76.62453
315.72        77.29396
316.18        78.11959
316.63        78.99097
317.08        79.68212
317.53        80.12893
317.99        80.38023
318.44        80.59761
318.89        81.05056
319.35        81.77627
319.80        82.71761
320.25        83.62791
320.70        84.10005
321.16        84.04852
321.61        83.60674
322.06        83.06894
322.51        82.89983
322.97        83.19312
323.42        83.84835
323.87        84.62113
324.32        85.08819
324.78        85.12022
325.23         84.8879
325.68        84.56865
326.13        84.47533
326.59        84.67946
327.04        85.10049
327.49        85.62917
327.94           86.12
328.39        86.50819
328.85        86.82247
329.30        87.10702
329.75        87.27776
330.20          87.357
330.66        87.36079
331.11        87.43442
331.56        87.74223
332.01        88.33871
332.46        89.15923
332.92        90.12421
333.37        91.24806
333.82          92.389
334.27        93.53411
334.72        94.48343
335.17        94.92517
335.63        94.81856
336.08        94.30858
336.53        93.69224
336.98        93.49814
337.43        93.87067
337.88        94.66033
338.34        95.68435
338.79        96.71366
339.24        97.59261
339.69        98.41428
340.14        99.05899
340.59        99.32007
341.05        99.19926
341.50        98.73902
341.95        98.25007
342.40        98.22679
342.85        98.76798
343.30        99.75112
343.75        100.8745
344.20        101.5904
344.66        101.7455
345.11        101.4779
345.56        101.0402
346.01        100.8176
346.46        100.9164
346.91        101.2165
347.36         101.561
347.81        101.7164
348.26        101.6356
348.72        101.4321
349.17        101.2274
349.62        101.2561
350.07        101.5628
350.52        102.0445
350.97        102.5548
351.42         102.886
351.87        102.9767
352.32        102.8854
352.77        102.6745
353.22        102.4463
353.67        102.2372
354.13        102.0279
354.58        101.7765
355.03        101.4789
355.48        101.1329
355.93        100.7592
356.38        100.3661
356.83        99.95676
357.28        99.53092
357.73        99.08132
358.18        98.61072
358.63        98.12271
359.08        97.62325
359.53        97.12744
359.98        96.61324
360.43        96.04546
360.88        95.41772
361.33        94.72417
361.78        94.04559
362.23        93.51374
362.68        93.15076
363.13        92.93227
363.58        92.69672
364.03        92.18574
364.48          91.359
364.93        90.29266
365.38        89.21812
365.83        88.51338
366.28        88.24989
366.73        88.29296
367.18        88.39203
367.63        88.13874
368.08        87.43786
368.53        86.45097
368.98        85.35303
369.43        84.39899
369.88        83.67484
370.33        83.09737
370.78         82.6597
371.23        82.35893
371.68        82.16691
372.13        82.08956
372.58        82.04334
373.03        81.87383
373.48        81.54587
373.93        81.09911
374.38        80.59969
374.83        80.15928
375.28        79.80749
375.72        79.49299
376.17        79.22769
376.62        79.00546
377.07        78.80429
377.52        78.61326
377.97        78.37549
378.42        77.99765
378.87        77.47872
379.32        76.87766
379.77        76.23897
380.22        75.62087
380.67        75.03902
381.11        74.46478
381.56         73.9537
382.01        73.60261
382.46        73.42681
382.91        73.42218
383.36        73.41988
383.81        73.14906
384.26        72.56984
384.71        71.75446
385.15        70.94569
385.60        70.57313
386.05        70.65779
386.50        71.06041
386.95        71.47002
387.40        71.36556
387.85        70.67881
388.29         69.6223
388.74        68.59873
389.19        67.89785
389.64         67.5677
390.09        67.44724
390.54        67.50191
390.98        67.67725
391.43        67.91309
391.88        68.21552
392.33        68.38758
392.78        68.12791
393.23        67.45599
393.67        66.48151
394.12        65.58797
394.57        65.10091
395.02        65.09652
395.47        65.46739
395.91        66.07819
396.36        66.56023
396.81        66.78602
397.26         66.8196
397.71        66.68479
398.15        66.32166
398.60         65.8469
399.05        65.40844
399.50        65.01778
399.95        64.26294
400.39        63.58679
400.84        63.33797
401.29        63.56236
401.74        63.80344
402.18        63.93333
402.63        63.85348
403.08        63.68597
403.53        63.79819
403.97        64.19873
404.42        64.61896
404.87         64.8728
405.32        64.75151
405.76        64.21681
406.21        63.47955
406.66        62.74237
407.11        62.21678
407.55        62.07519
408.00        62.34647
408.45        62.90374
408.90        63.61842
409.34        64.10526
409.79         63.5569
410.24         62.3273
410.68        61.75522
411.13        61.96516
411.58        62.22225
412.03        62.42485
412.47        62.73291
412.92        63.04154
413.37        63.33177
413.81        63.53236
414.26        63.57169
414.71        63.42713
415.15        63.11421
415.60        62.73428
416.05        62.47264
416.49        62.38764
416.94        62.45946
417.39        62.56848
417.83        62.48778
418.28        62.19043
418.73         61.7601
419.17        61.38749
419.62        61.37919
420.07        61.74691
420.51        62.37207
420.96        63.02836
421.41        63.26797
421.85        62.96739
422.30        62.56651
422.74        62.14495
423.19        61.45969
423.64        60.76088
424.08        61.06226
424.53        62.17242
424.98         62.7677
425.42        62.68304
425.87        62.81609
426.31        63.18534
426.76        63.03699
427.21        62.61408
427.65        62.98628
428.10        64.02843
428.54        64.82257
428.99        65.29155
429.44        65.52917
429.88        65.55766
430.33        66.15861
430.77        66.81655
431.22        65.74194
431.66        63.48117
432.11        62.39401
432.56        62.69117
433.00        63.61394
433.45        64.98577
433.89        66.49048
434.34        66.84311
434.78        68.75732
435.23        64.74342
435.67        63.37961
436.12        65.38166
436.57        66.33926
437.01        66.67115
437.46        67.00751
437.90        67.52892
438.35        66.77345
438.79        67.38457
439.24        67.22139
439.68        67.08974
440.13        66.81703
440.57        66.69276
441.02        67.41801
441.46        68.67671
441.91        69.63088
442.35        69.93265
442.80        69.20382
443.24        67.89893
443.69        68.36162
444.13        70.23438
444.58        70.23171
445.02        68.57762
445.47        68.34596
445.91        69.45803
446.36        69.84845
446.80        69.44862
447.24        69.32651
447.69        69.54393
448.13        69.76299
448.58        69.98756
449.02        70.24941
449.47          70.525
449.91        70.77747
450.36        70.98816
450.80        71.19083
451.25        71.33664
451.69        71.21312
452.13         70.8947
452.58        70.66832
453.02        70.60381
453.47        70.63731
453.91        70.76781
454.36        71.09579
454.80        71.52776
455.24        71.63492
455.69        71.35305
456.13         71.1187
456.58        71.13023
457.02        70.15277
457.46        70.26975
457.91        70.47088
458.35        71.09963
458.79        71.35799
459.24         71.2273
459.68        70.96343
460.13        70.58867
460.57        70.40757
461.01        70.32697
461.46        69.59238
461.90        69.09637
462.34        69.90403
462.79        69.31834
463.23        69.65001
463.68        69.92834
464.12        70.26813
464.56        70.54099
465.01        70.48245
465.45        70.09466
465.89        70.07459
466.34        70.22408
466.78        69.26543
467.22        67.72316
467.67        67.14222
468.11        68.14089
468.55        69.03893
468.99        69.56814
469.44        69.44051
469.88        68.81457
470.32        68.69994
470.77        69.08965
471.21        69.09713
471.65        68.70492
472.10        68.56218
472.54        68.68788
472.98        68.78998
473.42         68.8512
473.87         69.0619
474.31        69.27351
474.75        69.11196
475.20        68.72182
475.64        68.32013
476.08        68.65394
476.52        68.58864
476.97        68.31813
477.41        68.38943
477.85        68.84481
478.29        68.24721
478.74        69.07883
479.18        68.64968
479.62        67.91688
480.06        68.40958
480.50        68.71456
480.95        69.15102
481.39        69.27335
481.83        68.44009
482.27        68.54684
482.72        68.62761
483.16        67.20541
483.60        67.54559
484.04        69.01131
484.48        69.33958
484.93        69.03338
485.37        70.65692
485.81        70.75266
486.25        70.08778
486.69        93.76276
487.14        75.71182
487.58         47.5981
488.02         58.6646
488.46        66.74384
488.90        66.19598
489.34        68.01752
489.79        67.93634
490.23        69.34454
490.67        70.02825
491.11         68.9015
491.55        68.83187
491.99        69.36946
492.43        69.18114
492.88        68.37531
493.32        68.31913
493.76        68.54264
494.20        68.85603
494.64        69.00738
495.08        69.27388
495.52        69.64783
495.96        69.63614
496.41        69.27036
496.85        69.74416
497.29        70.75096
497.73        69.63992
498.17        67.41409
498.61        67.58854
499.05        70.15398
499.49        70.56544
499.93        70.33864
500.37        70.05966
500.82         69.6355
501.26        69.48898
501.70        69.71336
502.14        70.04996
502.58        70.34879
503.02        70.38808
503.46        70.12967
503.90        69.64855
504.34        69.13298
504.78        68.87582
505.22        68.93382
505.66        69.23472
506.10        69.66219
506.54        69.89503
506.98         69.7744
507.42        69.92522
507.86        69.40781
508.30        69.06074
508.74         69.3734
509.18        69.58347
509.62        69.81354
510.06        69.96087
510.50        70.00292
510.94          69.961
511.38        69.89082
511.82        69.89125
512.26        69.98338
512.70        70.12858
513.14         70.2884
513.58        70.40616
514.02         70.4554
514.46        70.45042
514.90        70.40482
515.34        70.32134
515.78        70.20232
516.22         70.1189
516.66        70.07469
517.10        69.90371
517.54         69.6114
517.98        69.82304
518.42        69.69947
518.86        69.90669
519.30        70.17253
519.74        70.55471
520.18        70.94121
520.62        71.11243
521.06        71.05508
521.50        70.89459
521.93        70.70476
522.37        70.54514
522.81        70.46306
523.25        70.46294
523.69        70.53891
524.13        70.66005
524.57        70.80899
525.01        70.99595
525.45        71.17125
525.89        71.25197
526.32        71.21107
526.76        71.06036
527.20        70.85516
527.64        70.70732
528.08        70.66247
528.52        70.64201
528.96        70.56371
529.40        70.49442
529.83        70.45934
530.27        69.73358
530.71        69.79749
531.15        69.69694
531.59        69.87078
532.03        70.22012
532.46        70.66885
532.90        71.05731
533.34        71.30904
533.78        71.46188
534.22        71.51571
534.66         71.4838
535.09        71.37067
535.53        71.19589
535.97         70.9818
536.41        70.79049
536.85        70.64764
537.28        70.55564
537.72        70.50203
538.16        70.46993
538.60         70.4547
539.04        70.40881
539.47        70.34192
539.91        70.45742
540.35        70.67657
540.79        70.69054
541.22        70.52307
541.66        70.50536
542.10        70.64775
542.54        70.72862
542.97        70.72823
543.41         70.8185
543.85        71.00446
544.29        70.92567
544.72        71.12304
545.16        71.02077
545.60          70.786
546.04        70.42508
546.47        70.09113
546.91        70.04627
547.35        70.31115
547.79        70.79932
548.22        71.26848
548.66        71.39158
549.10        71.08238
549.53        70.37357
549.97        69.58585
550.41        69.23321
550.84        69.42053
551.28        69.95078
551.72        70.61042
552.15        71.05595
552.59        71.17298
553.03           71.08
553.46        70.86633
553.90        70.71141
554.34        70.65878
554.77        70.67525
555.21        70.55156
555.65        70.61462
556.08        70.83187
556.52        70.37777
556.96        70.85429
557.39        70.67493
557.83        70.43277
558.27        70.47628
558.70        70.79052
559.14        70.99543
559.57        71.02978
560.01        71.11811
560.45         71.2384
560.88        71.23511
561.32        71.12537
561.75        71.00469
562.19        70.90469
562.63        70.53657
563.06        70.05695
563.50        70.09606
563.93        70.55379
564.37        70.83598
564.80        70.82811
565.24        70.74219
565.68        70.61274
566.11        70.52698
566.55        70.55067
566.98          70.516
567.42        70.46513
567.85        70.64828
568.29        71.04264
568.72        71.10794
569.16        71.00943
569.60        71.35628
570.03        71.80962
570.47        71.65639
570.90        71.20899
571.34         69.5792
571.77        70.28198
572.21        70.47959
572.64        70.05255
573.08        69.18749
573.51        66.27028
573.95        68.80666
574.38        72.97168
574.82        71.12892
