SpectraSmart Spectrum 2.9.0.0
--------- Device Information -----------
Spectrum Name :  反射率_0
Saving Time :  2024/04/26 01:45:03
Spectro-Module Model Name : SE2030-DUVN
Spectro-Module Serial Number : OS361AC55029948
Wavelength Start : 200
Wavelength End : 1025
Wavelength Unit : Wavelength(nm)
Spectrum Unit : Reflectance(%)
-----------Spectrum Setting ------------
Integration Time : 20ms
Average : 10
Boxcar : 0
Background removal :  enabled
linearity correction :  enabled
SC :  disabled
Intensity correction :  disabled
DWT denoise :  enabled
savitzky-golay :  disabled
FFT :  disabled
Running average :  disabled
Kalman :  disabled
High pass :  disabled
---------------BEGIN--------------------
Wavelength(nm)             Reflectance(%)
200.29               0
200.75        100.7214
201.21        93.95613
201.67        85.49037
202.13        79.80363
202.58        77.59972
203.04        77.97812
203.50        79.48663
203.96        79.87584
204.42        78.71918
204.88        76.94682
205.34        75.81605
205.80        76.75492
206.26        80.70622
206.72        90.01073
207.18        108.5467
207.64        125.9966
208.10        117.4405
208.55         96.2469
209.01        82.53409
209.47        78.18249
209.93        79.38175
210.39        84.24545
210.85        89.69705
211.31        89.35129
211.77        81.54245
212.23        68.86215
212.69        56.79376
213.14        53.66778
213.60        60.71312
214.06        75.39931
214.52        91.85204
214.98        100.9888
215.44        100.6053
215.90        93.83547
216.36         84.6254
216.81        78.46615
217.27        76.98204
217.73        78.12251
218.19        79.64323
218.65        78.71132
219.11        74.21523
219.57        65.79538
220.02        54.54693
220.48        47.35926
220.94        48.16846
221.40        55.33469
221.86        61.91938
222.32        60.61255
222.77        52.46114
223.23        41.85216
223.69        33.20587
224.15        30.99944
224.61        34.60698
225.06        41.64325
225.52         48.7584
225.98         51.7923
226.44        49.99405
226.90        45.14996
227.36        39.57598
227.81        36.36222
228.27        36.47982
228.73        38.68011
229.19        41.71264
229.65        43.76941
230.10        44.39794
230.56        44.28884
231.02        44.09804
231.48        44.53453
231.93        45.62672
232.39        47.03777
232.85         48.3336
233.31        48.93432
233.77        48.70826
234.22        47.89019
234.68        46.80348
235.14        46.01285
235.60        45.81629
236.05        46.12406
236.51        46.84325
236.97        47.83516
237.43        49.14922
237.88        51.05133
238.34        53.66691
238.80        57.04222
239.26        60.84394
239.71        64.86115
240.17          68.353
240.63        70.92594
241.08        72.60505
241.54        73.32529
242.00        73.82076
242.46        75.39757
242.91        79.49139
243.37         88.9978
243.83        116.6519
244.28        198.3146
244.74        275.7694
245.20        214.1158
245.66        166.9319
246.11        154.6511
246.57        162.2133
247.03        197.6962
247.48        306.4218
247.94        256.5647
248.40          141.48
248.85        105.6737
249.31        95.09592
249.77        94.14758
250.22        98.65508
250.68        108.6334
251.14        123.8911
251.59        135.0469
252.05        132.2025
252.51        119.4273
252.96        105.3238
253.42        98.53233
253.88        98.63906
254.33        102.2599
254.79        108.2197
255.25        114.2676
255.70        118.8497
256.16        122.7984
256.62        124.7266
257.07        123.0672
257.53        118.9828
257.99        112.9738
258.44        106.6619
258.90        103.1897
259.35        101.5643
259.81        100.9117
260.27        99.52942
260.72        95.74452
261.18        90.41021
261.63        84.14381
262.09        78.30745
262.55        73.63523
263.00        70.15528
263.46          67.687
263.91         65.6675
264.37        63.92762
264.83        62.13374
265.28        60.19912
265.74        58.26767
266.19        56.26033
266.65        54.46292
267.11        52.87386
267.56        51.37263
268.02        49.79648
268.47        48.00007
268.93        46.03825
269.38        44.07096
269.84        42.62775
270.30        41.84486
270.75        41.58997
271.21        41.53589
271.66        41.17019
272.12        40.35836
272.57         39.2448
273.03        38.10052
273.48        37.24348
273.94        36.78636
274.39        36.56439
274.85         36.4162
275.31         36.0898
275.76        35.50887
276.22        34.78516
276.67        34.02116
277.13        33.47218
277.58        33.11944
278.04        32.92198
278.49        32.67319
278.95        32.16828
279.40        31.34958
279.86        30.37099
280.31        29.37735
280.77        28.71099
281.22        28.38392
281.68        28.31303
282.13        28.33171
282.59        28.24913
283.04        28.01109
283.50        27.73792
283.95        27.45227
284.41        27.21525
284.86        27.04452
285.32        26.91599
285.77        26.90486
286.22        27.20094
286.68        27.77259
287.13          28.508
287.59        29.16235
288.04         29.3515
288.50         29.0509
288.95        28.38405
289.41        27.61599
289.86        27.02827
290.32        26.77572
290.77        26.76691
291.22        26.99251
291.68        27.38872
292.13        27.93031
292.59        28.65699
293.04        29.54515
293.50        30.54872
293.95        31.62675
294.40          32.737
294.86        33.87733
295.31        35.06955
295.77        36.32651
296.22        37.65231
296.68        38.99313
297.13        40.22728
297.58        41.35408
298.04        42.42627
298.49        43.59592
298.95        45.15473
299.40        47.13443
299.85        49.43716
300.31         51.8262
300.76        53.91515
301.21        55.57788
301.67        56.95842
302.12        58.16898
302.58        59.50024
303.03        60.99767
303.48        62.61377
303.94        64.35747
304.39        66.17363
304.84        68.05182
305.30        70.00548
305.75        71.92844
306.20        73.68623
306.66        75.26566
307.11        76.63223
307.57         77.9007
308.02        79.11826
308.47         80.3709
308.93        81.65574
309.38        82.93121
309.83        84.18949
310.29        85.41394
310.74        86.57364
311.19        87.69065
311.65        88.79343
312.10         89.8711
312.55         90.9305
313.00        91.88367
313.46        92.59699
313.91        93.03522
314.36        93.25514
314.82        93.44258
315.27        93.82704
315.72        94.50025
316.18         95.3985
316.63         96.3761
317.08        97.14369
317.53        97.61215
317.99         97.8399
318.44        98.00945
318.89        98.42657
319.35        99.13227
319.80        100.0654
320.25        100.9402
320.70         101.291
321.16        101.0324
321.61        100.3284
322.06        99.54562
322.51        99.25568
322.97        99.56992
323.42        100.3634
323.87        101.3222
324.32        101.9022
324.78        101.9333
325.23        101.6228
325.68        101.1957
326.13        101.0525
326.59        101.2854
327.04        101.7914
327.49        102.4219
327.94        102.9738
328.39        103.3676
328.85        103.6532
329.30        103.9117
329.75        104.0914
330.20        104.2249
330.66         104.302
331.11        104.4735
331.56         104.907
332.01        105.6532
332.46        106.6546
332.92        107.7652
333.37        108.9219
333.82        109.9505
334.27        110.8559
334.72        111.5516
335.17        111.9242
335.63        111.9771
336.08        111.8063
336.53        111.5622
336.98        111.5416
337.43        111.8357
337.88          112.37
338.34        113.0838
338.79        113.9651
339.24        114.9184
339.69        115.9699
340.14        116.9194
340.59        117.4186
341.05        117.4187
341.50        117.0055
341.95        116.5177
342.40        116.4901
342.85        117.0419
343.30        118.0308
343.75        119.1655
344.20        119.9251
344.66        120.1591
345.11        119.9952
345.56        119.6585
346.01        119.4897
346.46        119.5849
346.91        119.8365
347.36        120.1011
347.81        120.1677
348.26        119.9986
348.72        119.6993
349.17        119.3968
349.62        119.3329
350.07        119.5508
350.52        119.9445
350.97        120.3626
351.42        120.5854
351.87        120.5502
352.32        120.3276
352.77        119.9747
353.22        119.5825
353.67        119.1987
354.13        118.8163
354.58        118.4303
355.03        118.1007
355.48        117.8261
355.93        117.5868
356.38        117.3451
356.83        117.0316
357.28        116.6183
357.73        116.1223
358.18         115.523
358.63        114.7933
359.08        113.9542
359.53        113.0358
359.98        112.1189
360.43        111.3267
360.88         110.679
361.33        110.1274
361.78        109.6264
362.23        109.0979
362.68        108.5147
363.13        107.9158
363.58        107.2578
364.03        106.4671
364.48        105.5503
364.93         104.526
365.38        103.5328
365.83        102.8035
366.28        102.3679
366.73        102.1329
367.18        101.9311
367.63        101.4861
368.08        100.7358
368.53        99.80228
368.98        98.76347
369.43        97.72684
369.88        96.75062
370.33        95.79901
370.78        94.98121
371.23        94.48428
371.68        94.32713
372.13        94.45843
372.58         94.6718
373.03        94.60435
373.48         94.1659
373.93        93.46625
374.38        92.67612
374.83        92.06669
375.28        91.70518
375.72        91.47796
376.17        91.33602
376.62        91.18196
377.07        90.95988
377.52        90.69346
377.97        90.33123
378.42        89.78643
378.87        89.07433
379.32         88.2542
379.77        87.40878
380.22        86.65121
380.67         86.0059
381.11        85.43793
381.56        84.96018
382.01        84.59508
382.46        84.34243
382.91        84.21768
383.36        84.10637
383.81        83.82557
384.26        83.34792
384.71        82.70692
385.15        82.07087
385.60        81.77838
386.05        81.82073
386.50        82.07944
386.95        82.29561
387.40        82.04246
387.85        81.28252
388.29        80.19992
388.74        79.16027
389.19        78.35811
389.64         77.8392
390.09        77.48606
390.54        77.33497
390.98        77.44908
391.43        77.78114
391.88        78.26807
392.33        78.66119
392.78        78.53813
393.23        77.88175
393.67        76.97318
394.12        76.14714
394.57        75.32602
395.02        74.74204
395.47        74.99378
395.91        75.94149
396.36        76.55896
396.81        76.67915
397.26         76.7609
397.71        76.80074
398.15        76.48222
398.60        75.92137
399.05        75.38154
399.50        74.88003
399.95        73.90984
400.39        73.01469
400.84        72.65713
401.29        72.89851
401.74        73.21185
402.18        73.41202
402.63        73.27808
403.08        72.95999
403.53        73.01192
403.97        73.44904
404.42        73.87485
404.87        74.09068
405.32        73.90549
405.76        73.26822
406.21        72.47034
406.66        71.71392
407.11        70.99452
407.55        70.57212
408.00        70.99184
408.45        72.02229
408.90        72.72149
409.34        72.71745
409.79        71.93766
410.24        70.76434
410.68          70.129
411.13         70.1675
411.58        70.35058
412.03        70.59969
412.47        71.01176
412.92        71.46475
413.37        71.95325
413.81        72.32793
414.26        72.40717
414.71        72.14876
415.15        71.58831
415.60        70.92451
416.05        70.50834
416.49        70.43734
416.94        70.64556
417.39        70.91189
417.83        70.83543
418.28        70.35081
418.73        69.60815
419.17        68.90653
419.62        68.71323
420.07        69.07231
420.51        69.81065
420.96        70.62602
421.41        70.95717
421.85        70.64472
422.30        70.14917
422.74        69.59219
423.19        68.87079
423.64        68.21015
424.08        68.43613
424.53        69.38311
424.98        69.93654
425.42        69.94579
425.87        70.22224
426.31        70.72164
426.76        70.55541
427.21        69.98745
427.65        70.28555
428.10        71.31985
428.54        72.05882
428.99        72.39128
429.44        72.45335
429.88         72.3122
430.33         72.9357
430.77        73.72277
431.22        72.60752
431.66        70.11716
432.11        68.74888
432.56        68.76599
433.00        69.50698
433.45        70.88493
433.89        72.56551
434.34        73.01612
434.78        75.38618
435.23        70.73788
435.67        68.98656
436.12        71.83598
436.57        73.04267
437.01         73.3195
437.46          73.535
437.90         73.9967
438.35        72.75768
438.79        73.54754
439.24        73.25712
439.68        73.04774
440.13        72.62666
440.57        72.37757
441.02        73.59214
441.46         75.6894
441.91        76.52209
442.35        75.95494
442.80        74.99816
443.24        74.08807
443.69        74.72565
444.13        76.46101
444.58        76.33251
445.02        74.60332
445.47        74.05138
445.91         75.1829
446.36        75.40766
446.80        74.83326
447.24        74.65269
447.69        74.95015
448.13        75.04572
448.58         75.5195
449.02        75.93097
449.47         76.3651
449.91        76.67581
450.36        76.82909
450.80        76.83288
451.25        76.70786
451.69        76.47617
452.13        76.19265
452.58        75.87614
453.02         75.6086
453.47        75.55704
453.91        75.71628
454.36        76.03375
454.80        76.40067
455.24        76.50164
455.69        76.28111
456.13        76.06449
456.58         75.9196
457.02        75.23817
457.46        74.38957
457.91         74.6701
458.35        75.77809
458.79        76.14407
459.24        75.70227
459.68        75.22398
460.13        74.82928
460.57        74.44825
461.01        74.21049
461.46        73.48971
461.90        73.25726
462.34        73.42593
462.79         73.1673
463.23        73.44371
463.68        73.81158
464.12        74.13155
464.56        74.29081
465.01        74.22345
465.45        73.87859
465.89        73.76576
466.34        73.74555
466.78        72.73423
467.22        71.25284
467.67        70.85473
468.11        71.95707
468.55        72.71808
468.99        72.88988
469.44        72.54495
469.88        71.88654
470.32        71.77002
470.77        72.14714
471.21        72.11687
471.65        71.64309
472.10        71.39235
472.54        71.42672
472.98        71.47393
473.42          71.508
473.87        71.83211
474.31        72.22827
474.75        71.89886
475.20        71.05153
475.64        70.85221
476.08        71.32493
476.52        71.36658
476.97        70.91751
477.41        71.25951
477.85        71.57715
478.29        71.23145
478.74        71.89867
479.18        71.85727
479.62        70.82036
480.06        71.27972
480.50        71.47763
480.95        71.72528
481.39        71.61165
481.83        70.51051
482.27        71.08066
482.72        70.47445
483.16         69.6987
483.60        69.92352
484.04        71.22089
484.48        71.65549
484.93        71.69856
485.37        72.92442
485.81        73.24008
486.25        72.02174
486.69        98.31725
487.14        79.46037
487.58        49.30769
488.02        60.15123
488.46        68.59753
488.90        68.03745
489.34        69.87727
489.79        68.90707
490.23        70.98966
490.67        71.82335
491.11        70.90147
491.55        70.83916
491.99         71.2271
492.43        71.01975
492.88        70.33042
493.32        70.38924
493.76        70.63475
494.20        70.87905
494.64        70.86578
495.08        70.80468
495.52        70.81805
495.96        70.82033
496.41        70.77751
496.85        71.35173
497.29         72.2188
497.73        71.10348
498.17        69.01337
498.61        69.23938
499.05         71.7574
499.49        72.13007
499.93        71.94643
500.37        71.58995
500.82        70.99885
501.26        71.13035
501.70        71.66904
502.14         71.8308
502.58        71.50361
503.02        71.30339
503.46        71.24221
503.90        70.93494
504.34        70.51206
504.78        70.36266
505.22        70.52363
505.66         70.9067
506.10        71.35615
506.54        71.52672
506.98        71.32419
507.42        71.17905
507.86         70.6653
508.30        70.48741
508.74          70.531
509.18         70.7632
509.62        71.05401
510.06        71.14655
510.50        71.02415
510.94        70.88638
511.38        70.81063
511.82        70.78975
512.26        70.85046
512.70        71.01982
513.14        71.22302
513.58        71.34889
514.02         71.3702
514.46        71.24734
514.90        71.02034
515.34         71.1282
515.78        70.95595
516.22        71.03992
516.66        71.14679
517.10        71.05094
517.54        70.73288
517.98        70.83754
518.42        70.58125
518.86        70.63341
519.30        70.75455
519.74        70.98272
520.18        71.25724
520.62        71.46994
521.06        71.59246
521.50        71.66337
521.93        71.69427
522.37        71.65362
522.81         71.5483
523.25        71.57672
523.69        71.42963
524.13        71.44824
524.57        71.53963
525.01         71.6977
525.45        71.86908
525.89        71.97036
526.32        71.97382
526.76        71.89658
527.20        71.77744
527.64        71.69782
528.08        71.69254
528.52        71.67728
528.96        71.59113
529.40        71.54097
529.83         71.5588
530.27        70.90205
530.71        71.02699
531.15        70.88983
531.59         70.9287
532.03        71.06441
532.46         71.3066
532.90        71.63549
533.34        71.99946
533.78        72.38977
534.22        72.69077
534.66         72.7402
535.09        72.51086
535.53        72.08339
535.97        71.58638
536.41        71.25051
536.85        71.14396
537.28        71.21152
537.72        71.36405
538.16        71.46341
538.60        71.46458
539.04        71.35596
539.47        71.18656
539.91        71.21729
540.35        71.38718
540.79        71.37064
541.22        71.17074
541.66        71.08808
542.10        71.12211
542.54        71.09107
542.97        71.02836
543.41        71.09453
543.85         71.2838
544.29        71.56968
544.72        71.80614
545.16        71.79993
545.60        71.51292
546.04        70.99829
546.47         70.4805
546.91        70.34508
547.35        70.64388
547.79        71.25598
548.22        71.87025
548.66        72.02081
549.10        71.61264
549.53         70.7869
549.97        69.89869
550.41        69.45955
550.84        69.59216
551.28         70.0989
551.72        70.75832
552.15        71.24263
552.59        71.41103
553.03        71.28809
553.46        70.98223
553.90        70.80782
554.34        70.81644
554.77        70.79882
555.21         70.7253
555.65        70.77741
556.08        70.96886
556.52        70.50764
556.96        70.99744
557.39        70.74258
557.83        70.33954
558.27        70.49265
558.70        70.71665
559.14        70.99827
559.57        71.13689
560.01        71.36976
560.45        71.61474
560.88        71.71106
561.32        71.63181
561.75        71.25849
562.19        70.76476
562.63        70.36349
563.06        70.16174
563.50        70.31641
563.93        70.67834
564.37        70.84637
564.80        70.74015
565.24        70.59621
565.68        70.47218
566.11        70.38373
566.55        70.40105
566.98        70.48647
567.42        70.59321
567.85        70.74398
568.29        70.98317
568.72        70.93925
569.16        70.77252
569.60        71.65774
570.03        71.75822
570.47        71.85675
570.90        71.82304
571.34        69.86327
571.77        71.04089
572.21        71.01391
572.64        70.29327
573.08        69.40398
573.51        66.65149
573.95        69.10361
574.38        73.73077
574.82        71.45648
