SpectraSmart Spectrum 2.9.0.0
--------- Device Information -----------
Spectrum Name :  反射率_0
Saving Time :  2024/04/26 02:06:32
Spectro-Module Model Name : SE2030-DUVN
Spectro-Module Serial Number : OS361AC55029948
Wavelength Start : 200
Wavelength End : 1025
Wavelength Unit : Wavelength(nm)
Spectrum Unit : Reflectance(%)
-----------Spectrum Setting ------------
Integration Time : 20ms
Average : 10
Boxcar : 0
Background removal :  enabled
linearity correction :  enabled
SC :  disabled
Intensity correction :  disabled
DWT denoise :  enabled
savitzky-golay :  disabled
FFT :  disabled
Running average :  disabled
Kalman :  disabled
High pass :  disabled
---------------BEGIN--------------------
Wavelength(nm)             Reflectance(%)
200.29               0
200.75        95.60628
201.21        89.44394
201.67        81.88856
202.13        76.96795
202.58        75.35452
203.04        76.39182
203.50        78.63307
203.96        79.76322
204.42        79.19286
204.88        77.59058
205.34        76.55539
205.80        78.03052
206.26        83.19128
206.72        95.14813
207.18        117.5262
207.64        132.5959
208.10         111.863
208.55        80.67249
209.01        63.21637
209.47        59.49659
209.93        64.01657
210.39        74.35884
210.85        86.74809
211.31         92.3136
211.77        87.71502
212.23         76.1697
212.69        63.37798
213.14        58.10495
213.60        62.04243
214.06        72.60046
214.52        85.01202
214.98        91.98426
215.44         91.6719
215.90        86.68378
216.36        80.21912
216.81        76.52878
217.27        76.76163
217.73        79.13336
218.19        81.40755
218.65        80.82552
219.11        76.31744
219.57         67.2664
220.02        54.81574
220.48        46.46973
220.94        46.69158
221.40        53.99758
221.86        60.86505
222.32        59.16636
222.77        50.09499
223.23        38.42965
223.69        29.12057
224.15        27.21228
224.61         31.9042
225.06        40.37491
225.52        48.80883
225.98        52.35155
226.44         50.1557
226.90        44.40923
227.36        37.58911
227.81        33.00502
228.27        31.79607
228.73        32.63011
229.19        34.80854
229.65        37.30341
230.10        39.49054
230.56        41.55493
231.02        43.22079
231.48        44.10386
231.93        44.26211
232.39        43.82855
232.85        43.09139
233.31         42.5934
233.77        42.46973
234.22        42.56961
234.68        42.81248
235.14        42.93527
235.60        42.86991
236.05        42.81233
236.51        42.75601
236.97        42.60989
237.43        42.42681
237.88        42.25474
238.34         42.4504
238.80        43.95214
239.26        47.03214
239.71        51.47341
240.17         56.1974
240.63         59.8233
241.08        61.95454
241.54        62.74638
242.00        62.93623
242.46        63.81953
242.91        66.50433
243.37        72.57522
243.83        90.79714
244.28        149.1188
244.74        213.9743
245.20        177.3338
245.66        143.8981
246.11        133.8031
246.57        136.4992
247.03        154.0437
247.48        205.3668
247.94        166.9801
248.40        108.7273
248.85        92.38965
249.31         88.3876
249.77        88.88338
250.22        92.09378
250.68        98.31351
251.14         107.111
251.59        111.9274
252.05        106.9372
252.51        95.68484
252.96        84.16029
253.42        77.90179
253.88        76.30951
254.33        77.29062
254.79        80.66203
255.25        85.47033
255.70        90.36138
256.16        95.23213
256.62        98.16655
257.07        97.21043
257.53        93.38323
257.99        87.45946
258.44        81.38309
258.90        78.40866
259.35        77.63656
259.81        77.92609
260.27        77.37234
260.72        74.14067
261.18        69.02502
261.63        62.83595
262.09         57.1525
262.55        53.08976
263.00        50.62051
263.46        49.28107
263.91        48.23191
264.37         46.8699
264.83         44.9761
265.28        42.67777
265.74        40.46135
266.19        38.82035
266.65        37.98309
267.11        37.64657
267.56        37.37409
268.02        36.63515
268.47        35.30407
268.93        33.56579
269.38         31.6916
269.84        30.37977
270.30        29.81929
270.75        29.81719
271.21        30.00866
271.66        29.84984
272.12        29.18754
272.57        28.18987
273.03        27.14562
273.48        26.40233
273.94        26.07074
274.39          25.998
274.85          25.967
275.31        25.66191
275.76        25.01794
276.22        24.17084
276.67        23.33492
277.13        22.89964
277.58        22.86542
278.04        23.10937
278.49        23.32502
278.95        23.13726
279.40        22.47832
279.86        21.55783
280.31        20.59329
280.77        20.01253
281.22        19.85969
281.68        19.99457
282.13        20.25411
282.59        20.43894
283.04        20.48287
283.50        20.48887
283.95        20.42851
284.41        20.26839
284.86        20.02144
285.32        19.69911
285.77        19.44334
286.22         19.5336
286.68        19.97356
287.13        20.64806
287.59        21.30071
288.04        21.53986
288.50        21.32153
288.95        20.76775
289.41        20.13364
289.86        19.70103
290.32        19.60196
290.77        19.73553
291.22        20.04266
291.68        20.39447
292.13        20.76209
292.59        21.20419
293.04        21.76409
293.50        22.49813
293.95        23.39889
294.40        24.40573
294.86        25.46176
295.31        26.50212
295.77        27.51718
296.22        28.53533
296.68        29.56577
297.13        30.58767
297.58        31.62116
298.04        32.68502
298.49         33.8451
298.95        35.25475
299.40         36.9244
299.85        38.80254
300.31        40.76011
300.76        42.58541
301.21        44.19112
301.67        45.65635
302.12        46.99835
302.58        48.34705
303.03         49.7202
303.48        51.11062
303.94        52.59484
304.39        54.23167
304.84         56.0297
305.30        57.95995
305.75        59.86137
306.20        61.50872
306.66        62.87274
307.11        63.97199
307.57        64.97265
308.02        66.01201
308.47        67.18987
308.93        68.47203
309.38        69.78804
309.83        71.07772
310.29        72.29984
310.74        73.43423
311.19        74.50889
311.65        75.56417
312.10        76.59466
312.55        77.60239
313.00         78.4799
313.46        79.06356
313.91        79.32597
314.36        79.34726
314.82        79.36547
315.27        79.69479
315.72         80.4349
316.18        81.49438
316.63        82.67298
317.08         83.5918
317.53        84.13105
317.99        84.37072
318.44        84.51202
318.89        84.89413
319.35        85.57362
319.80        86.46865
320.25        87.30614
320.70        87.64256
321.16        87.39628
321.61        86.73647
322.06        86.00001
322.51        85.70538
322.97        85.95874
323.42        86.64107
323.87        87.49313
324.32        88.06398
324.78        88.20522
325.23        88.09304
325.68         87.8758
326.13        87.82418
326.59        88.00315
327.04        88.33904
327.49        88.77257
327.94        89.24799
328.39        89.72381
328.85        90.20821
329.30        90.69003
329.75        90.97938
330.20        91.06702
330.66        90.99572
331.11        90.96974
331.56        91.24742
332.01        91.91001
332.46        92.86855
332.92        93.98728
333.37        95.18843
333.82        96.29893
334.27        97.33655
334.72        98.16502
335.17         98.5798
335.63        98.56808
336.08        98.23795
336.53        97.82844
336.98        97.77895
337.43        98.20913
337.88        99.00191
338.34        100.0008
338.79         101.022
339.24        101.9276
339.69        102.7931
340.14        103.5033
340.59        103.8623
341.05        103.8614
341.50        103.5296
341.95        103.1458
342.40        103.1598
342.85        103.6615
343.30        104.5421
343.75        105.5167
344.20        106.0701
344.66         106.078
345.11        105.6898
345.56        105.1713
346.01        104.9225
346.46        105.0497
346.91        105.4203
347.36        105.8842
347.81        106.2162
348.26         106.355
348.72        106.4016
349.17        106.4065
349.62        106.4936
350.07        106.6878
350.52        106.9167
350.97        107.1361
351.42        107.2969
351.87         107.374
352.32        107.3867
352.77        107.3084
353.22        107.0928
353.67        106.7502
354.13        106.3231
354.58        105.8574
355.03        105.4854
355.48        105.2346
355.93        105.0643
356.38        104.9243
356.83        104.7316
357.28        104.4455
357.73        104.0792
358.18        103.6195
358.63        103.0464
359.08        102.3764
359.53        101.6388
359.98        100.8669
360.43        100.1116
360.88        99.39406
361.33        98.69662
361.78        98.07056
362.23        97.59324
362.68        97.26218
363.13        97.05333
363.58        96.81986
364.03        96.32867
364.48        95.53797
364.93        94.51362
365.38        93.43429
365.83        92.59785
366.28         92.0737
366.73        91.76523
367.18        91.52473
367.63         91.1089
368.08        90.46044
368.53        89.68713
368.98        88.86898
369.43        88.11169
369.88        87.45486
370.33        86.85186
370.78        86.33249
371.23        85.95879
371.68         85.7252
372.13        85.61215
372.58        85.52464
373.03        85.29449
373.48        84.88836
373.93        84.36838
374.38        83.81087
374.83        83.33388
375.28        82.96889
375.72        82.65487
376.17        82.41108
376.62        82.24645
377.07        82.13076
377.52        82.04012
377.97        81.87478
378.42          81.476
378.87        80.83686
379.32        80.04749
379.77        79.20268
380.22        78.43165
380.67        77.76974
381.11        77.17093
381.56        76.67838
382.01        76.36549
382.46        76.23672
382.91        76.29654
383.36        76.36658
383.81        76.15883
384.26        75.62778
384.71        74.84074
385.15        74.05187
385.60        73.71802
386.05        73.86147
386.50        74.33362
386.95        74.80001
387.40        74.69987
387.85        73.95965
388.29        72.81055
388.74        71.68891
389.19        70.91082
389.64        70.53244
390.09        70.38935
390.54        70.43578
390.98        70.59893
391.43        70.80751
391.88        71.06579
392.33        71.20063
392.78        70.91602
393.23        70.22877
393.67        69.32603
394.12        68.53055
394.57        67.89758
395.02        67.58437
395.47        67.90998
395.91        68.74581
396.36        69.35058
396.81        69.57778
397.26        69.72092
397.71         69.7651
398.15        69.48175
398.60        68.97701
399.05        68.43944
399.50        67.93237
399.95        67.09891
400.39        66.39632
400.84        66.18391
401.29        66.46819
401.74        66.57446
402.18        66.44025
402.63        66.37106
403.08        66.44947
403.53        66.62694
403.97        66.89837
404.42        67.24194
404.87        67.48026
405.32        67.33102
405.76        66.75925
406.21        65.92062
406.66         65.0806
407.11        64.66325
407.55        64.76579
408.00        65.15649
408.45         65.6527
408.90        66.08568
409.34        66.21602
409.79        65.70238
410.24        64.82893
410.68        64.39107
411.13         64.4925
411.58        64.73169
412.03        65.01079
412.47        65.31543
412.92        65.53446
413.37        65.71033
413.81        65.79374
414.26        65.74393
414.71        65.54951
415.15        65.21069
415.60        64.83393
416.05        64.61506
416.49        64.60666
416.94        64.78273
417.39        64.98568
417.83        64.92752
418.28        64.56729
418.73        64.00267
419.17         63.4785
419.62        63.38556
420.07        63.75769
420.51        64.45934
420.96        65.20975
421.41        65.49549
421.85        65.17628
422.30        64.64149
422.74        64.05106
423.19        63.44125
423.64        62.99757
424.08        63.33199
424.53        64.23654
424.98        64.73492
425.42        64.68509
425.87        64.71794
426.31        64.89318
426.76        64.75974
427.21        64.51556
427.65        64.87552
428.10        65.73484
428.54        66.49619
428.99        67.08741
429.44        67.40858
429.88        67.44522
430.33        68.02377
430.77         68.6254
431.22        67.42352
431.66        64.98891
432.11        63.81857
432.56        64.12505
433.00        64.87563
433.45        65.95603
433.89        67.59995
434.34        68.40647
434.78        70.09682
435.23        66.06974
435.67        64.05462
436.12        66.71735
436.57        67.92091
437.01         68.4621
437.46        68.82664
437.90        69.24433
438.35        68.21005
438.79        68.94702
439.24        68.73558
439.68        68.57821
440.13        68.26131
440.57        68.10076
441.02        69.13527
441.46        70.87607
441.91        71.59557
442.35        71.15642
442.80        70.29636
443.24        69.40011
443.69         69.9427
444.13        71.56063
444.58        71.50773
445.02        70.01336
445.47        69.91914
445.91        71.08172
446.36        71.39654
446.80        70.78738
447.24        70.35731
447.69        70.27232
448.13        70.35107
448.58        70.63532
449.02        71.11694
449.47        71.66558
449.91        72.07971
450.36         72.2962
450.80        72.34866
451.25        72.28404
451.69         72.1514
452.13        72.00196
452.58        71.82382
453.02        71.66405
453.47        71.64243
453.91        71.75499
454.36        71.97813
454.80        72.22664
455.24        72.25758
455.69        72.02791
456.13        71.77732
456.58        71.62873
457.02        71.17372
457.46        70.59547
457.91        71.23652
458.35        71.66984
458.79        71.99129
459.24        71.79177
459.68        71.51669
460.13        71.21764
460.57        70.87563
461.01        70.62379
461.46        70.13944
461.90        69.38801
462.34        70.07024
462.79        69.68714
463.23        69.64398
463.68          70.244
464.12        70.53487
464.56        70.76739
465.01        70.95095
465.45        70.95247
465.89        70.87531
466.34        70.61325
466.78        69.54044
467.22        68.20042
467.67        67.61591
468.11        68.71736
468.55        69.40663
468.99         69.6067
469.44        69.33846
469.88        68.78685
470.32        68.75484
470.77        69.18301
471.21        69.21008
471.65        68.80487
472.10        68.61257
472.54        68.67424
472.98        68.75114
473.42        68.83092
473.87        69.05811
474.31        69.30241
474.75        69.25095
475.20        68.95237
475.64        68.72699
476.08        68.66264
476.52        68.49774
476.97         68.2238
477.41        68.29018
477.85        68.71648
478.29        68.10004
478.74        68.46038
479.18        68.58276
479.62        67.93553
480.06        68.60555
480.50        68.77313
480.95        69.05884
481.39        69.09794
481.83        68.01791
482.27        68.27011
482.72        68.17548
483.16        67.12819
483.60        67.18989
484.04        68.61772
484.48        68.90797
484.93        68.77559
485.37        70.23168
485.81        70.83869
486.25        69.77382
486.69        94.06667
487.14        75.91106
487.58        47.15202
488.02        58.48459
488.46        66.11412
488.90        65.64973
489.34        67.45709
489.79        66.71357
490.23        68.75407
490.67        69.61044
491.11        68.72881
491.55        68.76233
491.99        69.26946
492.43        69.06456
492.88        68.23902
493.32        68.04478
493.76        68.04831
494.20        68.20032
494.64        68.27907
495.08        68.53944
495.52         68.9452
495.96        68.93553
496.41        68.53299
496.85         68.9815
497.29        69.99363
497.73        68.90896
498.17        66.72353
498.61        66.98074
499.05        69.62086
499.49        69.98879
499.93         69.6397
500.37        69.24834
500.82        68.76432
501.26        68.93623
501.70        69.45815
502.14        69.66426
502.58        69.43361
503.02        69.29737
503.46        69.25948
503.90        68.96588
504.34        68.53876
504.78        68.35407
505.22        68.45551
505.66        68.73699
506.10        69.09058
506.54        69.24084
506.98        69.10817
507.42        68.95554
507.86        68.92992
508.30         68.3222
508.74         68.6569
509.18        68.69439
509.62        68.82333
510.06         68.9285
510.50        68.99318
510.94        69.03484
511.38        69.05408
511.82         69.0843
512.26        69.13049
512.70        69.17729
513.14        69.22627
513.58        69.28826
514.02        69.35695
514.46        69.41946
514.90        69.46127
515.34        69.46825
515.78        69.42897
516.22        69.37242
516.66        69.28721
517.10        69.21408
517.54        68.78761
517.98        68.96278
518.42        68.75999
518.86        68.87045
519.30        69.02219
519.74        69.27016
520.18        69.56025
520.62        69.78433
521.06        69.91982
521.50         69.9863
521.93        69.98408
522.37        69.91679
522.81        69.80624
523.25        69.66032
523.69        69.53429
524.13        69.51373
524.57        69.61297
525.01        69.80511
525.45        70.03702
525.89        70.21815
526.32        70.30727
526.76        70.32229
527.20        70.27056
527.64        70.18676
528.08         70.1036
528.52        69.95444
528.96        69.72508
529.40        69.60175
529.83        69.62708
530.27        69.03114
530.71        69.21316
531.15        69.14398
531.59        69.23658
532.03        69.41666
532.46        69.67403
532.90        69.95777
533.34        70.21912
533.78        70.47413
534.22        70.66307
534.66        70.67526
535.09          70.512
535.53        70.30048
535.97        70.08319
536.41        69.88408
536.85        69.73608
537.28         69.6686
537.72        69.65472
538.16        69.63703
538.60        69.60298
539.04        69.51897
539.47        69.40328
539.91        69.46674
540.35        69.63673
540.79        69.60969
541.22        69.40673
541.66        69.34514
542.10        69.42825
542.54        69.46865
542.97        69.47066
543.41        69.54993
543.85        69.69484
544.29        69.89523
544.72          70.049
545.16        70.02202
545.60         69.7864
546.04        69.39689
546.47        69.03084
546.91        68.93769
547.35         69.1759
547.79        69.79099
548.22        70.47607
548.66        70.61189
549.10        70.13457
549.53        69.37057
549.97        68.64393
550.41        68.27142
550.84        68.36143
551.28        68.83382
551.72         69.4733
552.15        69.88328
552.59        69.95046
553.03        69.79989
553.46        69.54112
553.90        69.40158
554.34         69.4327
554.77        69.50914
555.21        69.51388
555.65         69.6114
556.08        69.80234
556.52        69.21665
556.96        69.49988
557.39        69.36594
557.83        69.33302
558.27        69.33294
558.70        69.39104
559.14        69.54204
559.57        69.74594
560.01        69.96117
560.45         70.1208
560.88        70.21204
561.32        70.19511
561.75        69.88947
562.19        69.44514
562.63        69.04958
563.06        68.81967
563.50        68.97121
563.93        69.37283
564.37        69.58142
564.80        69.51642
565.24        69.47323
565.68        69.48781
566.11        69.37115
566.55        69.42839
566.98        69.44307
567.42        69.49833
567.85        69.60918
568.29        69.81285
568.72        69.88689
569.16        69.97218
569.60        70.38562
570.03        70.77766
570.47        70.62962
570.90        70.29075
571.34        68.56534
571.77        69.50037
572.21        69.67596
572.64        69.15932
573.08        68.15623
573.51        65.10345
573.95        67.56167
574.38        71.82953
574.82        69.85872
