SpectraSmart Spectrum 2.9.0.0
--------- Device Information -----------
Spectrum Name :  反射率_0
Saving Time :  2024/04/26 02:03:56
Spectro-Module Model Name : SE2030-DUVN
Spectro-Module Serial Number : OS361AC55029948
Wavelength Start : 200
Wavelength End : 1025
Wavelength Unit : Wavelength(nm)
Spectrum Unit : Reflectance(%)
-----------Spectrum Setting ------------
Integration Time : 20ms
Average : 10
Boxcar : 0
Background removal :  enabled
linearity correction :  enabled
SC :  disabled
Intensity correction :  disabled
DWT denoise :  enabled
savitzky-golay :  disabled
FFT :  disabled
Running average :  disabled
Kalman :  disabled
High pass :  disabled
---------------BEGIN--------------------
Wavelength(nm)             Reflectance(%)
200.29               0
200.75         104.001
201.21        99.91618
201.67        93.33404
202.13        88.20594
202.58         85.3393
203.04        84.19238
203.50          83.602
203.96        81.95384
204.42        79.25866
204.88        76.36533
205.34        74.43858
205.80        74.64143
206.26        77.59233
206.72        85.24245
207.18        100.4382
207.64        112.9528
208.10        102.6179
208.55        83.32415
209.01        71.56603
209.47        68.21344
209.93        69.80312
210.39        74.70821
210.85        80.43733
211.31        81.55163
211.77        76.50706
212.23        67.65584
212.69        59.12334
213.14        57.25427
213.60        63.01163
214.06        74.27429
214.52        87.42409
214.98        96.95387
215.44        100.9439
215.90        100.9721
216.36        98.14953
216.81        93.87276
217.27        89.52104
217.73        85.00166
218.19        80.31012
218.65        75.13996
219.11        68.84071
219.57         60.3983
220.02        50.61311
220.48        45.11544
220.94        46.86184
221.40        54.73158
221.86        61.96514
222.32        61.46109
222.77        54.23889
223.23        44.34455
223.69        36.25689
224.15        34.62434
224.61        38.83884
225.06        46.54923
225.52        54.24235
225.98        57.45751
226.44        55.41342
226.90        49.96509
227.36        43.73858
227.81        40.28047
228.27        40.58144
228.73        43.19312
229.19        46.44163
229.65        47.92348
230.10        47.23772
230.56        45.49559
231.02        43.73379
231.48        43.04188
231.93         43.4712
232.39        44.51461
232.85        45.62719
233.31        46.08015
233.77        45.67773
234.22        44.68362
234.68        43.41664
235.14        42.43704
235.60        42.02583
236.05        42.04424
236.51        42.37168
236.97        42.81174
237.43        43.35107
237.88        44.21674
238.34        45.46755
238.80        47.14759
239.26        49.11322
239.71        51.24055
240.17        53.25061
240.63        55.33505
241.08        57.56998
241.54        59.74402
242.00        61.83144
242.46        64.06127
242.91        67.28381
243.37        73.29848
243.83        90.40311
244.28        146.1812
244.74        211.1758
245.20        176.8234
245.66        144.9087
246.11          136.93
246.57         143.788
247.03        172.8294
247.48        259.4678
247.94        215.0949
248.40        122.3973
248.85        94.09509
249.31        85.95583
249.77        85.56786
250.22        89.65851
250.68        98.35083
251.14        111.4148
251.59        120.5241
252.05        117.1166
252.51        104.8271
252.96        91.21106
253.42        83.63683
253.88        81.63947
254.33        82.52355
254.79        85.53867
255.25        89.11005
255.70        92.10036
256.16        94.97594
256.62        96.39052
257.07         94.8783
257.53        91.25751
257.99        85.90845
258.44        80.33929
258.90        77.32884
259.35        76.05329
259.81        75.68115
260.27        74.51271
260.72        70.88853
261.18        65.57997
261.63        59.30479
262.09        53.63534
262.55        49.71532
263.00        47.47746
263.46        46.41084
263.91        45.59228
264.37        44.30431
264.83        42.35319
265.28        39.92091
265.74        37.58636
266.19        35.99472
266.65         35.3709
267.11        35.33201
267.56         35.3641
268.02        34.85498
268.47        33.67752
268.93         32.0442
269.38        30.24323
269.84        28.99331
270.30        28.48905
270.75        28.53137
271.21        28.74887
271.66        28.59065
272.12        27.91201
272.57        26.89715
273.03        25.85611
273.48        25.17057
273.94        24.94418
274.39        24.98975
274.85         25.0778
275.31        24.87518
275.76        24.30782
276.22        23.53367
276.67        22.71066
277.13        22.14267
277.58        21.85201
278.04        21.76185
278.49        21.71566
278.95         21.5454
279.40        21.19111
279.86        20.76225
280.31        20.30997
280.77        20.00876
281.22        19.84873
281.68        19.78434
282.13        19.74969
282.59        19.68203
283.04        19.56278
283.50        19.45485
283.95        19.33298
284.41        19.16969
284.86         18.9701
285.32        18.74771
285.77        18.61136
286.22        18.78159
286.68        19.24574
287.13        19.89585
287.59        20.49454
288.04        20.68733
288.50        20.43694
288.95          19.853
289.41         19.1762
289.86        18.66891
290.32        18.46277
290.77        18.47445
291.22        18.65879
291.68        18.90419
292.13        19.18963
292.59         19.5675
293.04        20.08436
293.50        20.80137
293.95        21.70527
294.40        22.72614
294.86        23.78794
295.31        24.79796
295.77        25.73818
296.22        26.64478
296.68        27.53359
297.13        28.39778
297.58        29.26989
298.04          30.172
298.49        31.18553
298.95        32.48302
299.40        34.07887
299.85        35.91736
300.31        37.85982
300.76        39.67611
301.21        41.27395
301.67        42.73871
302.12        44.08578
302.58        45.43888
303.03         46.8177
303.48         48.2077
303.94        49.70486
304.39        51.40156
304.84        53.30677
305.30        55.38316
305.75        57.42503
306.20        59.13479
306.66        60.47417
307.11        61.48832
307.57        62.40635
308.02        63.46541
308.47        64.77813
308.93        66.27248
309.38        67.81573
309.83        69.24667
310.29        70.50027
310.74        71.59576
311.19        72.60094
311.65        73.61699
312.10        74.66027
312.55        75.71085
313.00        76.66126
313.46        77.34824
313.91        77.73363
314.36        77.89458
314.82        78.03839
315.27        78.43324
315.72        79.16925
316.18        80.16483
316.63        81.24958
317.08          82.097
317.53        82.60706
317.99        82.85548
318.44        83.02213
318.89         83.4083
319.35        84.06525
319.80        84.92343
320.25        85.74837
320.70        86.15796
321.16        86.07461
321.61        85.63459
322.06        85.11117
322.51        84.93159
322.97        85.17767
323.42         85.7513
323.87        86.43503
324.32        86.85338
324.78        86.88879
325.23        86.70598
325.68        86.42991
326.13         86.2885
326.59        86.34056
327.04         86.5329
327.49        86.84765
327.94        87.29076
328.39        87.83234
328.85        88.45705
329.30        89.09893
329.75        89.47853
330.20        89.55804
330.66        89.40402
331.11         89.2581
331.56        89.44382
332.01        90.06161
332.46        90.99841
332.92        92.10847
333.37        93.29269
333.82         94.3692
334.27        95.37035
334.72        96.14417
335.17        96.45487
335.63        96.29154
336.08        95.77344
336.53        95.18766
336.98          95.049
337.43        95.49239
337.88        96.37971
338.34        97.50613
338.79         98.6034
339.24        99.50854
339.69        100.3175
340.14        100.9503
340.59        101.2737
341.05        101.2986
341.50        101.0333
341.95        100.7297
342.40        100.8006
342.85        101.3275
343.30        102.2136
343.75        103.1948
344.20        103.7878
344.66        103.8711
345.11        103.5773
345.56        103.1445
346.01        102.9326
346.46         103.043
346.91        103.3636
347.36        103.7664
347.81        104.0603
348.26         104.197
348.72        104.2679
349.17        104.3295
349.62        104.5122
350.07        104.8362
350.52        105.2277
350.97        105.6114
351.42        105.8917
351.87        106.0359
352.32        106.0721
352.77        106.0099
353.22        105.8663
353.67        105.6568
354.13        105.3918
354.58        105.0749
355.03        104.7713
355.48        104.4947
355.93        104.2404
356.38        103.9715
356.83        103.6242
357.28        103.1815
357.73        102.6577
358.18         102.097
358.63        101.5676
359.08        101.0901
359.53        100.6584
359.98         100.211
360.43        99.65205
360.88        98.96228
361.33        98.15698
361.78        97.35496
362.23        96.74797
362.68        96.37359
363.13        96.18839
363.58        95.99836
364.03        95.49445
364.48        94.62479
364.93        93.48453
365.38        92.33063
365.83        91.58135
366.28        91.31831
366.73        91.38952
367.18        91.52917
367.63         91.3053
368.08        90.61322
368.53        89.62379
368.98        88.50903
369.43        87.51831
369.88        86.74009
370.33        86.09138
370.78        85.58461
371.23        85.24966
371.68         85.0666
372.13        85.03587
372.58        85.04842
373.03        84.90479
373.48        84.55761
373.93        84.05709
374.38        83.49937
374.83        83.04227
375.28        82.72509
375.72        82.48383
376.17        82.29369
376.62        82.09167
377.07        81.84155
377.52         81.5456
377.97        81.19508
378.42        80.77258
378.87        80.29149
379.32        79.78984
379.77        79.24918
380.22        78.63405
380.67        77.95019
381.11        77.20522
381.56        76.53111
382.01        76.14972
382.46        76.10207
382.91        76.33389
383.36        76.60332
383.81        76.52263
384.26         76.0146
384.71         75.1869
385.15        74.30689
385.60        73.84666
386.05        73.84177
386.50        74.13371
386.95        74.43427
387.40        74.26471
387.85        73.56733
388.29         72.5537
388.74        71.57951
389.19         70.8555
389.64        70.42225
390.09        70.13531
390.54        70.03335
390.98         70.1873
391.43        70.55264
391.88        71.08493
392.33        71.47961
392.78        71.25975
393.23        70.42525
393.67        69.21223
394.12        68.09507
394.57        67.39124
395.02        67.26392
395.47          67.842
395.91        68.89356
396.36        69.61219
396.81        69.79739
397.26        69.72561
397.71        69.48716
398.15        69.04674
398.60        68.55389
399.05        68.13456
399.50        67.76627
399.95        67.02515
400.39        66.35356
400.84        66.00266
401.29        66.07716
401.74        66.39587
402.18        66.79151
402.63        66.79559
403.08        66.53372
403.53        66.66312
403.97        67.19983
404.42        67.71112
404.87        67.98637
405.32        67.86314
405.76        67.29488
406.21        66.46593
406.66          65.635
407.11        65.07829
407.55         64.9558
408.00        65.36289
408.45        66.09135
408.90        66.57073
409.34        66.55171
409.79        66.01223
410.24        65.21544
410.68        64.74614
411.13        64.70917
411.58        64.79416
412.03        64.95794
412.47        65.25428
412.92        65.59399
413.37        65.98923
413.81        66.33165
414.26        66.49435
414.71        66.43704
415.15        66.17464
415.60        65.82976
416.05        65.63082
416.49         65.6401
416.94        65.81708
417.39        66.00014
417.83        65.89676
418.28        65.47372
418.73        64.85086
419.17         64.2795
419.62        64.15313
420.07        64.50826
420.51         65.2044
420.96        65.99097
421.41        66.39111
421.85        66.26006
422.30        65.98926
422.74         65.6552
423.19         65.1519
423.64        64.66314
424.08         64.8966
424.53        65.73484
424.98        66.25499
425.42        66.33206
425.87        66.71861
426.31        67.31442
426.76        67.09544
427.21        66.35589
427.65        66.59366
428.10        67.70726
428.54        68.50128
428.99         68.9104
429.44        69.10458
429.88        69.13778
430.33        69.97984
430.77        70.97302
431.22        69.84696
431.66        67.21791
432.11        65.92846
432.56        66.26295
433.00        67.23737
433.45        68.67406
433.89        70.47148
434.34        71.18716
434.78        72.97134
435.23        68.83437
435.67        67.02634
436.12        69.60719
436.57        70.79451
437.01         71.3122
437.46        71.54384
437.90        71.67094
438.35        71.42486
438.79         71.7556
439.24        71.67692
439.68        71.50681
440.13        71.17772
440.57        71.02284
441.02        71.94537
441.46        73.56302
441.91        74.59735
442.35        74.71518
442.80        73.91199
443.24         72.6552
443.69        73.08993
444.13        74.86886
444.58        74.87568
445.02        73.29277
445.47        72.98799
445.91         73.9092
446.36        74.20789
446.80        73.83091
447.24        73.72438
447.69        73.94328
448.13        74.19034
448.58        74.46699
449.02        74.79232
449.47        75.13387
449.91        75.44851
450.36        75.71129
450.80        75.93094
451.25        76.07079
451.69        75.97953
452.13        75.71403
452.58        75.46589
453.02        75.30094
453.47        75.23682
453.91        75.27345
454.36        75.45724
454.80        75.73793
455.24        75.77783
455.69        75.52721
456.13         75.4517
456.58        75.63863
457.02        74.74622
457.46        74.41151
457.91        74.76365
458.35        75.90317
458.79        76.36201
459.24        76.08895
459.68        75.75587
460.13        75.43605
460.57        75.15386
461.01        75.05604
461.46        74.32336
461.90        73.88128
462.34        74.59203
462.79        74.12285
463.23        74.48174
463.68        74.82246
464.12        75.14846
464.56        75.36959
465.01         75.5414
465.45        75.49135
465.89        75.33659
466.34         75.0294
466.78        73.86559
467.22        72.41277
467.67        72.32342
468.11        73.56996
468.55        74.46712
468.99        74.61574
469.44        74.25914
469.88        73.60189
470.32        73.38264
470.77        73.59918
471.21        73.49196
471.65        73.05485
472.10        72.91914
472.54        73.11486
472.98        73.31806
473.42        73.48389
473.87        73.91494
474.31        74.40133
474.75        74.20422
475.20         73.5202
475.64        73.36881
476.08        73.76945
476.52        73.83243
476.97        73.53972
477.41        73.59897
477.85        74.01115
478.29        73.66372
478.74        74.03893
479.18         73.8318
479.62        73.00931
480.06        73.58392
480.50         73.8124
480.95        74.20843
481.39        74.33435
481.83         73.3853
482.27        73.40453
482.72         73.7243
483.16        72.12688
483.60        72.46325
484.04         73.9819
484.48        74.26421
484.93         73.8979
485.37        75.23307
485.81        76.24729
486.25        74.39308
486.69        101.3403
487.14        81.71714
487.58        51.18114
488.02        63.01138
488.46        71.21294
488.90        71.17191
489.34        72.88601
489.79        72.20612
490.23        74.13304
490.67        74.98367
491.11        74.05682
491.55        74.02155
491.99        74.44643
492.43        74.22325
492.88         73.4641
493.32        73.43514
493.76        73.59769
494.20         73.8149
494.64        73.82483
495.08        73.90491
495.52         74.0894
495.96        73.96327
496.41        73.56638
496.85        74.03979
497.29        75.06396
497.73         73.9993
498.17        71.86622
498.61        72.11253
499.05        74.73866
499.49        75.30633
499.93        75.39728
500.37        75.05932
500.82        74.26195
501.26        74.31461
501.70        74.93342
502.14        75.22438
502.58        75.02317
503.02         74.8782
503.46        74.78854
503.90        74.42123
504.34        73.93936
504.78        73.76726
505.22        73.95255
505.66        74.36768
506.10        74.86613
506.54         75.0948
506.98        74.88804
507.42        74.69019
507.86        74.21687
508.30         73.3706
508.74        73.87795
509.18        74.08955
509.62        74.39274
510.06        74.57127
510.50        74.57809
510.94        74.45626
511.38         74.2799
511.82        74.20467
512.26        74.26557
512.70        74.40912
513.14        74.58218
513.58        74.70641
514.02        74.74984
514.46        74.73409
514.90        74.68955
515.34        74.64656
515.78        74.60808
516.22        74.61865
516.66        74.65108
517.10        74.51766
517.54        74.21545
517.98        74.29908
518.42        74.08064
518.86        74.16905
519.30        74.34799
519.74        74.64327
520.18        74.97198
520.62        75.19316
521.06        75.27705
521.50        75.26125
521.93        75.17928
522.37        75.08714
522.81        75.01797
523.25        74.95705
523.69        74.93446
524.13        74.99768
524.57        75.14762
525.01        75.37022
525.45        75.60674
525.89        75.75835
526.32        75.78799
526.76        75.71589
527.20         75.5816
527.64        75.47057
528.08        75.42663
528.52        75.37151
528.96         75.2481
529.40        75.17939
529.83        75.19989
530.27        74.51615
530.71        74.67262
531.15        74.59399
531.59        74.73526
532.03        75.00758
532.46        75.35892
532.90        75.66531
533.34        75.86646
533.78         76.0004
534.22        76.04789
534.66          75.992
535.09        75.83324
535.53        75.60027
535.97        75.35579
536.41        75.22526
536.85        75.23843
537.28        75.37132
537.72          75.536
538.16        75.59721
538.60        75.52441
539.04        75.30643
539.47        75.02461
539.91        75.02079
540.35         75.2368
540.79        75.31094
541.22        75.21374
541.66        75.20496
542.10        75.26728
542.54        75.23009
542.97         75.1274
543.41         75.1293
543.85        75.23883
544.29        75.42453
544.72        75.57825
545.16        75.56848
545.60        75.36657
546.04        75.01322
546.47        74.67038
546.91        74.63091
547.35        74.92783
547.79        75.44129
548.22        75.93427
548.66        76.12099
549.10        75.89607
549.53        75.22404
549.97        74.41862
550.41        74.03358
550.84        74.17574
551.28        74.61965
551.72        75.17497
552.15        75.55811
552.59        75.66994
553.03        75.60242
553.46        75.42323
553.90        75.31252
554.34        75.31351
554.77        75.28664
555.21        75.20942
555.65        75.29504
556.08        75.57609
556.52        75.07952
556.96        75.53197
557.39         75.4502
557.83        75.37675
558.27        75.27249
558.70          75.215
559.14        75.30031
559.57        75.51138
560.01        75.83382
560.45        76.14456
560.88         76.2705
561.32         76.1795
561.75        75.83894
562.19        75.41752
562.63        75.02085
563.06         74.7698
563.50        74.94528
563.93        75.39831
564.37        75.61552
564.80        75.50659
565.24        75.48124
565.68        75.36965
566.11        75.31294
566.55         75.3187
566.98        75.34002
567.42        75.38741
567.85        75.55579
568.29         75.8513
568.72        75.87962
569.16        75.83463
569.60        76.26121
570.03        76.80059
570.47        76.73111
570.90        76.37016
571.34        74.64751
571.77        75.63303
572.21        75.60353
572.64        75.00858
573.08        73.93585
573.51        70.91014
573.95        73.53631
574.38        77.83308
574.82        76.05038
