SpectraSmart Spectrum 2.9.0.0
--------- Device Information -----------
Spectrum Name :  反射率_0
Saving Time :  2024/04/26 01:49:50
Spectro-Module Model Name : SE2030-DUVN
Spectro-Module Serial Number : OS361AC55029948
Wavelength Start : 200
Wavelength End : 1025
Wavelength Unit : Wavelength(nm)
Spectrum Unit : Reflectance(%)
-----------Spectrum Setting ------------
Integration Time : 20ms
Average : 10
Boxcar : 0
Background removal :  enabled
linearity correction :  enabled
SC :  disabled
Intensity correction :  disabled
DWT denoise :  enabled
savitzky-golay :  disabled
FFT :  disabled
Running average :  disabled
Kalman :  disabled
High pass :  disabled
---------------BEGIN--------------------
Wavelength(nm)             Reflectance(%)
200.29               0
200.75        92.14552
201.21        85.37936
201.67         77.8784
202.13        73.55646
202.58        72.85335
203.04        75.08127
203.50        78.38857
203.96        79.62971
204.42        78.27895
204.88         75.6423
205.34        73.55095
205.80        74.06142
206.26         78.2416
206.72        88.45646
207.18        109.2428
207.64        129.7253
208.10        121.6528
208.55        99.15965
209.01        83.82754
209.47        77.60607
209.93         76.5028
210.39        78.32032
210.85        80.71767
211.31        79.34623
211.77        73.25623
212.23        64.37952
212.69        56.54578
213.14        55.56965
213.60        62.11084
214.06        74.27473
214.52        87.74744
214.98         95.9556
215.44        97.12321
215.90        93.35747
216.36        87.20774
216.81        82.19711
217.27        79.74963
217.73        78.76712
218.19        77.94908
218.65        75.52122
219.11        70.58115
219.57        62.44142
220.02        52.10483
220.48        45.96563
220.94        47.48909
221.40        55.30101
221.86         62.2565
222.32        60.85996
222.77        52.36561
223.23        41.23122
223.69        32.35387
224.15        30.79186
224.61        35.75613
225.06        44.49261
225.52        53.15404
225.98        56.78371
226.44        54.52487
226.90         48.5868
227.36        41.54612
227.81        36.85362
228.27        35.68082
228.73        36.67296
229.19        39.00585
229.65          41.466
230.10        43.43472
230.56         45.2039
231.02        46.66706
231.48        47.64721
231.93        48.18876
232.39        48.33369
232.85        48.21129
233.31        48.12112
233.77        48.15428
234.22        48.27068
234.68        48.47642
235.14        48.68309
235.60        48.88231
236.05        49.16145
236.51        49.55543
236.97        50.09693
237.43        50.87729
237.88        52.02079
238.34        53.61411
238.80        55.84387
239.26        58.55365
239.71        61.65764
240.17        64.51205
240.63        66.70452
241.08         68.2197
241.54        69.01292
242.00        69.64815
242.46        71.15285
242.91        74.73818
243.37        82.80308
243.83         106.179
244.28        176.2705
244.74        244.9731
245.20        193.4176
245.66         152.754
246.11        141.7156
246.57        147.1706
247.03         174.819
247.48        257.6428
247.94        210.2759
248.40        120.1911
248.85        93.33414
249.31        85.84058
249.77        85.68022
250.22        89.84766
250.68        98.66411
251.14        112.1299
251.59        122.3821
252.05        120.8226
252.51        110.4396
252.96        98.68534
253.42        93.38373
253.88        94.19583
254.33        98.23019
254.79        103.9359
255.25         108.598
255.70        111.1984
256.16         113.083
256.62        113.9171
257.07        113.1857
257.53        111.5932
257.99        108.8364
258.44        105.5224
258.90        103.6082
259.35        102.1926
259.81         101.115
260.27        99.15923
260.72        95.09847
261.18        89.80625
261.63        83.66743
262.09         78.0597
262.55        73.75376
263.00        70.69247
263.46        68.66205
263.91         66.9228
264.37        65.10827
264.83        62.92454
265.28        60.39805
265.74        57.88382
266.19        55.63842
266.65        53.99348
267.11        52.79335
267.56        51.74876
268.02         50.5214
268.47          48.946
268.93        47.14192
269.38        45.31595
269.84        44.06093
270.30        43.52131
270.75        43.52067
271.21        43.68933
271.66        43.46774
272.12        42.71206
272.57        41.58055
273.03        40.37734
273.48        39.46641
273.94        38.97247
274.39        38.71541
274.85        38.51115
275.31        38.06794
275.76        37.30942
276.22        36.37747
276.67        35.40029
277.13        34.67273
277.58        34.18558
278.04         33.8848
278.49        33.56599
278.95        33.02733
279.40        32.20673
279.86         31.2669
280.31        30.31785
280.77        29.65068
281.22        29.27488
281.68        29.12083
282.13        29.08525
282.59        29.07519
283.04         29.0348
283.50        29.03568
283.95        29.00903
284.41        28.88003
284.86         28.6391
285.32        28.31846
285.77        28.05725
286.22        28.14198
286.68        28.57813
287.13        29.23085
287.59        29.85234
288.04        30.05306
288.50        29.79412
288.95         29.1895
289.41         28.4869
289.86        27.93698
290.32        27.68432
290.77        27.64566
291.22        27.79477
291.68         28.0456
292.13        28.38203
292.59        28.85873
293.04        29.51669
293.50        30.41021
293.95        31.51843
294.40        32.77151
294.86        34.09353
295.31        35.38944
295.77        36.63971
296.22        37.87228
296.68        39.09071
297.13        40.26997
297.58        41.43042
298.04        42.59194
298.49        43.83761
298.95        45.35667
299.40        47.16353
299.85        49.20009
300.31        51.31618
300.76        53.25721
301.21        54.93143
301.67        56.44698
302.12        57.83072
302.58        59.24831
303.03        60.71758
303.48        62.22033
303.94        63.85258
304.39        65.69078
304.84        67.74319
305.30        69.97997
305.75        72.17044
306.20        73.99158
306.66        75.40417
307.11        76.44347
307.57        77.38466
308.02        78.50998
308.47        79.94684
308.93        81.61471
309.38        83.31535
309.83        84.79582
310.29        85.98006
310.74        86.90968
311.19        87.74559
311.65        88.72919
312.10        89.89571
312.55        91.18202
313.00        92.37123
313.46        93.12232
313.91        93.35846
314.36         93.2234
314.82        93.03747
315.27        93.22491
315.72        93.92611
316.18        95.01478
316.63        96.26144
317.08        97.23891
317.53        97.81111
317.99        98.07701
318.44        98.25818
318.89        98.72312
319.35        99.52771
319.80        100.5752
320.25        101.5549
320.70        101.9679
321.16        101.7169
321.61        100.9861
322.06        100.1445
322.51        99.76252
322.97        99.95884
323.42        100.6095
323.87        101.4359
324.32        101.9539
324.78        102.0085
325.23        101.7988
325.68        101.4947
326.13        101.4043
326.59        101.5951
327.04        101.9797
327.49        102.4764
327.94        102.9979
328.39          103.49
328.85        103.9695
329.30        104.4246
329.75        104.6423
330.20        104.6222
330.66        104.4157
331.11        104.2823
331.56        104.5638
332.01        105.3541
332.46        106.5304
332.92        107.8909
333.37        109.2655
333.82        110.4287
334.27        111.4328
334.72        112.1385
335.17        112.3446
335.63        112.0687
336.08        111.4335
336.53        110.7779
336.98        110.7052
337.43        111.3543
337.88        112.5494
338.34        114.0008
338.79        115.3064
339.24        116.2557
339.69        116.9867
340.14        117.4346
340.59        117.5075
341.05         117.265
341.50        116.7151
341.95        116.1911
342.40         116.222
342.85        116.8978
343.30        118.0889
343.75        119.4212
344.20        120.2114
344.66        120.2819
345.11        119.8201
345.56         119.145
346.01        118.7486
346.46        118.7706
346.91        119.0497
347.36         119.439
347.81        119.7212
348.26        119.8297
348.72        119.8677
349.17        119.8632
349.62         119.893
350.07        119.9729
350.52         120.047
350.97        120.0955
351.42        120.1061
351.87        120.0704
352.32        120.0069
352.77        119.8856
353.22         119.655
353.67        119.3184
354.13        118.9064
354.58        118.4738
355.03        118.1716
355.48        118.0162
355.93        117.9532
356.38        117.8652
356.83        117.5663
357.28         117.009
357.73        116.2511
358.18        115.3804
358.63        114.5363
359.08        113.7736
359.53        113.0712
359.98         112.392
360.43        111.6751
360.88        110.8999
361.33        110.0763
361.78        109.2713
362.23        108.5862
362.68        108.0408
363.13        107.6183
363.58        107.1754
364.03        106.4857
364.48        105.5178
364.93         104.338
365.38        103.1718
365.83        102.3895
366.28         102.051
366.73        102.0114
367.18        102.0148
367.63        101.6432
368.08        100.8033
368.53        99.67599
368.98        98.41389
369.43         97.2355
369.88        96.23108
370.33        95.32431
370.78         94.6014
371.23        94.21376
371.68        94.15544
372.13        94.38313
372.58        94.65952
373.03        94.56809
373.48        94.01415
373.93        93.12781
374.38        92.12605
374.83        91.35302
375.28        90.89952
375.72        90.63743
376.17        90.51044
376.62        90.40381
377.07        90.24861
377.52        90.07026
377.97        89.79964
378.42        89.31981
378.87        88.63884
379.32        87.82204
379.77        86.96182
380.22        86.19106
380.67        85.54039
381.11        84.96648
381.56        84.49271
382.01        84.15713
382.46        83.95924
382.91        83.91308
383.36        83.86941
383.81        83.59026
384.26        83.03841
384.71        82.26023
385.15        81.47916
385.60        81.11356
386.05        81.17097
386.50        81.51799
386.95        81.83053
387.40        81.57182
387.85         80.6908
388.29        79.41682
388.74        78.21033
389.19        77.39336
389.64        77.02356
390.09        76.93095
390.54        77.05804
390.98        77.33813
391.43         77.6909
391.88        78.02144
392.33        78.15984
392.78        78.01561
393.23        77.49354
393.67        76.36653
394.12        75.11401
394.57         74.2609
395.02        74.03133
395.47        74.64435
395.91        75.83611
396.36        76.57152
396.81        76.63198
397.26        76.44968
397.71        76.16785
398.15        75.70145
398.60        75.19395
399.05        74.89091
399.50        74.69111
399.95        73.73218
400.39        72.59799
400.84        72.28038
401.29        72.80035
401.74        72.96878
402.18        72.69557
402.63        72.54865
403.08        72.64553
403.53        72.89484
403.97        73.28359
404.42        73.75872
404.87         74.1147
405.32        74.02159
405.76        73.42945
406.21        72.57197
406.66        71.68373
407.11        71.05327
407.55        70.85456
408.00        71.04517
408.45        71.50088
408.90        72.13712
409.34        72.58685
409.79        72.05993
410.24        70.89279
410.68        70.37039
411.13        70.61058
411.58         70.8989
412.03         71.1367
412.47        71.47949
412.92        71.81466
413.37        72.12633
413.81        72.32785
414.26        72.33064
414.71        72.10992
415.15          71.687
415.60        71.19283
416.05        70.85844
416.49        70.75475
416.94        70.85246
417.39        70.99557
417.83        70.89385
418.28        70.50723
418.73        69.93865
419.17        69.43108
419.62        69.37437
420.07        69.79111
420.51        70.53678
420.96        71.32113
421.41        71.59959
421.85        71.22494
422.30        70.66264
422.74        70.05861
423.19        69.31303
423.64        68.67224
424.08        69.04629
424.53        70.20901
424.98        70.86081
425.42        70.82113
425.87         71.0033
426.31        71.20626
426.76        71.19156
427.21        71.09048
427.65        71.39191
428.10        71.92955
428.54        73.06633
428.99        73.24602
429.44        73.44609
429.88        73.27404
430.33        73.87934
430.77        74.64782
431.22        73.41341
431.66        70.76926
432.11        69.42698
432.56        69.65764
433.00        70.44292
433.45        71.68778
433.89        73.57153
434.34        74.58025
434.78        76.38502
435.23        72.48283
435.67        70.03708
436.12        72.73097
436.57        73.79482
437.01        74.37976
437.46        74.63296
437.90        74.72178
438.35        74.43697
438.79        74.94617
439.24        74.89236
439.68        74.65582
440.13        74.20602
440.57        73.91137
441.02        74.73707
441.46        76.28859
441.91        77.23891
442.35        77.26027
442.80        76.31609
443.24        74.89787
443.69        75.35611
444.13        77.30297
444.58        77.24857
445.02        75.43869
445.47        75.20619
445.91        76.42393
446.36        76.76842
446.80        76.15895
447.24        75.78932
447.69        75.79095
448.13        75.89781
448.58        76.13944
449.02        76.52187
449.47        76.95271
449.91        77.29914
450.36        77.51514
450.80        77.61366
451.25         77.6053
451.69          77.479
452.13        77.27641
452.58         77.0107
453.02        76.76478
453.47        76.71296
453.91        76.85272
454.36        77.14845
454.80        77.51779
455.24        77.55293
455.69        77.17956
456.13        76.97926
456.58        77.12488
457.02        75.86623
457.46        75.69603
457.91        76.08328
458.35        77.02875
458.79        77.46868
459.24        77.26793
459.68        76.94032
460.13         76.5126
460.57         76.2765
461.01         76.4342
461.46        75.17165
461.90        74.88821
462.34        75.74847
462.79        74.96768
463.23        75.22582
463.68        75.46113
464.12        75.87988
464.56        76.28767
465.01        76.44643
465.45        76.27438
465.89        76.00285
466.34        75.56578
466.78        74.61364
467.22        73.72935
467.67        72.49632
468.11        74.15208
468.55        74.72644
468.99        74.87323
469.44        74.58543
469.88        74.08917
470.32         74.2139
470.77        74.81161
471.21        74.87861
471.65        74.35336
472.10        73.96458
472.54        73.82742
472.98        73.76939
473.42        73.80027
473.87        74.12325
474.31        74.53752
474.75        74.43239
475.20        73.93008
475.64        73.80931
476.08        74.10614
476.52        74.07081
476.97        73.67868
477.41         73.6712
477.85        74.14195
478.29         73.2767
478.74         74.1762
479.18        73.90974
479.62        73.19199
480.06        73.82401
480.50        74.13576
480.95         74.5424
481.39        74.56886
481.83        73.71355
482.27        73.29543
482.72        73.80808
483.16        71.80367
483.60        72.20361
484.04        73.88126
484.48        74.27312
484.93        73.80918
485.37         76.0619
485.81        76.27934
486.25        75.14726
486.69         102.142
487.14        82.53263
487.58        51.23948
488.02        63.09025
488.46        71.67322
488.90        70.65915
489.34        72.54613
489.79        71.96865
490.23        73.59531
490.67        74.59107
491.11         73.8642
491.55        73.85242
491.99        74.10007
492.43        73.79488
492.88        73.07104
493.32        73.00716
493.76        73.08978
494.20        73.28735
494.64         73.3448
495.08        73.54223
495.52        73.86624
495.96        73.75821
496.41        73.29551
496.85        73.78056
497.29        74.88124
497.73        73.94812
498.17        71.91974
498.61        71.91264
499.05        74.05202
499.49        74.59059
499.93        75.04214
500.37        74.88458
500.82        74.04308
501.26        73.68222
501.70        74.19115
502.14        74.49703
502.58        74.54711
503.02        74.43932
503.46        74.15437
503.90        73.63763
504.34        73.10175
504.78        72.90063
505.22        73.07528
505.66        73.59692
506.10        74.28524
506.54        74.48893
506.98        74.01638
507.42        74.13774
507.86        73.48331
508.30        72.67512
508.74        73.23602
509.18        73.51142
509.62        73.89725
510.06        74.11447
510.50        74.11726
510.94        73.95797
511.38        73.72594
511.82        73.60181
512.26        73.62811
512.70        73.74155
513.14        73.88908
513.58        73.99407
514.02         74.0229
514.46        73.99981
514.90         73.9454
515.34        73.87145
515.78        73.78035
516.22        73.72667
516.66        73.70093
517.10        73.54004
517.54        73.24687
517.98        73.38108
518.42         73.2171
518.86        73.36671
519.30        73.59669
519.74        73.93961
520.18         74.2945
520.62         74.4923
521.06        74.50311
521.50        74.37354
521.93        74.17622
522.37        74.03226
522.81        73.98917
523.25        74.01305
523.69        74.09342
524.13        74.21338
524.57        74.35734
525.01        74.53006
525.45        74.69923
525.89        74.80945
526.32        74.83636
526.76        74.78491
527.20        74.67751
527.64        74.57465
528.08         74.5129
528.52         74.4245
528.96        74.26547
529.40        74.17352
529.83        74.18853
530.27        73.52509
530.71         73.6954
531.15        73.62147
531.59        73.74876
532.03        73.99155
532.46        74.31793
532.90        74.63824
533.34        74.89349
533.78        75.10474
534.22        75.21622
534.66        75.15658
535.09        74.91921
535.53        74.55674
535.97        74.16508
536.41        73.92126
536.85        73.87364
537.28        73.98421
537.72        74.16098
538.16        74.26147
538.60        74.24475
539.04        74.09459
539.47        73.88224
539.91        73.91364
540.35        74.13038
540.79        74.18474
541.22        74.05463
541.66        74.01114
542.10        74.04276
542.54        73.97247
542.97        73.85352
543.41        73.88099
543.85        74.05994
544.29        74.35936
544.72        74.61664
545.16        74.61369
545.60        74.30672
546.04          73.756
546.47        73.21715
546.91         73.1144
547.35         73.5027
547.79        74.27293
548.22        75.05805
548.66        75.24281
549.10        74.74429
549.53        73.87194
549.97        73.02059
550.41        72.58295
550.84        72.67352
551.28        73.29177
551.72        74.21326
552.15        74.44555
552.59        74.62337
553.03        74.56074
553.46         74.1972
553.90        73.98876
554.34         73.8483
554.77        74.20918
555.21        73.97385
555.65        74.14739
556.08        74.44115
556.52        73.92831
556.96         74.3305
557.39        74.23632
557.83        74.20309
558.27         74.1701
558.70        74.17058
559.14        74.26837
559.57        74.42847
560.01        74.54895
560.45        74.61232
560.88        74.76502
561.32        74.92215
561.75        74.72401
562.19        74.26705
562.63        73.73051
563.06        73.30356
563.50        73.32697
563.93        73.71243
564.37        74.10436
564.80         74.3261
565.24        74.29433
565.68        74.06561
566.11        73.99417
566.55        74.15624
566.98        74.19843
567.42        74.14455
567.85        74.39335
568.29        74.88971
568.72        74.85188
569.16        74.54188
569.60        75.01787
570.03        75.41582
570.47        75.54456
570.90        75.62418
571.34        73.36835
571.77        74.49734
572.21        74.93298
572.64        74.36731
573.08        72.99928
573.51        70.14052
573.95        72.76723
574.38        77.11597
574.82        75.57459
