SpectraSmart Spectrum 2.9.0.0
--------- Device Information -----------
Spectrum Name :  反射率_0
Saving Time :  2024/04/26 01:56:50
Spectro-Module Model Name : SE2030-DUVN
Spectro-Module Serial Number : OS361AC55029948
Wavelength Start : 200
Wavelength End : 1025
Wavelength Unit : Wavelength(nm)
Spectrum Unit : Reflectance(%)
-----------Spectrum Setting ------------
Integration Time : 20ms
Average : 10
Boxcar : 0
Background removal :  enabled
linearity correction :  enabled
SC :  disabled
Intensity correction :  disabled
DWT denoise :  enabled
savitzky-golay :  disabled
FFT :  disabled
Running average :  disabled
Kalman :  disabled
High pass :  disabled
---------------BEGIN--------------------
Wavelength(nm)             Reflectance(%)
200.29               0
200.75        82.97177
201.21        76.28213
201.67        69.06116
202.13        65.13364
202.58        64.88154
203.04        67.43189
203.50        71.32664
203.96        73.95798
204.42        74.48981
204.88        73.82809
205.34        72.96845
205.80        72.97507
206.26        74.31742
206.72         77.6361
207.18        83.94507
207.64        88.52481
208.10        83.10275
208.55        74.45779
209.01        69.52978
209.47        68.46867
209.93        69.78989
210.39        73.02962
210.85        76.73742
211.31        77.67976
211.77        74.90694
212.23        69.54161
212.69        64.64581
213.14        65.07976
213.60        71.31334
214.06        81.86835
214.52        92.76805
214.98        98.03045
215.44        96.33421
215.90        89.72695
216.36        81.46648
216.81        76.08577
217.27        74.80903
217.73        76.02503
218.19        77.19621
218.65         74.8601
219.11        67.68544
219.57        54.99724
220.02        38.30986
220.48         27.4015
220.94        28.40179
221.40        39.08649
221.86        50.63023
222.32        53.54879
222.77        48.41135
223.23        39.99265
223.69        32.89908
224.15        31.83694
224.61        36.28975
225.06        43.79917
225.52        51.12727
225.98        54.24904
226.44        52.45929
226.90        47.63527
227.36        41.90967
227.81        38.06914
228.27        37.14014
228.73        38.03238
229.19        40.05387
229.65        42.18898
230.10        43.91107
230.56         45.4128
231.02        46.69963
231.48          47.749
231.93        48.56878
232.39        49.15394
232.85        49.38673
233.31        49.17054
233.77        48.51181
234.22        47.43852
234.68        46.24986
235.14        45.49183
235.60        45.37217
236.05        45.81853
236.51        46.47276
236.97        46.71993
237.43        46.44976
237.88        45.88208
238.34        45.31356
238.80        45.71384
239.26        47.48219
239.71        50.28892
240.17        53.56064
240.63        56.78162
241.08        59.68869
241.54        62.33587
242.00        64.39761
242.46        65.53692
242.91        65.94317
243.37        64.79184
243.83        63.18471
244.28        79.30425
244.74        137.8862
245.20        155.1825
245.66        147.0758
246.11        144.0586
246.57        146.6084
247.03        156.1893
247.48        171.5249
247.94        114.9929
248.40        86.90983
248.85        83.66132
249.31        85.10718
249.77        88.09939
250.22        92.66988
250.68        100.1595
251.14        110.0784
251.59        114.6115
252.05        107.1786
252.51        92.09862
252.96        76.91927
253.42        68.13833
253.88        64.98017
254.33        65.16477
254.79        68.34355
255.25        73.29207
255.70        78.48857
256.16        83.70159
256.62        86.86031
257.07        85.88464
257.53        81.78352
257.99        75.46105
258.44         69.0705
258.90        66.00445
259.35        65.45151
259.81        66.13761
260.27        66.05446
260.72        63.28366
261.18        58.55123
261.63        52.72006
262.09        47.45368
262.55        44.01588
263.00        42.33353
263.46        41.82287
263.91        41.48066
264.37        40.48728
264.83        38.68991
265.28        36.31574
265.74        34.07478
266.19         32.8039
266.65         32.6858
267.11        33.22539
267.56        33.74095
268.02        33.43324
268.47        32.18909
268.93        30.30439
269.38          28.198
269.84        26.81879
270.30        26.43687
270.75         26.7817
271.21        27.39039
271.66        27.57597
272.12        27.14303
272.57        26.30613
273.03         25.3953
273.48        24.82128
273.94         24.6982
274.39        24.83086
274.85        24.96436
275.31        24.73622
275.76        24.07949
276.22         23.1691
276.67        22.23302
277.13        21.67322
277.58        21.51178
278.04        21.62306
278.49        21.75502
278.95          21.605
279.40        21.09794
279.86        20.40293
280.31        19.64731
280.77        19.11727
281.22        18.84198
281.68         18.7451
282.13        18.73602
282.59        18.71686
283.04        18.64712
283.50          18.581
283.95         18.4969
284.41        18.36911
284.86        18.19474
285.32         17.9859
285.77        17.79818
286.22        17.77513
286.68        17.91341
287.13        18.15005
287.59        18.36554
288.04        18.38019
288.50        18.18123
288.95        17.81749
289.41        17.40966
289.86        17.04569
290.32        16.80776
290.77        16.65441
291.22        16.60952
291.68        16.67058
292.13         16.8377
292.59        17.11899
293.04        17.49073
293.50        17.91033
293.95         18.3511
294.40        18.79099
294.86        19.23502
295.31        19.70757
295.77        20.21494
296.22         20.7549
296.68        21.28214
297.13         21.6953
297.58        22.00242
298.04        22.25647
298.49        22.57865
298.95        23.18977
299.40        24.11944
299.85        25.29474
300.31        26.55832
300.76        27.66667
301.21        28.53082
301.67        29.23876
302.12        29.84596
302.58        30.49633
303.03        31.21804
303.48        31.98469
303.94         32.8286
304.39        33.76354
304.84        34.79094
305.30        35.90316
305.75         37.0162
306.20        38.00687
306.66        38.86524
307.11        39.59969
307.57        40.29814
308.02        41.01616
308.47        41.81619
308.93        42.68419
309.38        43.60827
309.83        44.60329
310.29         45.6412
310.74        46.68564
311.19        47.70066
311.65        48.63614
312.10        49.47511
312.55         50.2419
313.00        50.90086
313.46        51.40153
313.91        51.73808
314.36        51.94433
314.82        52.16595
315.27        52.60199
315.72        53.31046
316.18        54.23452
316.63        55.22806
317.08        56.00901
317.53        56.49058
317.99        56.73175
318.44        56.88874
318.89        57.22427
319.35        57.79029
319.80        58.52826
320.25        59.24073
320.70         59.6018
321.16         59.5462
321.61        59.18946
322.06        58.77932
322.51         58.6998
322.97        59.02529
323.42        59.66159
323.87           60.39
324.32        60.83387
324.78        60.87655
325.23        60.65844
325.68        60.33496
326.13        60.17654
326.59        60.25795
327.04        60.52037
327.49        60.88644
327.94        61.24997
328.39        61.56554
328.85        61.85495
329.30        62.16697
329.75        62.46732
330.20        62.76032
330.66        63.02823
331.11        63.31821
331.56        63.65413
332.01         64.0554
332.46        64.50542
332.92        64.99879
333.37        65.63708
333.82        66.36772
334.27        67.16734
334.72         67.9016
335.17        68.35303
335.63        68.47421
336.08        68.35452
336.53        68.15869
336.98        68.18632
337.43        68.52205
337.88        69.08514
338.34         69.7514
338.79        70.38571
339.24        70.89687
339.69        71.34559
340.14        71.72561
340.59          72.017
341.05          72.227
341.50        72.34144
341.95        72.43955
342.40        72.66776
342.85        73.05756
343.30        73.57886
343.75        74.13091
344.20        74.52511
344.66        74.71342
345.11         74.7317
345.56        74.67561
346.01        74.68983
346.46        74.81916
346.91        75.02762
347.36        75.25571
347.81        75.41405
348.26        75.48818
348.72        75.52975
349.17         75.5783
349.62        75.75284
350.07        76.06537
350.52         76.4595
350.97        76.84386
351.42        77.08771
351.87        77.16155
352.32        77.11091
352.77        76.98411
353.22        76.85989
353.67        76.76786
354.13         76.6935
354.58        76.62064
355.03        76.57439
355.48        76.54675
355.93        76.53465
356.38        76.48843
356.83        76.32545
357.28        76.03032
357.73        75.62813
358.18        75.17852
358.63         74.7761
359.08        74.45512
359.53        74.20539
359.98        73.98541
360.43         73.7275
360.88        73.41067
361.33        73.03901
361.78        72.67775
362.23        72.43134
362.68        72.30994
363.13        72.28072
363.58        72.20221
364.03        71.85633
364.48        71.21242
364.93        70.34368
365.38        69.44881
365.83        68.84864
366.28        68.61529
366.73        68.64797
367.18        68.76141
367.63        68.64745
368.08        68.23006
368.53        67.62737
368.98        66.96385
369.43        66.42127
369.88        66.05763
370.33         65.8062
370.78        65.64823
371.23        65.56348
371.68        65.52454
372.13        65.53561
372.58        65.54846
373.03        65.47364
373.48        65.29194
373.93        65.02905
374.38        64.71821
374.83         64.4169
375.28        64.14609
375.72        63.87794
376.17        63.65481
376.62        63.51194
377.07        63.44282
377.52        63.42601
377.97          63.389
378.42        63.21518
378.87        62.88677
379.32        62.45435
379.77        61.97738
380.22        61.53839
380.67        61.16026
381.11        60.82037
381.56        60.52291
382.01        60.28075
382.46        60.09882
382.91        59.99272
383.36        59.91579
383.81        59.78834
384.26        59.59659
384.71         59.3488
385.15        59.10966
385.60        59.03904
386.05        59.11942
386.50        59.29031
386.95        59.42184
387.40        59.30091
387.85        58.91259
388.29        58.34336
388.74         57.7961
389.19        57.35161
389.64        57.03153
390.09        56.76964
390.54        56.61668
390.98        56.65761
391.43        56.88345
391.88        57.24547
392.33        57.54195
392.78        57.46996
393.23        57.02337
393.67         56.3096
394.12        55.63469
394.57        55.25312
395.02        55.22776
395.47        55.45309
395.91        55.86634
396.36        56.26712
396.81        56.57547
397.26        56.80728
397.71         56.9026
398.15        56.72775
398.60        56.36498
399.05        55.87222
399.50        55.35004
399.95        54.78154
400.39        54.44893
400.84        54.16264
401.29         54.0107
401.74        54.02835
402.18        54.22314
402.63        54.52379
403.08        54.89844
403.53        55.28522
403.97        55.64174
404.42         55.9562
404.87        56.12498
405.32        55.98238
405.76        55.52526
406.21        54.88563
406.66        54.26308
407.11        53.93995
407.55        54.01689
408.00        54.40229
408.45        54.94257
408.90        55.43229
409.34         55.6322
409.79        55.20129
410.24        54.41044
410.68        54.05104
411.13        54.22382
411.58        54.52315
412.03        54.86112
412.47        55.24575
412.92        55.57107
413.37        55.85754
413.81        56.04976
414.26        56.09754
414.71        55.98784
415.15        55.72812
415.60        55.40998
416.05        55.20519
416.49        55.16758
416.94        55.28258
417.39        55.43616
417.83        55.41628
418.28        55.19077
418.73        54.82151
419.17        54.49876
419.62        54.52779
420.07        54.93134
420.51        55.60489
420.96        56.28473
421.41        56.51526
421.85        56.18497
422.30        55.58191
422.74        54.92106
423.19        54.47594
423.64        54.35933
424.08        54.77607
424.53        55.53158
424.98        56.05165
425.42        56.21332
425.87        56.35022
426.31        56.46614
426.76        56.53683
427.21        56.65168
427.65        57.03009
428.10        57.58525
428.54        58.16059
428.99        58.72364
429.44        58.94837
429.88         58.8554
430.33        59.42477
430.77        60.15111
431.22        59.11633
431.66        56.87567
432.11        55.95754
432.56        56.54559
433.00        57.40446
433.45        58.34513
433.89        59.81084
434.34        60.72306
434.78        61.64053
435.23        58.81124
435.67        57.08138
436.12        59.39264
436.57        60.26908
437.01        60.53212
437.46        60.78188
437.90        61.22063
438.35         60.6528
438.79        61.41406
439.24        61.39602
439.68        61.32743
440.13        61.05584
440.57        60.88262
441.02        61.74461
441.46        63.23873
441.91        63.89111
442.35        63.56584
442.80        62.85056
443.24        62.13205
443.69        62.79828
444.13        64.43182
444.58        64.84586
445.02        63.29654
445.47         63.1997
445.91        64.20774
446.36        64.49643
446.80        64.01302
447.24        63.73899
447.69        63.80641
448.13         63.9978
448.58        64.33688
449.02        64.83261
449.47        65.36485
449.91        65.74636
450.36        65.92435
450.80        65.92983
451.25        65.82709
451.69        65.69438
452.13        65.58731
452.58        65.48979
453.02        65.42151
453.47        65.45161
453.91        65.56274
454.36        65.73865
454.80        65.92664
455.24        65.93073
455.69        65.73137
456.13        65.56871
456.58        65.48947
457.02        65.00446
457.46         64.3996
457.91        64.67374
458.35        65.57722
458.79        65.96143
459.24        65.81223
459.68        65.49091
460.13        64.99181
460.57        65.19385
461.01        65.09165
461.46        64.04041
461.90        63.78085
462.34        64.67016
462.79        64.03917
463.23        64.39737
463.68        64.72911
464.12        65.07783
464.56        65.32151
465.01        65.46835
465.45        65.36857
465.89        65.13655
466.34        64.77927
466.78        63.71455
467.22        62.44431
467.67        62.50377
468.11        63.78497
468.55        64.46626
468.99        64.29463
469.44        63.99491
469.88        63.76817
470.32        63.96371
470.77         64.4632
471.21        64.53139
471.65        64.11873
472.10         63.8094
472.54        63.70816
472.98        63.67491
473.42         63.7188
473.87        64.03458
474.31        64.43033
474.75        64.31876
475.20        63.81933
475.64        63.66517
476.08        63.89749
476.52        63.91072
476.97        63.68978
477.41        63.76732
477.85        64.15988
478.29        63.82835
478.74        64.14375
479.18        64.10838
479.62        63.25906
480.06        63.55729
480.50        64.14257
480.95        64.50109
481.39        64.36364
481.83        64.05746
482.27        64.07547
482.72        63.47504
483.16        62.69591
483.60        62.48583
484.04         63.9545
484.48        64.23536
484.93        64.08419
485.37        65.49784
485.81        66.12194
486.25        64.65354
486.69        86.43286
487.14        69.77216
487.58         44.2794
488.02        54.55518
488.46        62.41326
488.90        62.17456
489.34        63.81604
489.79        62.80926
490.23        64.82951
490.67        65.28481
491.11        63.98738
491.55        63.91313
491.99        64.63591
492.43         64.5896
492.88        63.81827
493.32        63.74705
493.76        63.94384
494.20        64.23637
494.64        64.40511
495.08        64.62846
495.52        64.90847
495.96        64.99059
496.41        64.83018
496.85        65.11572
497.29        65.65594
497.73        64.55656
498.17        62.72968
498.61        63.01791
499.05        65.40011
499.49        65.78553
499.93        65.60694
500.37        65.52576
500.82        65.46367
501.26        65.16274
501.70        65.76947
502.14        65.95433
502.58        65.97813
503.02        65.91133
503.46         65.7534
503.90        65.39413
504.34        64.96802
504.78        64.77425
505.22        64.83588
505.66        65.13515
506.10        65.56377
506.54        65.67017
506.98        65.28458
507.42        65.62906
507.86         64.7469
508.30        64.53226
508.74        64.82331
509.18        65.16861
509.62        65.53036
510.06        65.72854
510.50        65.72676
510.94        65.56532
511.38        65.35291
511.82        65.26289
512.26        65.33889
512.70        65.52139
513.14        65.74139
513.58        65.89085
514.02        65.93028
514.46        65.89457
514.90        65.82129
515.34         65.7479
515.78        65.67969
516.22        65.67278
516.66        65.71569
517.10         65.5961
517.54        65.30949
517.98        65.58234
518.42        65.43191
518.86        65.58291
519.30        65.73431
519.74        65.95652
520.18        66.19883
520.62        66.37125
521.06        66.45991
521.50        66.47684
521.93        66.44753
522.37        66.41406
522.81        66.39898
523.25        66.40037
523.69         66.4136
524.13        66.43131
524.57        66.45409
525.01        66.48283
525.45        66.54173
525.89        66.66727
526.32        66.84689
526.76        67.05815
527.20        67.23098
527.64        67.27579
528.08        67.19337
528.52        66.96261
528.96        66.62818
529.40        66.44976
529.83        66.49585
530.27        66.01838
530.71        66.30886
531.15        66.29824
531.59        66.36427
532.03        66.46947
532.46        66.63483
532.90        66.85915
533.34        67.11078
533.78        67.37646
534.22        67.57533
534.66        67.60004
535.09         67.4304
535.53        67.13036
535.97        66.78764
536.41        66.56186
536.85        66.50063
537.28         66.5657
537.72        66.69238
538.16        66.78368
538.60        66.80698
539.04        66.73925
539.47        66.61559
539.91        66.66673
540.35        66.83113
540.79        66.80797
541.22        66.60845
541.66        66.52439
542.10        66.55851
542.54        66.54088
542.97        66.48943
543.41        66.53345
543.85         66.6683
544.29        66.87987
544.72        67.06072
545.16        67.07441
545.60        66.89146
546.04        66.54312
546.47        66.20727
546.91        66.19406
547.35        66.53655
547.79        67.13612
548.22        67.71455
548.66        67.85701
549.10         67.4836
549.53        66.71893
549.97        65.89993
550.41        65.51202
550.84        65.67152
551.28        66.19308
551.72        66.85246
552.15        67.32905
552.59        67.47712
553.03        67.28833
553.46         66.9118
553.90        66.74269
554.34        66.84421
554.77        66.98402
555.21        67.06519
555.65        67.18718
556.08        67.35558
556.52        66.74433
556.96        66.96655
557.39        66.81863
557.83        66.80691
558.27        66.85054
558.70        66.96506
559.14         67.1588
559.57        67.38042
560.01        67.62776
560.45        67.81966
560.88        67.83414
561.32        67.66764
561.75        67.35332
562.19          67.024
562.63        66.62012
563.06        66.30357
563.50        66.57229
563.93        67.23635
564.37        67.58431
564.80        67.49628
565.24        67.29553
565.68        67.06549
566.11        66.91063
566.55        66.91957
566.98        66.90434
567.42        66.88024
567.85        67.16499
568.29         67.6858
568.72         67.6646
569.16        67.25472
569.60        67.73829
570.03        67.98206
570.47        67.90194
570.90        67.57278
571.34         65.9016
571.77        66.60724
572.21        66.90344
572.64        66.24622
573.08        65.21782
573.51        63.04319
573.95        65.43398
574.38        69.11548
574.82        67.06854
