SpectraSmart Spectrum 2.9.0.0
--------- Device Information -----------
Spectrum Name :  反射率_0
Saving Time :  2024/04/26 01:22:26
Spectro-Module Model Name : SE2030-DUVN
Spectro-Module Serial Number : OS361AC55029948
Wavelength Start : 200
Wavelength End : 1025
Wavelength Unit : Wavelength(nm)
Spectrum Unit : Reflectance(%)
-----------Spectrum Setting ------------
Integration Time : 20ms
Average : 10
Boxcar : 0
Background removal :  enabled
linearity correction :  enabled
SC :  disabled
Intensity correction :  disabled
DWT denoise :  enabled
savitzky-golay :  disabled
FFT :  disabled
Running average :  disabled
Kalman :  disabled
High pass :  disabled
---------------BEGIN--------------------
Wavelength(nm)             Reflectance(%)
200.29               0
200.75        100.5432
201.21        96.20969
201.67        90.40331
202.13        85.83166
202.58        83.04113
203.04        81.73055
203.50        81.57374
203.96        82.15734
204.42        83.06791
204.88        84.10033
205.34        85.39945
205.80         87.4208
206.26         90.8495
206.72        97.61196
207.18        109.3724
207.64        116.0615
208.10        103.2109
208.55        85.26324
209.01        75.79037
209.47        74.61537
209.93        78.56911
210.39        86.55981
210.85        95.78963
211.31        99.50323
211.77        95.34502
212.23        85.75754
212.69         75.6294
213.14        72.58853
213.60        77.87652
214.06        89.10079
214.52        101.6372
214.98         108.449
215.44        107.7313
215.90        101.9768
216.36        94.11293
216.81        88.06989
217.27        85.29662
217.73        84.48761
218.19        83.80447
218.65        80.73009
219.11        74.11064
219.57        63.13243
220.02        49.22088
220.48        40.91549
220.94        43.06344
221.40        53.45452
221.86         63.3164
222.32        63.45576
222.77        55.04729
223.23        43.33039
223.69        33.45786
224.15        30.65672
224.61        34.28855
225.06        41.56144
225.52        48.95506
225.98        52.07954
226.44        50.11904
226.90         45.0543
227.36        39.01505
227.81        34.79984
228.27        33.41042
228.73        33.65932
229.19        34.97557
229.65        36.55706
230.10        37.92638
230.56        39.26291
231.02        40.31303
231.48        40.69041
231.93        40.44932
232.39        39.74368
232.85        38.86746
233.31         38.3606
233.77        38.36216
234.22         38.7025
234.68        39.33822
235.14        40.04597
235.60        40.69142
236.05        41.37081
236.51        41.95489
236.97         42.2354
237.43        42.25709
237.88        42.10078
238.34         42.0922
238.80        43.16892
239.26        45.64137
239.71        49.25888
240.17        53.21091
240.63        56.54536
241.08        58.92914
241.54        60.46618
242.00        61.35294
242.46        61.98239
242.91         62.8675
243.37        64.12776
243.83        69.38384
244.28        98.45847
244.74        154.2196
245.20         151.694
245.66         136.548
246.11        134.0207
246.57        142.3357
247.03        169.8477
247.48        247.4443
247.94        202.2298
248.40        118.2138
248.85        92.94881
249.31        85.77268
249.77        85.39944
250.22        88.89034
250.68        96.47308
251.14        107.7128
251.59        114.6178
252.05        109.7741
252.51        97.07704
252.96        83.96783
253.42        77.49129
253.88        76.89915
254.33        79.26398
254.79        83.53678
255.25        87.70287
255.70        90.55833
256.16        92.91131
256.62        93.28439
257.07        90.03372
257.53        84.24907
257.99        76.61692
258.44        69.40237
258.90        66.16345
259.35         65.8428
259.81        66.87655
260.27        66.94051
260.72        63.80186
261.18        58.29086
261.63        51.53722
262.09        45.31943
262.55        41.05665
263.00        38.75653
263.46        37.75333
263.91        37.14445
264.37        36.19329
264.83        34.69284
265.28        32.79883
265.74        30.99966
266.19        29.80092
266.65        29.36384
267.11         29.3711
267.56         29.3557
268.02        28.73278
268.47        27.41566
268.93        25.61007
269.38        23.66375
269.84        22.40524
270.30        22.05211
270.75          22.374
271.21         22.9264
271.66        23.04558
272.12        22.55003
272.57        21.65418
273.03        20.68393
273.48        20.05811
273.94        19.89389
274.39        19.99795
274.85        20.14721
275.31        20.03223
275.76        19.57759
276.22        18.92174
276.67        18.21533
277.13        17.73658
277.58        17.50397
278.04        17.44473
278.49         17.3882
278.95        17.13199
279.40        16.63075
279.86         16.0075
280.31        15.37764
280.77        14.99867
281.22        14.88006
281.68        14.94178
282.13        15.06025
282.59        15.07764
283.04        14.95872
283.50         14.7808
283.95         14.5729
284.41         14.3819
284.86        14.22999
285.32        14.10636
285.77        14.05618
286.22        14.19846
286.68        14.51426
287.13         14.9458
287.59        15.35086
288.04        15.52336
288.50         15.4402
288.95        15.15242
289.41        14.80144
289.86        14.51488
290.32         14.3844
290.77        14.37136
291.22        14.47448
291.68        14.65027
292.13        14.90339
292.59        15.26472
293.04        15.76904
293.50        16.45914
293.95        17.32031
294.40        18.29516
294.86        19.32247
295.31        20.32966
295.77         21.2975
296.22        22.24929
296.68        23.17863
297.13        24.04501
297.58        24.87403
298.04        25.70238
298.49        26.62676
298.95        27.83936
299.40        29.36943
299.85        31.16223
300.31        33.09522
300.76        34.96211
301.21        36.67214
301.67        38.29972
302.12        39.84223
302.58        41.38858
303.03        42.95234
303.48         44.5219
303.94        46.20063
304.39        48.09712
304.84        50.22381
305.30         52.5407
305.75         54.8349
306.20        56.79416
306.66        58.37717
307.11        59.63409
307.57         60.8105
308.02        62.17405
308.47        63.83985
308.93        65.72393
309.38        67.66652
309.83        69.46016
310.29        71.02729
310.74        72.39993
311.19        73.66605
311.65        74.96358
312.10        76.31766
312.55        77.69073
313.00        78.96326
313.46        79.95023
313.91        80.59855
314.36        80.99107
314.82        81.32423
315.27         81.8485
315.72        82.66459
316.18          83.706
316.63        84.83684
317.08        85.78569
317.53        86.46287
317.99        86.92005
318.44        87.32109
318.89        87.94126
319.35        88.81723
319.80         89.8931
320.25        90.89361
320.70        91.36927
321.16         91.2386
321.61        90.65869
322.06        89.99869
322.51        89.83624
322.97        90.28544
323.42        91.21648
323.87        92.30608
324.32        92.99107
324.78        93.09373
325.23         92.8202
325.68        92.40208
326.13          92.249
326.59        92.46234
327.04         92.9393
327.49         93.5361
327.94        94.05211
328.39        94.41393
328.85        94.68004
329.30        94.94099
329.75        95.17138
330.20        95.40537
330.66        95.62171
331.11        95.94253
331.56        96.49748
332.01        97.32307
332.46        98.36644
332.92        99.49875
333.37        100.6698
333.82        101.7225
334.27        102.6646
334.72        103.3983
335.17        103.7917
335.63        103.8474
336.08        103.6608
336.53        103.4268
336.98        103.5071
337.43        103.9988
337.88        104.8074
338.34        105.7882
338.79         106.785
339.24        107.6718
339.69        108.5125
340.14        109.2125
340.59         109.612
341.05        109.7083
341.50        109.5244
341.95        109.2964
342.40        109.4102
342.85        109.9479
343.30        110.8165
343.75        111.7807
344.20        112.4099
344.66        112.5945
345.11        112.4472
345.56        112.1688
346.01        112.0651
346.46        112.2213
346.91        112.5333
347.36        112.8992
347.81        113.1699
348.26        113.3063
348.72        113.3898
349.17        113.4402
349.62        113.5283
350.07        113.6706
350.52         113.823
350.97        113.9793
351.42         114.143
351.87        114.3006
352.32        114.4498
352.77        114.5351
353.22        114.4681
353.67        114.2374
354.13         113.884
354.58        113.4615
355.03        113.1181
355.48        112.8859
355.93        112.7281
356.38        112.5665
356.83        112.2732
357.28        111.8167
357.73        111.2379
358.18        110.6057
358.63        110.0263
359.08        109.5294
359.53         109.086
359.98        108.6364
360.43        108.0888
360.88        107.4196
361.33        106.6541
361.78        105.8679
362.23        105.1818
362.68         104.631
363.13        104.1958
363.58        103.7757
364.03        103.2086
364.48        102.4642
364.93         101.585
365.38        100.7149
365.83        100.0888
366.28        99.73969
366.73        99.57148
367.18        99.40219
367.63        98.94085
368.08        98.13335
368.53        97.11372
368.98        96.01801
369.43        95.03974
369.88        94.24774
370.33        93.57834
370.78        93.06214
371.23        92.75237
371.68        92.63123
372.13        92.68393
372.58        92.76508
373.03        92.62227
373.48         92.1981
373.93        91.56104
374.38         90.8566
374.83        90.31651
375.28        89.99673
375.72        89.81411
376.17        89.69914
376.62        89.51591
377.07        89.20944
377.52        88.80412
377.97         88.3321
378.42        87.84129
378.87        87.35891
379.32        86.89777
379.77        86.40038
380.22        85.77615
380.67        85.01865
381.11        84.15473
381.56        83.34622
382.01        82.86285
382.46        82.76273
382.91        82.98149
383.36        83.25478
383.81        83.15932
384.26        82.60918
384.71        81.72164
385.15        80.78967
385.60        80.32839
386.05        80.37446
386.50        80.75387
386.95        81.13307
387.40        80.96114
387.85        80.16824
388.29        78.98946
388.74         77.8499
389.19        77.02254
389.64         76.5589
390.09        76.30097
390.54        76.24242
390.98        76.37817
391.43        76.64976
391.88         77.0386
392.33        77.31128
392.78        77.07809
393.23        76.34288
393.67         75.3368
394.12        74.44931
394.57        73.77536
395.02        73.50333
395.47        74.00734
395.91        75.08624
396.36        75.78334
396.81        75.91039
397.26         75.8529
397.71        75.67387
398.15        75.22348
398.60        74.64408
399.05        74.12516
399.50        73.67562
399.95        72.80368
400.39        72.00622
400.84        71.73381
401.29        72.02689
401.74        72.21967
402.18        72.21741
402.63        72.19579
403.08        72.23348
403.53        72.40805
403.97        72.70889
404.42        73.01122
404.87        73.16388
405.32        72.95541
405.76        72.36048
406.21        71.59705
406.66        70.85201
407.11        70.29818
407.55        70.10525
408.00        70.35399
408.45        70.91298
408.90        71.55492
409.34        71.92819
409.79        71.39423
410.24        70.28191
410.68        69.76305
411.13        69.95558
411.58        70.20733
412.03        70.42958
412.47        70.76608
412.92         71.1045
413.37         71.4269
413.81        71.63676
414.26        71.62943
414.71        71.37814
415.15        70.91473
415.60        70.36729
416.05        69.96358
416.49        69.77898
416.94        69.78289
417.39        69.85686
417.83        69.77112
418.28        69.49365
418.73        69.11009
419.17        68.79038
419.62        68.81717
420.07        69.19113
420.51        69.79242
420.96        70.41645
421.41        70.64966
421.85        70.37891
422.30        70.05862
422.74        69.71246
423.19        69.02364
423.64        68.22407
424.08        68.34922
424.53        69.30405
424.98        69.86697
425.42        69.88147
425.87        70.41112
426.31         71.2639
426.76        70.83389
427.21        69.55473
427.65        69.79655
428.10        71.37404
428.54        72.26945
428.99        72.39049
429.44        72.24323
429.88        72.02635
430.33        73.02304
430.77        74.42256
431.22        73.29964
431.66        70.30885
432.11        68.78596
432.56        69.05515
433.00        69.96732
433.45        71.35493
433.89        72.86253
434.34        73.78226
434.78        75.16681
435.23         71.3769
435.67        69.21057
436.12        71.88829
436.57        73.01407
437.01        73.50704
437.46        73.81309
437.90        74.15485
438.35        73.24097
438.79        73.95807
439.24        73.76019
439.68        73.52328
440.13        73.25458
440.57        73.22383
441.02        73.92136
441.46        75.04405
441.91        76.02164
442.35        76.44646
442.80        75.61401
443.24        74.01863
443.69         74.3695
444.13         76.3092
444.58        76.23872
445.02        74.41241
445.47         74.1777
445.91        75.42224
446.36        75.85844
446.80        75.39862
447.24        75.20766
447.69        75.37583
448.13        75.57879
448.58        75.82877
449.02        76.14416
449.47        76.46232
449.91        76.70354
450.36         76.8417
450.80        76.88163
451.25        76.82153
451.69        76.62916
452.13        76.34396
452.58        75.99191
453.02        75.67712
453.47        75.60282
453.91        75.77734
454.36        76.14478
454.80        76.56332
455.24         76.6855
455.69        76.44881
456.13        76.14095
456.58        75.91451
457.02         75.3859
457.46        74.82905
457.91        75.42182
458.35        76.31486
458.79        76.75686
459.24          76.522
459.68        76.14781
460.13        75.73936
460.57        75.41668
461.01        75.34779
461.46        74.56658
461.90        74.37174
462.34        74.82734
462.79        74.54559
463.23        74.73597
463.68        74.87077
464.12        75.37527
464.56        75.99879
465.01        76.04101
465.45        75.49273
465.89        75.11307
466.34        74.86156
466.78        74.04082
467.22        73.15176
467.67        72.29385
468.11        73.81757
468.55        74.34836
468.99        74.33351
469.44         73.9566
469.88        73.46185
470.32        73.60267
470.77        74.22631
471.21        74.33131
471.65        73.84441
472.10        73.48865
472.54        73.37198
472.98        73.30251
473.42         73.2894
473.87        73.56618
474.31        73.93322
474.75        73.74132
475.20        73.14421
475.64        73.00792
476.08        73.35702
476.52        73.41701
476.97        73.15718
477.41        73.24262
477.85        73.70167
478.29        73.25822
478.74        73.69991
479.18        73.67195
479.62        72.73424
480.06        73.29546
480.50        73.48037
480.95        73.85027
481.39        73.98175
481.83        72.74816
482.27        73.14411
482.72        72.96894
483.16        71.65224
483.60         71.9686
484.04        73.45934
484.48         73.8751
484.93        73.72645
485.37        75.00243
485.81        75.42731
486.25          74.143
486.69        101.2558
487.14        81.59505
487.58        50.82936
488.02        62.59583
488.46        70.81817
488.90        69.99786
489.34        72.04724
489.79        71.12429
490.23        73.38738
490.67        74.16966
491.11        73.01239
491.55        72.90148
491.99        73.42478
492.43        73.29164
492.88        72.59837
493.32        72.72599
493.76        73.09483
494.20         73.4102
494.64        73.38053
495.08        73.37705
495.52        73.46955
495.96        73.14944
496.41        72.54569
496.85        73.14217
497.29        74.51121
497.73        73.49118
498.17        71.11625
498.61        71.19639
499.05        73.79213
499.49        74.47647
499.93        74.75237
500.37        74.44002
500.82        73.51107
501.26        73.53683
501.70        74.21548
502.14         74.3894
502.58        73.94739
503.02        73.70261
503.46        73.67548
503.90        73.42371
504.34         73.0551
504.78        72.92581
505.22        73.05289
505.66        73.38191
506.10          73.806
506.54        73.92995
506.98        73.61172
507.42        73.73389
507.86        73.13845
508.30        72.68503
508.74        73.06039
509.18        73.32602
509.62         73.6334
510.06        73.76693
510.50        73.68951
510.94         73.4526
511.38        73.16414
511.82         73.0117
512.26        73.04314
512.70        73.19918
513.14        73.41265
513.58         73.5784
514.02        73.65289
514.46        73.66111
514.90        73.63634
515.34        73.61432
515.78         73.5984
516.22        73.63097
516.66        73.67654
517.10        73.53145
517.54        73.19221
517.98        73.24006
518.42        72.97487
518.86        73.05286
519.30        73.25404
519.74        73.60179
520.18         73.9914
520.62        74.24664
521.06        74.32835
521.50        74.27941
521.93        74.15815
522.37         74.0621
522.81        74.03146
523.25        74.03841
523.69         74.0759
524.13        74.13437
524.57         74.2082
525.01        74.30737
525.45         74.4203
525.89        74.52391
526.32        74.59925
526.76        74.63736
527.20        74.64037
527.64        74.64076
528.08         74.6617
528.52        74.62299
528.96        74.47251
529.40        74.37947
529.83        74.36626
530.27        73.56025
530.71        73.52745
531.15         73.3438
531.59        73.47525
532.03        73.77917
532.46        74.17219
532.90         74.4996
533.34        74.68647
533.78        74.77338
534.22        74.77772
534.66        74.73801
535.09        74.66096
535.53        74.55727
535.97        74.42791
536.41        74.30326
536.85        74.19724
537.28        74.11479
537.72        74.05453
538.16         74.0207
538.60        74.01252
539.04         73.9735
539.47        73.89567
539.91        73.96556
540.35        74.10016
540.79        73.99245
541.22        73.70126
541.66        73.61709
542.10        73.75324
542.54        73.89278
542.97        73.99747
543.41        74.12358
543.85        74.24233
544.29        74.36372
544.72        74.42095
545.16        74.32501
545.60        74.06186
546.04        73.70839
546.47        73.41415
546.91        73.30968
547.35        73.48799
547.79        74.16685
548.22        75.00659
548.66        75.25154
549.10        74.78058
549.53        73.84445
549.97        72.84709
550.41        72.34216
550.84         72.4545
551.28        73.01247
551.72        73.77017
552.15        74.19741
552.59        74.13287
553.03        74.24281
553.46        73.73495
553.90        73.58272
554.34        73.57432
554.77        73.61056
555.21        73.63146
555.65        73.60316
556.08        73.87701
556.52        73.25679
556.96         73.5815
557.39        73.47215
557.83        73.47175
558.27        73.53083
558.70        73.65649
559.14        73.80444
559.57        73.96627
560.01        74.23581
560.45        74.51801
560.88        74.70112
561.32        74.72182
561.75        74.30704
562.19        73.67754
562.63        73.34282
563.06        73.34885
563.50        73.45751
563.93        73.57463
564.37        73.68987
564.80        73.74522
565.24        73.77991
565.68        73.77654
566.11        73.74464
566.55        73.74169
566.98        73.65273
567.42        73.55121
567.85        73.76432
568.29        74.24596
568.72        74.27455
569.16         74.0467
569.60        74.42118
570.03        75.05777
570.47        74.97865
570.90        74.48039
571.34        73.09702
571.77        73.92506
572.21        74.11407
572.64        73.52234
573.08        72.66901
573.51        69.50718
573.95        72.13142
574.38        76.53262
574.82        74.39296
