SpectraSmart Spectrum 2.9.0.0
--------- Device Information -----------
Spectrum Name :  反射率_0
Saving Time :  2024/04/26 01:04:31
Spectro-Module Model Name : SE2030-DUVN
Spectro-Module Serial Number : OS361AC55029948
Wavelength Start : 200
Wavelength End : 1025
Wavelength Unit : Wavelength(nm)
Spectrum Unit : Reflectance(%)
-----------Spectrum Setting ------------
Integration Time : 20ms
Average : 10
Boxcar : 0
Background removal :  enabled
linearity correction :  enabled
SC :  disabled
Intensity correction :  disabled
DWT denoise :  enabled
savitzky-golay :  disabled
FFT :  disabled
Running average :  disabled
Kalman :  disabled
High pass :  disabled
---------------BEGIN--------------------
Wavelength(nm)             Reflectance(%)
200.29               0
200.75        97.28434
201.21        90.82253
201.67        83.06998
202.13        77.44972
202.58         74.5125
203.04        73.70457
203.50        74.40058
203.96        75.59499
204.42        76.68208
204.88        77.68279
205.34        78.81296
205.80        80.58535
206.26        83.62659
206.72        89.44621
207.18        99.45828
207.64        105.2463
208.10        94.47392
208.55        79.42463
209.01        71.19972
209.47        69.47968
209.93        71.62043
210.39        76.67982
210.85        82.66625
211.31        84.93178
211.77        81.88183
212.23        75.18269
212.69        68.20971
213.14        66.29811
213.60        70.19409
214.06        78.33475
214.52        87.45441
214.98        92.55686
215.44        92.41666
215.90        88.82816
216.36        83.96381
216.81        80.72667
217.27        80.10662
217.73        80.90533
218.19        81.80226
218.65        81.14655
219.11        78.21554
219.57        72.56503
220.02        64.68212
220.48        59.04851
220.94        58.29411
221.40        61.87886
221.86        65.21016
222.32        63.23376
222.77        56.65874
223.23        48.58652
223.69        42.38205
224.15        41.56467
224.61        45.49198
225.06        52.25396
225.52        58.76628
225.98        61.13817
226.44        58.75586
226.90        53.32125
227.36        47.18106
227.81        43.50446
228.27        43.25217
228.73        45.11352
229.19        47.86939
229.65          49.738
230.10         50.2124
230.56        49.99422
231.02        49.51223
231.48        49.17641
231.93        49.06081
232.39        49.00565
232.85        48.87239
233.31        48.56317
233.77        48.04641
234.22        47.34809
234.68        46.67358
235.14        46.34319
235.60        46.45555
236.05        46.95449
236.51        47.49518
236.97        47.51908
237.43         46.9243
237.88        45.85635
238.34        44.69881
238.80        44.70594
239.26        46.47929
239.71         49.7845
240.17        53.78363
240.63        57.39593
241.08        60.19115
241.54        62.26659
242.00        63.84463
242.46        65.50686
242.91        68.14542
243.37        72.92342
243.83        86.87785
244.28        135.7034
244.74         198.725
245.20        173.6135
245.66        146.3604
246.11        139.7272
246.57        146.6786
247.03        174.1614
247.48        255.8178
247.94        215.3466
248.40        128.3984
248.85        101.6818
249.31        93.87603
249.77        93.01051
250.22        95.94507
250.68        102.5552
251.14        112.5114
251.59         119.065
252.05        115.5109
252.51        104.9692
252.96        93.35548
253.42        86.45217
253.88        83.69223
254.33        82.95077
254.79        83.99361
255.25        85.95203
255.70        87.96131
256.16        90.26638
256.62        91.30291
257.07        89.40363
257.53        85.37475
257.99        79.70741
258.44        74.10625
258.90        71.50888
259.35        70.95937
259.81         71.3298
260.27        70.72641
260.72        67.32887
261.18        61.93354
261.63        55.41878
262.09        49.41438
262.55        45.14945
263.00        42.63358
263.46        41.35245
263.91        40.42878
264.37        39.15279
264.83        37.33073
265.28        35.11854
265.74        33.08616
266.19        31.86281
266.65        31.61035
267.11        31.92839
267.56        32.24654
268.02         31.8905
268.47        30.75156
268.93        29.05259
269.38        27.15788
269.84         25.9229
270.30        25.56796
270.75        25.85325
271.21        26.29506
271.66        26.17155
272.12        25.31546
272.57        23.98753
273.03        22.62104
273.48        21.78049
273.94        21.61471
274.39        21.88424
274.85        22.27445
275.31        22.33493
275.76        21.94983
276.22        21.28894
276.67        20.55654
277.13        20.12033
277.58         20.0013
278.04        20.08455
278.49        20.13181
278.95        19.85959
279.40        19.21621
279.86        18.37668
280.31         17.5146
280.77        16.97742
281.22        16.79634
281.68        16.86165
282.13        17.02962
282.59         17.1182
283.04        17.07533
283.50        16.98952
283.95        16.86079
284.41        16.69446
284.86        16.50723
285.32        16.29828
285.77        16.15781
286.22        16.27989
286.68        16.65612
287.13        17.20054
287.59        17.71819
288.04         17.9198
288.50        17.76887
288.95        17.34379
289.41        16.83585
289.86        16.43958
290.32        16.26676
290.77        16.26051
291.22        16.38388
291.68        16.54055
292.13        16.72188
292.59        16.97087
293.04        17.36822
293.50        18.02834
293.95        18.94577
294.40        20.04118
294.86        21.17796
295.31        22.16637
295.77        22.97254
296.22        23.66313
296.68         24.3315
297.13        25.09863
297.58        26.02506
298.04        27.08884
298.49        28.29527
298.95        29.69651
299.40        31.28044
299.85        33.03501
300.31        34.87399
300.76        36.65131
301.21        38.29844
301.67        39.86537
302.12        41.35324
302.58        42.86159
303.03        44.40345
303.48         45.9796
303.94        47.66641
304.39         49.5241
304.84        51.56139
305.30        53.74724
305.75        55.92387
306.20        57.86896
306.66        59.54624
307.11        60.96461
307.57        62.28666
308.02        63.65407
308.47        65.16381
308.93        66.78325
309.38        68.41987
309.83        69.97518
310.29        71.40451
310.74        72.70079
311.19        73.93551
311.65        75.22006
312.10        76.56019
312.55        77.92941
313.00        79.16874
313.46        80.02717
313.91         80.4473
314.36         80.5335
314.82        80.55112
315.27        80.85809
315.72        81.57577
316.18        82.60673
316.63        83.76022
317.08        84.67015
317.53        85.22469
317.99        85.51419
318.44        85.73527
318.89        86.21373
319.35        87.00043
319.80        88.00755
320.25         88.9694
320.70        89.45693
321.16        89.37832
321.61        88.88564
322.06        88.27596
322.51        88.01159
322.97        88.19302
323.42        88.72686
323.87        89.39763
324.32        89.83094
324.78        89.90813
325.23        89.78828
325.68        89.61185
326.13        89.63148
326.59        89.89692
327.04        90.33987
327.49        90.86919
327.94        91.37611
328.39        91.80619
328.85        92.17346
329.30         92.5096
329.75        92.70116
330.20        92.76682
330.66        92.73981
331.11        92.78658
331.56        93.09965
332.01        93.74223
332.46        94.63614
332.92        95.69717
333.37        96.94237
333.82        98.21651
334.27        99.50797
334.72        100.5761
335.17        101.0446
335.63        100.8611
336.08        100.1866
336.53        99.39313
336.98        99.13189
337.43         99.5779
337.88        100.5596
338.34        101.8061
338.79        102.9424
339.24        103.7749
339.69        104.4331
340.14        104.9067
340.59         105.177
341.05        105.2853
341.50        105.2021
341.95         105.094
342.40         105.255
342.85        105.7435
343.30        106.4947
343.75        107.3299
344.20        107.9113
344.66        108.1477
345.11        108.1174
345.56        107.9482
346.01        107.8367
346.46        107.8544
346.91        107.9468
347.36        108.0808
347.81        108.2137
348.26        108.3309
348.72        108.4664
349.17        108.6165
349.62        108.8132
350.07        109.0477
350.52        109.2952
350.97        109.4939
351.42          109.56
351.87         109.483
352.32        109.2906
352.77        109.0504
353.22        108.8728
353.67        108.7821
354.13        108.7521
354.58        108.7009
355.03        108.5597
355.48        108.2977
355.93        107.9346
356.38        107.4831
356.83        106.9615
357.28        106.3871
357.73        105.7685
358.18        105.1132
358.63        104.4327
359.08        103.7439
359.53        103.0569
359.98        102.4084
360.43        101.8466
360.88         101.365
361.33        100.9324
361.78         100.491
362.23        99.95096
362.68        99.29719
363.13        98.57381
363.58        97.80431
364.03        97.02271
364.48         96.2522
364.93        95.48163
365.38        94.76893
365.83        94.20901
366.28        93.79907
366.73        93.49177
367.18        93.17842
367.63        92.68347
368.08         91.9735
368.53        91.12598
368.98        90.20559
369.43        89.30257
369.88         88.4604
370.33        87.65826
370.78        86.95592
371.23        86.45424
371.68        86.16176
372.13        86.04707
372.58        86.00394
373.03        85.84373
373.48        85.51373
373.93        85.06838
374.38        84.56273
374.83        84.08688
375.28        83.66728
375.72        83.25168
376.17        82.87318
376.62        82.56646
377.07        82.32043
377.52        82.11702
377.97        81.87404
378.42        81.45683
378.87        80.85654
379.32        80.14546
379.77        79.40051
380.22          78.725
380.67        78.14101
381.11        77.60713
381.56        77.13886
382.01        76.76823
382.46        76.49945
382.91        76.35069
383.36         76.2065
383.81        75.88169
384.26        75.35123
384.71        74.65147
385.15        73.96864
385.60        73.65507
386.05        73.70856
386.50        74.01222
386.95        74.28261
387.40        74.04775
387.85        73.26829
388.29        72.15406
388.74        71.09803
389.19        70.36588
389.64        70.00109
390.09        69.84388
390.54        69.89522
390.98        70.15482
391.43        70.55801
391.88        71.08132
392.33        71.44089
392.78        71.20639
393.23        70.38656
393.67         69.1601
394.12        68.00883
394.57        67.33821
395.02        67.27048
395.47        67.76857
395.91        68.60851
396.36        69.15591
396.81        69.24677
397.26        69.07647
397.71        68.75166
398.15        68.33771
398.60        67.97587
399.05        67.64404
399.50        67.33807
399.95        66.84857
400.39        66.49332
400.84        66.13616
401.29        65.88245
401.74        65.77815
402.18        65.81252
402.63        65.77428
403.08        65.73526
403.53        65.92293
403.97          66.327
404.42        66.81213
404.87        67.15607
405.32        67.03658
405.76        66.40168
406.21        65.42542
406.66        64.43387
407.11        63.90956
407.55        63.96105
408.00        64.42498
408.45        65.07716
408.90        65.44693
409.34        65.37077
409.79        65.01968
410.24         64.5745
410.68        64.27768
411.13        64.21271
411.58        64.26844
412.03        64.42342
412.47         64.6704
412.92        64.93127
413.37        65.23862
413.81        65.49397
414.26        65.58112
414.71        65.46242
415.15         65.1544
415.60        64.76856
416.05        64.50999
416.49        64.44328
416.94        64.54595
417.39        64.67381
417.83        64.56656
418.28        64.19446
418.73        63.64639
419.17        63.18282
419.62        63.21669
420.07        63.77576
420.51        64.71068
420.96         65.6747
421.41        66.05911
421.85        65.70621
422.30        64.99987
422.74        64.18658
423.19        63.52332
423.64        63.17578
424.08        63.50237
424.53        64.30444
424.98        64.84137
425.42        64.98067
425.87        65.18711
426.31        65.49982
426.76        65.55919
427.21         65.5219
427.65        65.95144
428.10        66.75275
428.54        67.44775
428.99        67.98124
429.44        68.26481
429.88        68.26043
430.33        68.66264
430.77         69.0299
431.22        67.80268
431.66        65.54942
432.11        64.57383
432.56        65.04709
433.00        66.02386
433.45        67.33467
433.89         68.9455
434.34        69.50837
434.78        71.19672
435.23        67.35008
435.67          65.258
436.12        68.13887
436.57        69.20124
437.01        69.47206
437.46        69.89861
437.90        70.79589
438.35        69.54517
438.79         70.8942
439.24        70.69469
439.68        70.41115
440.13        69.76673
440.57        69.26527
441.02        70.29792
441.46        72.34645
441.91        73.42454
442.35        73.21762
442.80        72.31908
443.24        71.20787
443.69        71.69695
444.13        73.37737
444.58         73.5674
445.02        71.64822
445.47        71.46178
445.91        72.66035
446.36        73.08752
446.80        72.65991
447.24        72.51619
447.69        72.74773
448.13        73.01311
448.58        73.32262
449.02        73.70316
449.47        74.09233
449.91        74.41165
450.36         74.6312
450.80        74.74142
451.25        74.74324
451.69        74.63264
452.13        74.41373
452.58        74.14484
453.02        73.89029
453.47        73.80615
453.91        73.89333
454.36        74.11436
454.80        74.42194
455.24        74.50468
455.69        74.30212
456.13        74.28098
456.58        74.52334
457.02        73.48897
457.46        73.23413
457.91        73.32516
458.35        74.08933
458.79         74.3581
459.24        74.09392
459.68        73.85981
460.13        73.71387
460.57        73.44508
461.01        73.12915
461.46        72.78678
461.90        72.42528
462.34        72.47617
462.79         72.2915
463.23        72.41776
463.68        73.04654
464.12        73.36172
464.56        73.42756
465.01        73.51214
465.45        73.45231
465.89        73.19475
466.34        72.73167
466.78        71.65336
467.22        70.48492
467.67        70.30019
468.11        71.63196
468.55        72.36797
468.99        72.35435
469.44        71.95081
469.88        71.37289
470.32        71.23839
470.77         71.5148
471.21        71.46658
471.65        71.07967
472.10        70.98109
472.54        71.15918
472.98        71.28784
473.42         71.3378
473.87        71.45869
474.31        71.58493
474.75        71.56092
475.20        71.41146
475.64        71.31919
476.08        71.36349
476.52        71.26261
476.97        70.95679
477.41        71.36638
477.85        71.63541
478.29        71.05687
478.74        71.50726
479.18        71.86866
479.62        70.58648
480.06        71.17583
480.50        71.42514
480.95        71.89588
481.39        72.16161
481.83        70.81625
482.27        71.03489
482.72        71.18463
483.16        69.54603
483.60        69.84256
484.04         71.2566
484.48        71.63263
484.93        71.52625
485.37        72.59939
485.81        73.77952
486.25        72.28626
486.69        97.44884
487.14        78.71463
487.58        49.09843
488.02         60.8643
488.46         68.9276
488.90        68.41813
489.34        70.38274
489.79        69.18527
490.23         71.2536
490.67        72.01568
491.11        71.12421
491.55        71.09566
491.99        71.49817
492.43        71.30271
492.88        70.59957
493.32        70.57169
493.76        70.71819
494.20        70.97314
494.64        71.08716
495.08        71.27811
495.52        71.54846
495.96        71.48587
496.41         71.0892
496.85        71.42419
497.29        72.22684
497.73        70.98451
498.17         68.7645
498.61        69.10758
499.05        71.94916
499.49        72.55467
499.93        72.39933
500.37        71.93584
500.82        71.23943
501.26        70.94203
501.70        71.83222
502.14        72.12483
502.58        71.95212
503.02        71.73249
503.46        71.65323
503.90        71.19257
504.34        70.58333
504.78        70.30122
505.22        70.40208
505.66        70.79549
506.10        71.32275
506.54        71.55064
506.98        71.35139
507.42        71.50349
507.86        70.96715
508.30        70.87928
508.74        70.96509
509.18        71.17037
509.62        71.38703
510.06        71.46096
510.50        71.36736
510.94        71.15833
511.38        70.94416
511.82        70.88567
512.26        71.01917
512.70        71.28819
513.14        71.59522
513.58         71.7851
514.02        71.80768
514.46        71.70463
514.90        71.55037
515.34        71.44765
515.78        71.41743
516.22         71.4871
516.66        71.60442
517.10        71.52288
517.54        71.22406
517.98        71.33825
518.42        71.09594
518.86         71.1717
519.30        71.32836
519.74        71.59668
520.18        71.89741
520.62         72.0978
521.06        72.16926
521.50        72.14389
521.93        72.05502
522.37        71.95642
522.81        71.87976
523.25        71.81645
523.69        71.78117
524.13        71.79678
524.57        71.86548
525.01         71.9816
525.45        72.12871
525.89        72.27641
526.32        72.39784
526.76        72.48809
527.20        72.52923
527.64        72.51563
528.08        72.46818
528.52        72.33801
528.96        72.11232
529.40        71.97648
529.83        71.98323
530.27        71.35241
530.71         71.5421
531.15        71.49081
531.59        71.62591
532.03        71.87671
532.46        72.20203
532.90         72.4958
533.34        72.70126
533.78        72.84206
534.22        72.89833
534.66        72.85366
535.09        72.70705
535.53        72.49179
535.97        72.25002
536.41         72.0734
536.85        71.99007
537.28        71.98426
537.72        72.01928
538.16        72.04245
538.60        72.03664
539.04        71.96358
539.47        71.83918
539.91        71.88114
540.35        72.01612
540.79        71.93008
541.22        71.66497
541.66        71.57725
542.10        71.67678
542.54        71.76877
542.97        71.82237
543.41        71.90068
543.85         71.9802
544.29        72.06252
544.72        72.10212
545.16        72.04202
545.60        71.86842
546.04        71.65053
546.47        71.48085
546.91        71.40255
547.35        71.50072
547.79        72.00519
548.22        72.64973
548.66        72.85495
549.10        72.48916
549.53        71.61302
549.97        70.60724
550.41        70.13192
550.84        70.31055
551.28        70.87381
551.72         71.6031
552.15        72.07731
552.59        72.14793
553.03        72.19236
553.46        72.13862
553.90        71.65534
554.34        71.97767
554.77         71.9642
555.21        71.92349
555.65         71.9764
556.08        72.15701
556.52        71.54962
556.96        71.83701
557.39        71.68844
557.83         71.6324
558.27        71.60425
558.70        71.64015
559.14        71.77228
559.57        71.95602
560.01        72.19724
560.45        72.41121
560.88        72.42793
561.32        72.26037
561.75        72.03448
562.19        71.83833
562.63        71.45424
563.06        71.03058
563.50        71.15176
563.93        71.67474
564.37         71.9116
564.80         71.7796
565.24        71.67466
565.68        71.63825
566.11        71.59013
566.55        71.59133
566.98        71.63529
567.42        71.71382
567.85        71.81939
568.29        71.98997
568.72        72.00577
569.16        72.02267
569.60         72.4611
570.03        72.89859
570.47        72.77923
570.90        72.36652
571.34        70.83581
571.77        71.66288
572.21        71.64554
572.64        70.96665
573.08        70.14938
573.51        67.31564
573.95        69.98167
574.38        74.28668
574.82         71.8135
