SpectraSmart Spectrum 2.9.0.0
--------- Device Information -----------
Spectrum Name :  反射率_0
Saving Time :  2024/04/26 01:34:50
Spectro-Module Model Name : SE2030-DUVN
Spectro-Module Serial Number : OS361AC55029948
Wavelength Start : 200
Wavelength End : 1025
Wavelength Unit : Wavelength(nm)
Spectrum Unit : Reflectance(%)
-----------Spectrum Setting ------------
Integration Time : 20ms
Average : 10
Boxcar : 0
Background removal :  enabled
linearity correction :  enabled
SC :  disabled
Intensity correction :  disabled
DWT denoise :  enabled
savitzky-golay :  disabled
FFT :  disabled
Running average :  disabled
Kalman :  disabled
High pass :  disabled
---------------BEGIN--------------------
Wavelength(nm)             Reflectance(%)
200.29               0
200.75        100.6461
201.21        96.94604
201.67        91.65227
202.13        88.14055
202.58        87.00164
203.04        87.71484
203.50        88.85168
203.96        88.27081
204.42        85.83663
204.88        82.58733
205.34        80.07484
205.80        79.85242
206.26        82.58081
206.72         90.1185
207.18        105.1653
207.64         116.953
208.10        105.4354
208.55        85.45213
209.01        73.53295
209.47        70.12816
209.93        71.75304
210.39        77.01355
210.85         83.1587
211.31        84.28663
211.77        78.70936
212.23        68.58025
212.69        59.21245
213.14         58.8302
213.60        68.54005
214.06        85.69909
214.52        103.8678
214.98        113.2458
215.44        111.7182
215.90        102.9098
216.36        91.67681
216.81        84.77085
217.27        84.02003
217.73        86.90188
218.19        90.64273
218.65         91.8699
219.11        89.53202
219.57        83.71686
220.02        75.86185
220.48        72.44583
220.94         76.4967
221.40        85.65002
221.86        92.86453
222.32        91.31625
222.77        82.47261
223.23        71.13786
223.69        61.97938
224.15        59.78241
224.61        63.91901
225.06        71.86031
225.52        80.27153
225.98         84.8361
226.44        84.69947
226.90        81.63258
227.36        77.71103
227.81        75.71809
228.27        76.58326
228.73        78.99948
229.19        81.97484
229.65        84.10905
230.10        84.95893
230.56        85.30205
231.02        85.37644
231.48        85.43253
231.93        85.53643
232.39        85.62377
232.85        85.81799
233.31        86.46696
233.77        87.58762
234.22        89.15825
234.68        90.71371
235.14        91.33663
235.60        90.80155
236.05         89.4358
236.51        87.88223
236.97         87.0341
237.43        87.14133
237.88         88.1543
238.34        89.81702
238.80        91.80623
239.26        93.70599
239.71        95.83546
240.17        97.41935
240.63        97.93979
241.08        97.52542
241.54        96.18035
242.00        95.12507
242.46        96.28947
242.91        101.6059
243.37         115.259
243.83        154.7567
244.28        263.9116
244.74        350.2821
245.20        255.7716
245.66        192.2375
246.11        176.6251
246.57        187.6662
247.03        237.6349
247.48        393.2867
247.94        333.4485
248.40         171.413
248.85        119.4341
249.31        103.0287
249.77        99.83411
250.22        103.5217
250.68        113.5002
251.14        129.2909
251.59        140.6596
252.05        137.1659
252.51        123.3289
252.96        108.9822
253.42        103.9301
253.88        107.6783
254.33        116.3426
254.79          127.24
255.25        135.9457
255.70        140.9093
256.16        144.2973
256.62        146.2301
257.07         146.616
257.53        146.4229
257.99        145.0488
258.44        142.8523
258.90        141.8062
259.35        140.7553
259.81        139.8089
260.27          137.81
260.72         133.574
261.18        128.2064
261.63        121.9277
262.09        116.0713
262.55        111.0934
263.00        106.9557
263.46        103.7518
263.91        100.9492
264.37        98.67608
264.83        96.48595
265.28        94.21135
265.74        91.83273
266.19        88.91973
266.65        85.94918
267.11        83.11198
267.56         80.5488
268.02        78.48758
268.47        76.70219
268.93        75.12009
269.38        73.69959
269.84        72.60502
270.30        71.84474
270.75        71.38012
271.21        70.96439
271.66        70.19604
272.12        69.01237
272.57         67.5017
273.03        65.99254
273.48        64.86298
273.94        64.24274
274.39         63.9141
274.85        63.68266
275.31         63.1847
275.76        62.31213
276.22        61.25375
276.67        60.07866
277.13        59.06474
277.58         58.1939
278.04        57.46873
278.49         56.7586
278.95        56.04512
279.40        55.23376
279.86        54.43472
280.31        53.60973
280.77        52.88396
281.22        52.21098
281.68        51.63272
282.13        51.07988
282.59        50.56779
283.04        50.05157
283.50        49.59023
283.95        49.15397
284.41        48.76862
284.86        48.41156
285.32        48.10682
285.77        47.85327
286.22         47.7474
286.68        47.77451
287.13        47.84887
287.59        47.88925
288.04        47.72243
288.50        47.36499
288.95        46.83613
289.41        46.25487
289.86        45.64574
290.32        45.12377
290.77        44.66377
291.22        44.35937
291.68        44.29915
292.13        44.49042
292.59        44.92316
293.04        45.53637
293.50        46.24152
293.95        46.98116
294.40        47.74899
294.86        48.53949
295.31        49.34925
295.77        50.19262
296.22        51.06556
296.68        51.95713
297.13        52.82475
297.58        53.67395
298.04         54.5294
298.49        55.45785
298.95        56.62297
299.40        58.02654
299.85        59.61685
300.31        61.23935
300.76        62.64297
301.21        63.74858
301.67        64.66725
302.12        65.46079
302.58        66.35473
303.03        67.36005
303.48        68.45007
303.94        69.64486
304.39        70.89825
304.84        72.21101
305.30        73.59953
305.75        74.95255
306.20        76.13772
306.66        77.15872
307.11        77.99453
307.57        78.80352
308.02        79.68433
308.47        80.72313
308.93        81.89433
309.38        83.09586
309.83        84.22795
310.29        85.25049
310.74        86.15262
311.19        87.00452
311.65        87.91123
312.10        88.87738
312.55        89.88409
313.00        90.79676
313.46         91.4095
313.91         91.6721
314.36         91.6677
314.82        91.63339
315.27        91.87287
315.72        92.49203
316.18        93.40533
316.63        94.41544
317.08        95.15004
317.53        95.50214
317.99          95.557
318.44        95.55338
318.89        95.88528
319.35        96.61089
319.80        97.63364
320.25          98.614
320.70        98.99676
321.16        98.66999
321.61        97.82999
322.06        96.87393
322.51        96.41839
322.97        96.59186
323.42        97.25163
323.87        98.09351
324.32        98.59238
324.78        98.58041
325.23        98.26595
325.68        97.84133
326.13        97.64758
326.59        97.76449
327.04        98.09926
327.49        98.55037
327.94        98.99482
328.39        99.37421
328.85        99.72065
329.30         100.062
329.75        100.2583
330.20        100.3219
330.66        100.2772
331.11        100.3279
331.56        100.7282
332.01        101.5502
332.46        102.7008
332.92        104.0043
333.37        105.3361
333.82        106.4887
334.27        107.4759
334.72        108.1855
335.17        108.4649
335.63        108.3256
336.08        107.8872
336.53        107.3616
336.98        107.1418
337.43         107.348
337.88        107.8821
338.34        108.6719
338.79        109.6733
339.24        110.7697
339.69         111.996
340.14        113.0965
340.59        113.6318
341.05        113.5324
341.50        112.8986
341.95        112.1629
342.40        112.0044
342.85        112.5675
343.30        113.6783
343.75        114.9452
344.20        115.6686
344.66        115.6704
345.11        115.1591
345.56        114.4919
346.01        114.2043
346.46        114.4287
346.91        114.9753
347.36        115.6129
347.81        115.9982
348.26        116.0406
348.72        115.8817
349.17        115.6357
349.62        115.5257
350.07        115.6112
350.52        115.7976
350.97        116.0046
351.42        116.1245
351.87        116.1224
352.32        116.0458
352.77        115.9017
353.22        115.6934
353.67        115.4347
354.13        115.1309
354.58        114.7979
355.03        114.5302
355.48        114.3338
355.93        114.1785
356.38        113.9888
356.83        113.6421
357.28        113.1102
357.73        112.4355
358.18        111.6779
358.63        110.9312
359.08        110.2364
359.53        109.5828
359.98        108.9562
360.43        108.3308
360.88        107.6917
361.33        107.0356
361.78        106.3905
362.23        105.7998
362.68        105.2683
363.13        104.7903
363.58        104.2757
364.03        103.5814
364.48        102.6933
364.93        101.6608
365.38        100.6377
365.83        99.87524
366.28        99.41756
366.73        99.16673
367.18        98.97155
367.63        98.58397
368.08        97.94308
368.53        97.15881
368.98        96.28519
369.43        95.39278
369.88        94.52613
370.33        93.65339
370.78        92.88463
371.23        92.41251
371.68        92.25824
372.13        92.36649
372.58        92.53545
373.03        92.41242
373.48        91.91476
373.93        91.16038
374.38        90.32402
374.83        89.67482
375.28        89.28726
375.72        89.06023
376.17        88.95194
376.62         88.8746
377.07        88.76949
377.52        88.64082
377.97        88.44382
378.42        88.10266
378.87        87.61747
379.32        87.03544
379.77        86.37327
380.22        85.65411
380.67        84.89615
381.11         84.0911
381.56        83.35439
382.01         82.8773
382.46        82.70163
382.91        82.80353
383.36        82.95183
383.81        82.77084
384.26        82.19352
384.71        81.31752
385.15         80.4409
385.60        80.09019
386.05        80.29392
386.50        80.87199
386.95        81.44415
387.40         81.3752
387.85        80.57808
388.29        79.31918
388.74        78.07981
389.19        77.20596
389.64        76.76573
390.09          76.582
390.54        76.62666
390.98         76.8541
391.43        77.18562
391.88        77.61192
392.33        77.90938
392.78        77.68682
393.23        76.94941
393.67        75.96802
394.12        75.11386
394.57        74.36529
395.02         73.9547
395.47        74.47248
395.91        75.70407
396.36        76.46544
396.81        76.55688
397.26         76.5055
397.71        76.36504
398.15        75.93488
398.60        75.36332
399.05        74.78559
399.50        74.26725
399.95         73.5373
400.39        73.03203
400.84         72.8625
401.29        73.05611
401.74        73.21338
402.18        73.25515
402.63        73.19294
403.08         73.1416
403.53        73.31982
403.97        73.72469
404.42        74.18265
404.87          74.507
405.32          74.401
405.76        73.81619
406.21        73.06575
406.66        72.31634
407.11         71.6034
407.55        71.16801
408.00        71.30508
408.45        71.92188
408.90        72.75629
409.34        73.36021
409.79        72.85556
410.24        71.58131
410.68        70.97112
411.13        71.15425
411.58        71.29971
412.03        71.37474
412.47        71.71889
412.92        72.24432
413.37        72.87691
413.81        73.40823
414.26        73.56279
414.71        73.27687
415.15        72.62966
415.60        71.85894
416.05        71.36866
416.49        71.27776
416.94        71.50539
417.39        71.82209
417.83        71.81156
418.28        71.40057
418.73        70.74638
419.17        70.14262
419.62        70.04963
420.07        70.50974
420.51        71.34588
420.96        72.25908
421.41         72.6937
421.85        72.48466
422.30        72.08782
422.74        71.61273
423.19        70.94624
423.64        70.31474
424.08        70.55061
424.53        71.49884
424.98        72.06753
425.42        72.10854
425.87        72.42152
426.31        72.95736
426.76          72.814
427.21        72.27047
427.65        72.62339
428.10        73.71914
428.54        74.54093
428.99        75.01702
429.44         75.0034
429.88         74.6953
430.33        75.71297
430.77        77.19296
431.22         76.0405
431.66        72.90103
432.11          71.119
432.56        71.15895
433.00        72.14054
433.45        73.90155
433.89        76.25519
434.34        77.44209
434.78        78.95384
435.23        74.42361
435.67         71.7382
436.12        74.62027
436.57        75.78029
437.01        76.27792
437.46        76.59829
437.90        76.97832
438.35        76.08108
438.79        76.94032
439.24         76.7757
439.68         76.5065
440.13        76.08782
440.57        75.88486
441.02        76.66336
441.46        78.03883
441.91        79.13229
442.35        79.50782
442.80         78.4322
443.24        76.57458
443.69        77.27357
444.13        80.02015
444.58        80.27193
445.02        78.22449
445.47         77.8238
445.91        79.02332
446.36        79.35255
446.80        78.75534
447.24         78.5015
447.69        78.66924
448.13        78.82399
448.58        79.00534
449.02         79.3988
449.47        79.89802
449.91        80.21122
450.36        80.29158
450.80        80.24711
451.25        80.11298
451.69        79.86948
452.13        79.57375
452.58        79.26198
453.02        79.00732
453.47        78.95052
453.91        79.08916
454.36        79.40207
454.80        79.78256
455.24         79.8721
455.69        79.61589
456.13        79.37797
456.58        79.33099
457.02         78.5826
457.46        78.46164
457.91        78.85857
458.35        79.80295
458.79        80.19665
459.24        80.02035
459.68        79.62547
460.13        79.04216
460.57        78.81392
461.01        78.98592
461.46        77.57497
461.90        77.18121
462.34        78.37757
462.79        77.51539
463.23        77.85373
463.68        78.27606
464.12        78.77457
464.56        79.23116
465.01        79.26611
465.45        78.89891
465.89        78.87313
466.34        78.94902
466.78        77.86133
467.22        76.30975
467.67        75.00691
468.11         76.8271
468.55        77.61051
468.99          77.782
469.44        77.43934
469.88        76.80177
470.32        76.72401
470.77        77.13403
471.21        77.11551
471.65        76.63016
472.10        76.38246
472.54        76.44128
472.98        76.52174
473.42        76.59421
473.87        76.96742
474.31        77.40981
474.75        77.09438
475.20        76.23907
475.64        76.02667
476.08        76.49364
476.52        76.48273
476.97        75.93726
477.41        75.99745
477.85          76.769
478.29        75.59179
478.74        77.01639
479.18        76.86815
479.62        75.77067
480.06        76.34679
480.50        76.72548
480.95        77.30789
481.39        77.36938
481.83        76.20659
482.27        76.45984
482.72        76.30032
483.16        74.81113
483.60        75.06377
484.04        76.59895
484.48        76.93437
484.93        76.53757
485.37        78.39781
485.81        79.37402
486.25        77.47337
486.69        106.3174
487.14        86.26904
487.58        53.19319
488.02        64.88751
488.46        73.76594
488.90        73.22685
489.34        75.03862
489.79        74.05859
490.23        76.40407
490.67        77.25561
491.11         76.0896
491.55        75.95751
491.99        76.42583
492.43        76.20042
492.88        75.39402
493.32        75.41538
493.76        75.69267
494.20        75.97381
494.64        75.96608
495.08        76.05045
495.52        76.24895
495.96        75.94554
496.41        75.26154
496.85        75.75896
497.29        77.04614
497.73        75.95763
498.17        73.55025
498.61        73.65752
499.05         76.3279
499.49        76.98048
499.93        77.17376
500.37        76.86272
500.82        75.99094
501.26        75.85446
501.70        76.25021
502.14        76.57751
502.58        76.61639
503.02        76.51073
503.46        76.23199
503.90        75.73135
504.34        75.19057
504.78        74.84449
505.22        74.80065
505.66        75.19167
506.10        75.82175
506.54        76.10986
506.98         75.9403
507.42        75.70557
507.86        75.36879
508.30        75.14039
508.74        75.31608
509.18        75.58398
509.62        75.89753
510.06        76.04208
510.50        75.96964
510.94        75.75404
511.38        75.50169
511.82        75.37872
512.26        75.42912
512.70        75.59361
513.14        75.80553
513.58        75.96313
514.02        76.02484
514.46        76.01419
514.90        75.95935
515.34        75.89671
515.78        75.83684
516.22           75.79
516.66        75.80186
517.10        75.65248
517.54        75.35828
517.98        75.43819
518.42        75.24915
518.86        75.37274
519.30        75.59337
519.74        75.99372
520.18        76.43554
520.62        76.54797
521.06        76.35894
521.50        76.25517
521.93        76.27694
522.37        76.20139
522.81        76.05939
523.25        76.01434
523.69        76.07738
524.13        76.17926
524.57        76.31116
525.01        76.48994
525.45        76.68192
525.89        76.82926
526.32        76.90325
526.76         76.9054
527.20        76.84457
527.64        76.76358
528.08        76.69694
528.52        76.57717
528.96        76.37493
529.40        76.26627
529.83        76.29362
530.27        75.62286
530.71        75.80511
531.15        75.73575
531.59        75.87215
532.03        76.13026
532.46        76.46506
532.90        76.76762
533.34        76.97846
533.78        77.11948
534.22        77.17988
534.66        77.15715
535.09        77.04896
535.53        76.88524
535.97        76.68279
536.41        76.49512
536.85        76.34605
537.28        76.23378
537.72        76.15782
538.16        76.12527
538.60        76.13272
539.04        76.12041
539.47         76.0722
539.91        76.16666
540.35        76.31617
540.79        76.20924
541.22        75.90688
541.66        75.81572
542.10        75.94936
542.54        76.07542
542.97        76.16871
543.41        76.31017
543.85        76.47384
544.29        76.66736
544.72        76.77885
545.16        76.66795
545.60        76.31749
546.04        75.76821
546.47        75.25199
546.91        75.15975
547.35        75.53622
547.79        76.27734
548.22        77.04098
548.66        77.26105
549.10        76.85075
549.53        76.07084
549.97        75.26714
550.41        74.82829
550.84         74.8673
551.28        75.30458
551.72        75.94106
552.15        76.31203
552.59        76.29346
553.03        76.40276
553.46        76.06683
553.90        76.01046
554.34        76.07848
554.77        76.11914
555.21        76.11084
555.65        76.25159
556.08         76.5639
556.52        76.17004
556.96        76.74859
557.39        76.42918
557.83        75.88784
558.27         75.6923
558.70        75.89778
559.14        76.07506
559.57        76.18064
560.01        76.48162
560.45        76.87835
560.88        77.05901
561.32        76.98862
561.75        76.78564
562.19        76.53732
562.63        76.00121
563.06        75.40624
563.50        75.52158
563.93        76.19387
564.37        76.58641
564.80        76.55781
565.24        76.46634
565.68        76.36227
566.11        76.25911
566.55        76.35063
566.98        76.30244
567.42        76.17247
567.85        76.46584
568.29        77.11223
568.72        76.98286
569.16        76.29165
569.60        77.18987
570.03        77.46651
570.47        77.70499
570.90        77.20487
571.34        76.00712
571.77        76.61629
572.21        77.22544
572.64         76.4959
573.08        75.55102
573.51        71.95787
573.95        74.78397
574.38        79.68253
574.82        77.63872
