SpectraSmart Spectrum 2.9.0.0
--------- Device Information -----------
Spectrum Name :  反射率_0
Saving Time :  2024/04/26 01:25:34
Spectro-Module Model Name : SE2030-DUVN
Spectro-Module Serial Number : OS361AC55029948
Wavelength Start : 200
Wavelength End : 1025
Wavelength Unit : Wavelength(nm)
Spectrum Unit : Reflectance(%)
-----------Spectrum Setting ------------
Integration Time : 20ms
Average : 10
Boxcar : 0
Background removal :  enabled
linearity correction :  enabled
SC :  disabled
Intensity correction :  disabled
DWT denoise :  enabled
savitzky-golay :  disabled
FFT :  disabled
Running average :  disabled
Kalman :  disabled
High pass :  disabled
---------------BEGIN--------------------
Wavelength(nm)             Reflectance(%)
200.29               0
200.75        89.97858
201.21        81.82948
201.67        72.21835
202.13        66.16326
202.58         64.4025
203.04        65.82329
203.50        69.15765
203.96        72.15395
204.42        73.80302
204.88        74.63224
205.34         75.3975
205.80        77.18978
206.26        80.86338
206.72        88.10029
207.18        100.7234
207.64        108.3251
208.10        95.05724
208.55        76.29796
209.01        65.55601
209.47        62.12186
209.93        62.71059
210.39        66.15897
210.85        70.36581
211.31        70.87271
211.77        66.46425
212.23        58.86448
212.69        51.72232
213.14         50.7723
213.60        56.76073
214.06        67.86328
214.52        80.25272
214.98        88.12588
215.44        89.78809
215.90        87.00381
216.36        81.91322
216.81        77.41602
217.27        74.80426
217.73        73.30003
218.19        71.62252
218.65         67.8867
219.11         61.1083
219.57        50.36364
220.02        37.00217
220.48        29.29844
220.94        31.86522
221.40        42.72744
221.86        53.14332
222.32        53.97644
222.77        46.37728
223.23        35.31303
223.69        26.13287
224.15        24.31096
224.61        29.15177
225.06        37.80893
225.52        46.33646
225.98         49.6872
226.44        47.01437
226.90        40.59101
227.36        33.16596
227.81        28.41931
228.27          27.499
228.73        28.92619
229.19        31.60821
229.65        33.94889
230.10        35.34638
230.56        36.30236
231.02        36.92339
231.48        37.23632
231.93        37.31376
232.39        37.08274
232.85        36.66343
233.31        36.34576
233.77        36.18136
234.22        36.09613
234.68        36.02633
235.14        35.74733
235.60        35.23331
236.05         34.6524
236.51        34.07822
236.97        33.50418
237.43        32.99063
237.88        32.62302
238.34        32.64964
238.80        33.66453
239.26        35.84547
239.71        38.95675
240.17        42.56312
240.63        46.34708
241.08         50.0354
241.54         53.4005
242.00        56.04106
242.46        57.67358
242.91        58.48154
243.37        57.94071
243.83        56.41296
244.28        64.03591
244.74        97.21608
245.20        109.6629
245.66         106.032
246.11          103.91
246.57        103.7989
247.03        105.2715
247.48        104.1552
247.94        81.70451
248.40         77.2478
248.85        78.28703
249.31        80.26015
249.77        83.08141
250.22        87.25188
250.68        93.85909
251.14        102.4711
251.59        106.3177
252.05        99.76751
252.51        86.62624
252.96          73.611
253.42        66.57034
253.88        64.70944
254.33        65.89317
254.79        69.38582
255.25         73.4958
255.70        77.04028
256.16        80.32352
256.62        81.94413
257.07        80.44477
257.53        76.66938
257.99        71.12694
258.44        65.57993
258.90        62.96703
259.35        62.44064
259.81        62.88604
260.27         62.4416
260.72        59.31128
261.18        54.22986
261.63        48.06925
262.09        42.45002
262.55        38.63748
263.00        36.60632
263.46        35.77879
263.91        35.22371
264.37        34.13448
264.83         32.3586
265.28        30.10704
265.74        28.02581
266.19        26.87982
266.65        26.81586
267.11        27.36193
267.56        27.89772
268.02        27.68127
268.47        26.60892
268.93        24.93735
269.38        23.01833
269.84        21.67982
270.30        21.16323
270.75        21.25985
271.21        21.57278
271.66        21.51237
272.12        20.92286
272.57        20.00612
273.03         19.1122
273.48        18.68485
273.94        18.81906
274.39        19.30091
274.85        19.79756
275.31        19.84268
275.76        19.34059
276.22         18.4775
276.67        17.53069
277.13        16.96854
277.58        16.84099
278.04        17.00819
278.49        17.19063
278.95        17.03047
279.40        16.46258
279.86        15.67584
280.31        14.87151
280.77          14.431
281.22        14.38675
281.68        14.60158
282.13        14.89785
282.59        15.04462
283.04        14.98747
283.50        14.83336
283.95        14.61769
284.41          14.395
284.86        14.19651
285.32        14.00429
285.77        13.89124
286.22        14.02167
286.68        14.37908
287.13        14.89258
287.59         15.3763
288.04        15.55451
288.50         15.3982
288.95        14.99181
289.41         14.5209
289.86        14.17791
290.32        14.06976
290.77        14.13118
291.22        14.34385
291.68        14.64199
292.13        15.01078
292.59        15.47605
293.04         16.0515
293.50        16.74693
293.95        17.54337
294.40        18.39972
294.86        19.26656
295.31         20.0904
295.77        20.86942
296.22        21.63037
296.68        22.40347
297.13        23.20446
297.58        24.06192
298.04        24.98664
298.49        26.01852
298.95        27.25942
299.40        28.71242
299.85        30.34515
300.31        32.05452
300.76         33.6751
301.21        35.13457
301.67          36.491
302.12        37.76085
302.58        39.05584
303.03        40.38807
303.48         41.7428
303.94        43.17629
304.39        44.72508
304.84        46.39243
305.30        48.15997
305.75        49.88603
306.20        51.36943
306.66        52.59031
307.11        53.56934
307.57        54.47461
308.02        55.46329
308.47        56.62251
308.93        57.90294
309.38        59.21226
309.83        60.44697
310.29        61.55612
310.74        62.54298
311.19        63.43776
311.65          64.288
312.10        65.09869
312.55        65.86182
313.00        66.51523
313.46        66.96829
313.91        67.20252
314.36        67.27921
314.82        67.34145
315.27        67.56413
315.72        68.01627
316.18        68.64523
316.63        69.35887
317.08        69.96507
317.53        70.39241
317.99         70.6703
318.44        70.88654
318.89        71.19299
319.35        71.60906
319.80        72.11465
320.25        72.55222
320.70        72.67152
321.16        72.44016
321.61        71.95038
322.06        71.44668
322.51         71.3085
322.97        71.59568
323.42        72.22123
323.87        72.93603
324.32        73.30972
324.78        73.21355
325.23        72.80561
325.68        72.27361
326.13        71.94973
326.59        71.92259
327.04        72.11989
327.49        72.44446
327.94        72.75775
328.39         73.0026
328.85        73.21246
329.30        73.44035
329.75        73.63822
330.20        73.81766
330.66        73.96506
331.11        74.16235
331.56        74.48436
332.01        74.95932
332.46        75.55119
332.92         76.2108
333.37        76.98535
333.82        77.78306
334.27        78.58973
334.72        79.27304
335.17        79.62732
335.63        79.61924
336.08        79.34633
336.53        78.99581
336.98        78.90656
337.43        79.17482
337.88        79.71391
338.34        80.39069
338.79         81.0575
339.24        81.60917
339.69        82.10681
340.14        82.52263
340.59        82.80209
341.05        82.95166
341.50        82.96992
341.95        82.96406
342.40        83.12334
342.85         83.4912
343.30         84.0232
343.75        84.61452
344.20        85.06952
344.66        85.32683
345.11        85.41164
345.56         85.3942
346.01        85.38192
346.46         85.4156
346.91        85.47723
347.36        85.52387
347.81        85.49219
348.26        85.38615
348.72        85.25783
349.17        85.17741
349.62        85.30799
350.07        85.66516
350.52         86.1749
350.97        86.70072
351.42        87.04156
351.87        87.14629
352.32        87.07413
352.77        86.89204
353.22        86.71285
353.67        86.58001
354.13        86.47272
354.58        86.37038
355.03        86.29403
355.48        86.23737
355.93        86.20434
356.38         86.1543
356.83        86.01659
357.28        85.77027
357.73        85.42194
358.18        85.01302
358.63        84.61407
359.08        84.24728
359.53        83.90855
359.98        83.54764
360.43         83.0819
360.88        82.50354
361.33        81.84086
361.78        81.19955
362.23        80.74812
362.68        80.51577
363.13        80.44621
363.58         80.3935
364.03        80.12817
364.48        79.59768
364.93        78.87023
365.38         78.0784
365.83        77.43996
366.28        77.01189
366.73        76.72294
367.18        76.48191
367.63        76.14156
368.08        75.66997
368.53        75.14201
368.98        74.60598
369.43        74.12045
369.88        73.70631
370.33         73.3294
370.78        73.01131
371.23        72.79948
371.68        72.68459
372.13        72.64289
372.58        72.59293
373.03        72.39535
373.48        72.02763
373.93        71.55322
374.38         71.0411
374.83        70.59281
375.28        70.24451
375.72         69.9521
376.17         69.7603
376.62        69.71059
377.07         69.7804
377.52        69.93143
377.97        70.04333
378.42        69.92599
378.87        69.54675
379.32        68.98189
379.77        68.32504
380.22        67.71061
380.67        67.18011
381.11        66.69885
381.56        66.28421
382.01        65.96855
382.46        65.75874
382.91        65.67103
383.36        65.62129
383.81        65.46766
384.26        65.18031
384.71        64.77548
385.15         64.3625
385.60        64.17469
386.05        64.20181
386.50        64.36439
386.95        64.47242
387.40        64.21656
387.85         63.5834
388.29          62.715
388.74        61.90529
389.19        61.32648
389.64        61.00826
390.09        60.84505
390.54        60.83959
390.98        60.99329
391.43        61.26118
391.88        61.61766
392.33        61.87134
392.78        61.71262
393.23        61.14517
393.67        60.34401
394.12        59.62801
394.57        59.10593
395.02        58.92052
395.47        59.31644
395.91        60.14408
396.36        60.71193
396.81        60.87581
397.26        60.89468
397.71        60.81664
398.15         60.5428
398.60        60.17828
399.05         59.8444
399.50        59.52409
399.95        58.83036
400.39        58.14725
400.84        57.75436
401.29        57.73515
401.74        57.77494
402.18        57.81964
402.63        57.83235
403.08         57.8854
403.53         58.1661
403.97        58.65575
404.42        59.18101
404.87        59.55593
405.32         59.5432
405.76        59.09999
406.21        58.38422
406.66        57.61076
407.11        57.10917
407.55        57.00159
408.00        57.11154
408.45        57.35965
408.90          57.848
409.34        58.29578
409.79        57.96905
410.24        57.11076
410.68        56.75975
411.13        57.00321
411.58        57.25922
412.03        57.46468
412.47         57.7763
412.92        58.10692
413.37        58.43123
413.81        58.65408
414.26        58.66703
414.71        58.44668
415.15        58.03135
415.60        57.55052
416.05        57.23112
416.49         57.1422
416.94        57.24691
417.39        57.41664
417.83        57.41212
418.28        57.19057
418.73        56.83152
419.17        56.50497
419.62        56.48421
420.07        56.79132
420.51        57.32708
420.96        57.88945
421.41        58.11541
421.85        57.89986
422.30        57.52738
422.74        57.11374
423.19         56.7102
423.64        56.44911
424.08        56.77764
424.53        57.51418
424.98        57.92649
425.42        57.90774
425.87        57.88136
426.31        57.94282
426.76        57.92997
427.21         57.9682
427.65        58.36245
428.10        59.00924
428.54        59.64452
428.99        60.21141
429.44        60.44773
429.88        60.37152
430.33          60.861
430.77        61.44008
431.22        60.41522
431.66        58.28712
432.11        57.21872
432.56        57.45057
433.00        58.27716
433.45        59.49289
433.89        60.98642
434.34        61.70535
434.78        62.71823
435.23        59.94184
435.67         58.6876
436.12        59.91737
436.57        60.76047
437.01        61.44955
437.46         61.8032
437.90        61.97133
438.35        61.55821
438.79        62.32736
439.24        62.36192
439.68        62.20884
440.13         61.8075
440.57         61.5027
441.02        62.25742
441.46        63.69691
441.91        64.45554
442.35        64.31108
442.80        63.49471
443.24        62.42867
443.69        62.97829
444.13        64.76059
444.58        64.78848
445.02          63.251
445.47        62.97935
445.91        63.93111
446.36        64.24766
446.80         63.8758
447.24        63.80935
447.69        64.03899
448.13        64.27053
448.58        64.48767
449.02        64.73852
449.47        64.98797
449.91        65.19347
450.36        65.34389
450.80        65.42757
451.25        65.45575
451.69        65.42102
452.13        65.35139
452.58        65.25912
453.02        65.18265
453.47        65.21677
453.91        65.35246
454.36        65.55885
454.80        65.77552
455.24        65.79823
455.69        65.60214
456.13        65.43522
456.58        65.34985
457.02         64.8464
457.46        64.21696
457.91        64.50468
458.35        65.45728
458.79        65.79688
459.24        65.47472
459.68        65.11352
460.13        64.80442
460.57         64.5666
461.01        64.52961
461.46        64.03814
461.90        63.64289
462.34        64.46503
462.79         64.1532
463.23        64.43562
463.68        64.87682
464.12        65.10986
464.56        65.18856
465.01        65.07838
465.45        64.78148
465.89        64.70753
466.34        64.69622
466.78        63.81155
467.22        62.59452
467.67        61.91894
468.11        63.49755
468.55        64.13036
468.99        64.05389
469.44        63.74036
469.88        63.39521
470.32        63.51314
470.77        63.99589
471.21        64.09824
471.65        63.76794
472.10         63.5921
472.54        63.63475
472.98           63.67
473.42         63.6841
473.87        63.93975
474.31        64.26929
474.75        64.00887
475.20        63.36032
475.64        63.31081
476.08        63.79618
476.52        63.91679
476.97        63.65509
477.41        63.51236
477.85           63.56
478.29         63.7156
478.74        64.17569
479.18        64.29368
479.62        63.59229
480.06        64.15614
480.50        64.42484
480.95        64.73418
481.39        64.73957
481.83        63.64896
482.27        63.83908
482.72        63.73745
483.16        62.45667
483.60        62.77234
484.04        64.22174
484.48        64.66238
484.93        64.43074
485.37        66.06922
485.81        66.35326
486.25        65.01994
486.69        88.11983
487.14        71.46879
487.58        44.56378
488.02        55.37115
488.46        62.18543
488.90        62.38012
489.34        63.60124
489.79         62.7056
490.23        64.89076
490.67        65.70646
491.11        64.84314
491.55        64.80265
491.99        65.24768
492.43        65.13932
492.88        64.57093
493.32        64.67239
493.76        64.93208
494.20        65.21498
494.64        65.28697
495.08        65.29505
495.52        65.35403
495.96        65.43589
496.41        65.48702
496.85        66.04469
497.29        66.80991
497.73        65.72532
498.17        63.76544
498.61        64.00928
499.05        66.44122
499.49         66.9629
499.93        66.98062
500.37        66.69114
500.82        66.06954
501.26        66.19707
501.70        66.79822
502.14        67.07982
502.58        66.83139
503.02        66.65802
503.46        66.55002
503.90        66.08817
504.34        65.59364
504.78        65.37608
505.22        65.54114
505.66          65.964
506.10        66.45987
506.54        66.71084
506.98        66.62805
507.42        66.31862
507.86        65.95168
508.30        65.78403
508.74        65.88084
509.18         66.1546
509.62        66.48838
510.06        66.69664
510.50        66.72614
510.94        66.64677
511.38        66.53065
511.82        66.48244
512.26        66.53328
512.70        66.63814
513.14        66.76578
513.58        66.87434
514.02         66.9391
514.46        66.97186
514.90         66.9716
515.34        66.91596
515.78        66.79836
516.22        66.69801
516.66        66.63313
517.10        66.44398
517.54        66.14139
517.98        66.41532
518.42        66.30145
518.86        66.50017
519.30        66.70655
519.74        66.98838
520.18        67.27107
520.62        67.42439
521.06        67.43273
521.50        67.32922
521.93        67.16869
522.37        67.04504
522.81        66.99636
523.25        66.99718
523.69         67.0499
524.13        67.15662
524.57        67.30531
525.01        67.49355
525.45        67.67595
525.89        67.77694
526.32        67.77125
526.76        67.67493
527.20        67.52551
527.64        67.40826
528.08        67.36311
528.52        67.30486
528.96        67.18694
529.40        67.14932
529.83        67.20724
530.27        66.59441
530.71        66.68369
531.15        66.54874
531.59        66.60081
532.03        66.74249
532.46        66.95081
532.90        67.17145
533.34        67.35969
533.78        67.52563
534.22        67.64104
534.66        67.67354
535.09        67.61041
535.53        67.48197
535.97        67.31303
536.41        67.16644
536.85        67.06785
537.28          67.014
537.72        66.98638
538.16        66.96422
538.60         66.9414
539.04        66.86974
539.47         66.7726
539.91        66.87414
540.35        67.10561
540.79        67.15193
541.22        66.99753
541.66        67.00372
542.10        66.98828
542.54         66.9287
542.97        66.82604
543.41        66.87431
543.85        67.07895
544.29        67.41144
544.72        67.71914
545.16        67.78951
545.60        67.57752
546.04         67.1375
546.47        66.70082
546.91        66.65399
547.35        67.04543
547.79         67.7739
548.22        68.50307
548.66        68.66974
549.10        68.20273
549.53        67.38766
549.97        66.58453
550.41        66.17905
550.84        66.27112
551.28        66.82472
551.72        67.63533
552.15        68.03148
552.59        67.98679
553.03        68.33692
553.46        67.84529
553.90        67.75297
554.34        67.69819
554.77        67.68125
555.21        67.74052
555.65        67.51612
556.08        68.21786
556.52        67.80421
556.96        68.17465
557.39        68.05518
557.83        67.95745
558.27        67.81751
558.70        67.71996
559.14         67.7921
559.57        68.02014
560.01        68.39803
560.45        68.77549
560.88        68.91174
561.32         68.7896
561.75         68.4317
562.19        68.01335
562.63         67.7061
563.06        67.57478
563.50        67.65148
563.93        67.84047
564.37        67.96961
564.80        67.97369
565.24        67.94463
565.68        67.90118
566.11        67.87658
566.55        67.92603
566.98        67.98135
567.42        68.05253
567.85        68.22308
568.29        68.49838
568.72        68.53369
569.16        68.50204
569.60        68.88765
570.03        69.37683
570.47         69.3079
570.90        68.95339
571.34        67.40568
571.77        68.30605
572.21        68.08607
572.64        67.86486
573.08        66.81858
573.51        64.07048
573.95        66.43643
574.38        70.35396
574.82        68.88854
