SpectraSmart Spectrum 2.9.0.0
--------- Device Information -----------
Spectrum Name :  反射率_0
Saving Time :  2024/04/26 01:31:22
Spectro-Module Model Name : SE2030-DUVN
Spectro-Module Serial Number : OS361AC55029948
Wavelength Start : 200
Wavelength End : 1025
Wavelength Unit : Wavelength(nm)
Spectrum Unit : Reflectance(%)
-----------Spectrum Setting ------------
Integration Time : 20ms
Average : 10
Boxcar : 0
Background removal :  enabled
linearity correction :  enabled
SC :  disabled
Intensity correction :  disabled
DWT denoise :  enabled
savitzky-golay :  disabled
FFT :  disabled
Running average :  disabled
Kalman :  disabled
High pass :  disabled
---------------BEGIN--------------------
Wavelength(nm)             Reflectance(%)
200.29               0
200.75        90.60176
201.21        84.05838
201.67        75.98331
202.13        71.03139
202.58        69.91182
203.04        71.49607
203.50        74.50188
203.96        76.78743
204.42        77.53722
204.88         77.4393
205.34        77.28501
205.80        77.97796
206.26        80.05795
206.72        84.54757
207.18        92.39013
207.64        96.19402
208.10         86.3403
208.55        73.90693
209.01        67.49773
209.47        66.55969
209.93        68.98667
210.39        74.11716
210.85        80.36043
211.31        83.79118
211.77        82.84181
212.23        78.71542
212.69        74.27986
213.14        74.17485
213.60        78.91419
214.06        87.05904
214.52        95.24822
214.98        98.48521
215.44        95.80976
215.90        89.19128
216.36        81.54198
216.81        76.82071
217.27        76.08315
217.73        77.77242
218.19        79.65999
218.65        78.85019
219.11        74.22612
219.57        65.20763
220.02         52.7697
220.48        44.09059
220.94        43.65019
221.40        50.19507
221.86        56.86579
222.32        56.19444
222.77        48.96074
223.23        39.23918
223.69        31.49508
224.15        30.29929
224.61        34.92516
225.06        42.95375
225.52        50.56371
225.98        52.85455
226.44        49.14901
226.90        41.70234
227.36        33.61109
227.81        29.06888
228.27        29.23093
228.73         32.3883
229.19        36.92628
229.65        40.44323
230.10        42.15154
230.56        42.85577
231.02        42.98909
231.48        42.96753
231.93        42.94039
232.39        42.74028
232.85        42.38105
233.31        42.00886
233.77         41.6529
234.22        41.31216
234.68        41.07275
235.14        40.96481
235.60        41.01258
236.05        41.27229
236.51        41.57398
236.97        41.62098
237.43        41.39652
237.88        40.98847
238.34        40.75892
238.80        41.71619
239.26         44.2305
239.71        48.07988
240.17        52.30303
240.63         55.6755
241.08        57.82509
241.54        58.90512
242.00        59.46328
242.46        60.50242
242.91        62.97089
243.37        68.16177
243.83        83.73204
244.28        135.7042
244.74        197.8413
245.20        168.0578
245.66        138.1178
246.11        128.4307
246.57        129.4748
247.03        141.2767
247.48        173.0542
247.94        133.8175
248.40        93.79856
248.85        84.44716
249.31        83.02204
249.77        84.29939
250.22        87.50952
250.68        93.36755
251.14        101.9189
251.59        108.0856
252.05        106.5524
252.51        99.29428
252.96        91.18928
253.42        87.63222
253.88        88.16103
254.33        90.68875
254.79        94.32747
255.25        97.28024
255.70        98.78571
256.16        99.78821
256.62        99.61183
257.07        97.41767
257.53        93.94749
257.99        89.25191
258.44        84.41493
258.90        81.76903
259.35        80.42986
259.81        79.75883
260.27        78.26854
260.72        74.49118
261.18         69.1927
261.63        62.99513
262.09        57.31374
262.55        53.09457
263.00         50.3449
263.46        48.72049
263.91        47.47445
264.37        46.08848
264.83        44.33402
265.28        42.27062
265.74        40.34388
266.19        38.97988
266.65        38.35766
267.11        38.18154
267.56        37.99284
268.02        37.24049
268.47        35.80925
268.93        33.89549
269.38        31.81898
269.84        30.37075
270.30        29.77833
270.75        29.84031
271.21        30.15128
271.66        30.09701
272.12        29.50632
272.57        28.56002
273.03         27.5866
273.48         26.9952
273.94         26.8909
274.39        27.07727
274.85        27.26262
275.31        27.02585
275.76        26.28952
276.22        25.24089
276.67        24.15851
277.13         23.5265
277.58         23.3758
278.04        23.56028
278.49         23.7596
278.95        23.58052
279.40         22.9388
279.86        22.04211
280.31        21.09629
280.77        20.50951
281.22        20.32257
281.68        20.40806
282.13        20.59439
282.59        20.67227
283.04        20.58532
283.50        20.44592
283.95        20.27765
284.41        20.12436
284.86         20.0062
285.32        19.90515
285.77        19.88995
286.22        20.13052
286.68        20.60482
287.13        21.22387
287.59        21.78959
288.04        22.00025
288.50        21.82903
288.95        21.36599
289.41        20.81267
289.86        20.37193
290.32        20.16695
290.77        20.13307
291.22        20.26979
291.68        20.53084
292.13        20.90891
292.59        21.44056
293.04        22.12653
293.50        22.95623
293.95        23.90254
294.40         24.9204
294.86        25.99226
295.31        27.11317
295.77        28.28419
296.22        29.51435
296.68          30.754
297.13        31.89073
297.58         32.9261
298.04         33.9052
298.49        34.97409
298.95         36.4119
299.40        38.25141
299.85        40.40177
300.31        42.64293
300.76        44.61369
301.21        46.20319
301.67         47.5585
302.12        48.78382
302.58        50.14006
303.03        51.67043
303.48        53.31011
303.94        55.10404
304.39        57.06274
304.84        59.16757
305.30        61.40811
305.75        63.57126
306.20        65.35127
306.66         66.7208
307.11        67.72425
307.57        68.63412
308.02        69.74536
308.47        71.18639
308.93         72.8736
309.38         74.6377
309.83        76.25829
310.29        77.65578
310.74         78.8631
311.19         79.9741
311.65        81.13245
312.10        82.35801
312.55        83.60612
313.00        84.74253
313.46        85.56538
313.91        86.01868
314.36        86.19065
314.82        86.29362
315.27        86.59534
315.72        87.20269
316.18        88.04874
316.63         88.9883
317.08        89.73264
317.53        90.19778
317.99        90.45173
318.44        90.68234
318.89            91.2
319.35        92.04332
319.80        93.13445
320.25        94.18213
320.70        94.71156
321.16        94.62137
321.61        94.06961
322.06        93.39092
322.51        93.11269
322.97        93.34633
323.42        93.97991
323.87        94.75611
324.32        95.22884
324.78        95.25754
325.23        95.02532
325.68        94.70789
326.13        94.61544
326.59        94.81791
327.04        95.24001
327.49        95.76848
327.94        96.25793
328.39        96.64546
328.85        96.95456
329.30        97.25355
329.75        97.48171
330.20        97.66221
330.66        97.79915
331.11        98.00555
331.56        98.38866
332.01         98.9921
332.46         99.7668
332.92        100.6589
333.37        101.7578
333.82        102.9367
334.27        104.1635
334.72          105.22
335.17        105.7624
335.63        105.7318
336.08        105.2859
336.53        104.7105
336.98        104.5191
337.43        104.8603
337.88        105.5932
338.34        106.5587
338.79        107.5768
339.24        108.5057
339.69        109.4322
340.14        110.2269
340.59        110.6579
341.05        110.7126
341.50        110.4291
341.95        110.1075
342.40        110.2373
342.85        110.9154
343.30        112.0082
343.75        113.2174
344.20        114.0025
344.66        114.2143
345.11        113.9992
345.56        113.5852
346.01        113.3192
346.46        113.3132
346.91        113.4629
347.36        113.6853
347.81        113.8612
348.26        113.9557
348.72         114.038
349.17         114.127
349.62        114.2844
350.07        114.5114
350.52        114.7618
350.97        114.9752
351.42        115.0775
351.87        115.0493
352.32        114.9126
352.77        114.7021
353.22        114.4747
353.67        114.2514
354.13        114.0342
354.58        113.7824
355.03        113.4918
355.48        113.1565
355.93        112.7819
356.38        112.3758
356.83        111.9474
357.28        111.4954
357.73        111.0153
358.18        110.4893
358.63        109.8893
359.08        109.2212
359.53        108.5113
359.98         107.788
360.43        107.0924
360.88        106.4314
361.33        105.7792
361.78        105.1497
362.23        104.5661
362.68        104.0282
363.13        103.5442
363.58        103.0305
364.03        102.3496
364.48        101.4873
364.93        100.4833
365.38        99.49141
365.83        98.76522
366.28        98.34672
366.73        98.14107
367.18        97.97654
367.63        97.57217
368.08        96.86554
368.53        95.97621
368.98        95.00335
369.43        94.08834
369.88        93.28442
370.33        92.53452
370.78         91.8922
371.23        91.45383
371.68        91.21769
372.13        91.16431
372.58         91.1347
373.03        90.85192
373.48        90.26195
373.93        89.45379
374.38        88.60427
374.83        87.98701
375.28        87.65956
375.72        87.51472
376.17        87.45434
376.62        87.29494
377.07         86.9687
377.52         86.5239
377.97        85.98626
378.42        85.39748
378.87        84.79501
379.32         84.1868
379.77        83.58169
380.22          82.987
380.67         82.4012
381.11        81.82475
381.56        81.29978
382.01        80.89508
382.46        80.63142
382.91        80.51003
383.36        80.41915
383.81        80.18338
384.26         79.7705
384.71        79.20783
385.15        78.65466
385.60        78.43124
386.05        78.52351
386.50        78.81786
386.95           79.04
387.40        78.73951
387.85        77.88947
388.29        76.69841
388.74        75.56422
389.19        74.73711
389.64        74.26169
390.09        73.98798
390.54        73.93762
390.98        74.14637
391.43        74.55777
391.88        75.12828
392.33        75.55595
392.78        75.39181
393.23        74.63555
393.67         73.4474
394.12        72.30424
394.57        71.64919
395.02        71.57987
395.47        71.93012
395.91        72.54994
396.36        73.05673
396.81        73.31232
397.26        73.38419
397.71         73.2801
398.15        72.91579
398.60        72.40987
399.05        71.89896
399.50        71.43013
399.95         70.6337
400.39        69.97221
400.84        69.76589
401.29        70.03419
401.74        70.17277
402.18        70.10947
402.63        70.04312
403.08        70.08031
403.53        70.29581
403.97        70.68401
404.42        71.15123
404.87        71.48875
405.32        71.36054
405.76         70.7162
406.21        69.80965
406.66        68.90077
407.11        68.25433
407.55        68.04594
408.00        68.37648
408.45        69.07237
408.90        69.64152
409.34        69.81122
409.79        69.44223
410.24        68.74764
410.68        68.32782
411.13        68.27693
411.58        68.24271
412.03        68.23158
412.47        68.42396
412.92        68.75952
413.37        69.21545
413.81        69.62821
414.26        69.78586
414.71        69.62912
415.15        69.20671
415.60        68.68801
416.05        68.37124
416.49        68.34095
416.94        68.53619
417.39        68.76731
417.83        68.69463
418.28        68.27029
418.73        67.62965
419.17        67.04395
419.62        66.93765
420.07        67.34923
420.51        68.12149
420.96        68.97987
421.41        69.40562
421.85        69.24033
422.30        68.91044
422.74        68.50715
423.19        67.90202
423.64        67.30906
424.08        67.53931
424.53         68.4395
424.98        68.94846
425.42        68.92985
425.87        69.15382
426.31        69.57914
426.76        69.38483
427.21        68.81825
427.65        69.02612
428.10        69.91272
428.54        70.65765
428.99        71.11658
429.44         71.3154
429.88         71.2943
430.33        72.14459
430.77          73.197
431.22        72.14083
431.66        69.53621
432.11        68.17218
432.56        68.39823
433.00        69.14705
433.45        70.25994
433.89        72.28799
434.34        73.84297
434.78         74.6401
435.23        71.09939
435.67         69.2197
436.12        71.28928
436.57        72.48912
437.01        73.28061
437.46        73.59798
437.90        73.57674
438.35        73.21769
438.79        73.63743
439.24        73.55269
439.68        73.33182
440.13        72.87944
440.57        72.58989
441.02        73.58741
441.46        75.40521
441.91        76.45506
442.35        76.42143
442.80        75.37807
443.24        73.91895
443.69        74.64966
444.13        77.08569
444.58         77.2661
445.02        75.39334
445.47        75.07436
445.91        76.25421
446.36        76.60927
446.80        76.08121
447.24         75.8586
447.69        76.02004
448.13        76.21127
448.58        76.44262
449.02        76.75195
449.47        77.08143
449.91        77.35469
450.36        77.54366
450.80        77.63861
451.25        77.64394
451.69        77.54032
452.13        77.36168
452.58        77.12739
453.02        76.89762
453.47        76.81264
453.91        76.86785
454.36        77.01887
454.80        77.19232
455.24        77.14903
455.69        76.86358
456.13          76.615
456.58          76.454
457.02        75.83594
457.46        75.07217
457.91        75.25179
458.35        76.16061
458.79        76.53996
459.24        76.32456
459.68        76.16652
460.13        76.10461
460.57        75.80104
461.01        75.31741
461.46        74.73699
461.90        74.18729
462.34        73.95877
462.79        74.00338
463.23         74.3102
463.68        74.69726
464.12        75.00837
464.56        75.14946
465.01        75.08017
465.45        74.77643
465.89        74.71609
466.34        74.73214
466.78        73.84514
467.22         72.5623
467.67        71.81507
468.11        72.97225
468.55        73.55899
468.99        73.65772
469.44        73.27719
469.88        72.63975
470.32        72.64696
470.77        73.20014
471.21        73.28657
471.65        72.84349
472.10        72.58773
472.54        72.58467
472.98        72.57178
473.42        72.54623
473.87         72.7654
474.31        73.05696
474.75        72.81441
475.20        72.23418
475.64        72.07338
476.08        72.74564
476.52        72.82434
476.97        72.36648
477.41        72.58595
477.85        72.68625
478.29        72.30267
478.74        72.63934
479.18        72.65572
479.62        71.61185
480.06        72.17497
480.50        72.42754
480.95        72.88406
481.39        73.09498
481.83        71.85178
482.27        72.12064
482.72        71.94283
483.16        70.42607
483.60        70.69235
484.04        72.23318
484.48        72.66407
484.93        72.42221
485.37        74.10831
485.81        75.07232
486.25        73.43478
486.69        99.92784
487.14        81.06096
487.58        50.50197
488.02        61.77147
488.46        70.35791
488.90        69.28287
489.34        71.00812
489.79        69.83849
490.23        72.00331
490.67        72.77206
491.11        71.66428
491.55        71.70972
491.99        72.42602
492.43        72.26581
492.88        71.26197
493.32        71.40968
493.76        71.20972
494.20        71.45308
494.64        71.59346
495.08        71.92224
495.52        72.36179
495.96        72.29185
496.41        71.76117
496.85        72.06424
497.29        72.94567
497.73         71.8189
498.17        69.68045
498.61        69.86621
499.05        72.38363
499.49        72.91963
499.93        72.98773
500.37        72.78474
500.82        72.23574
501.26        72.17194
501.70        72.30487
502.14        72.99026
502.58        72.48827
503.02        72.39198
503.46        72.22716
503.90        71.84226
504.34        71.38332
504.78        71.19704
505.22        71.34466
505.66        71.72408
506.10        72.16982
506.54        72.30671
506.98        72.03854
507.42         71.6479
507.86        71.37382
508.30        70.69532
508.74        71.09888
509.18         71.3527
509.62        71.72526
510.06        71.93787
510.50        71.92964
510.94        71.76798
511.38        71.54445
511.82        71.43425
512.26        71.48047
512.70        71.62519
513.14        71.79973
513.58        71.90028
514.02         71.8922
514.46        71.80857
514.90        71.70644
515.34        71.65461
515.78        71.66252
516.22        71.76693
516.66         71.9129
517.10        71.85155
517.54        71.56435
517.98        71.67017
518.42        71.42152
518.86        71.50495
519.30        71.68649
519.74        72.00252
520.18        72.35503
520.62        72.54323
521.06        72.55129
521.50        72.51027
521.93        72.44444
522.37         72.3195
522.81        72.16882
523.25          72.031
523.69        71.95773
524.13        72.00933
524.57        72.18809
525.01        72.46761
525.45        72.76948
525.89        72.96297
526.32        73.00251
526.76        72.92081
527.20        72.74998
527.64        72.57808
528.08        72.45741
528.52        72.27458
528.96        72.02234
529.40        71.98237
529.83        72.15289
530.27        71.55171
530.71        71.65016
531.15         71.5675
531.59        71.73905
532.03        71.98013
532.46        72.26012
532.90        72.54979
533.34        72.79726
533.78         73.0009
534.22        73.12413
534.66        73.12532
535.09        72.99532
535.53        72.77764
535.97        72.51549
536.41         72.3008
536.85        72.16665
537.28         72.0993
537.72        72.07619
538.16        72.06738
538.60        72.06104
539.04        72.01411
539.47        71.92826
539.91        71.99789
540.35        72.14362
540.79        72.05582
541.22        71.78378
541.66        71.69933
542.10        71.81177
542.54        71.91326
542.97        71.96954
543.41        72.03888
543.85        72.10228
544.29        72.17569
544.72        72.19588
545.16        72.09701
545.60        71.86793
546.04          71.517
546.47         71.2084
546.91        71.22226
547.35        71.57832
547.79        72.21615
548.22        72.83741
548.66        72.93518
549.10        72.45621
549.53        71.66467
549.97        70.90553
550.41        70.54478
550.84        70.67574
551.28        71.26035
551.72        72.07612
552.15        72.50536
552.59        72.37985
553.03         72.6466
553.46        72.04803
553.90        71.91467
554.34        71.89856
554.77        71.93665
555.21        71.86256
555.65        71.93814
556.08        72.16346
556.52        71.64486
556.96        72.03865
557.39        71.88184
557.83        71.72407
558.27        71.64301
558.70        71.69385
559.14        71.82613
559.57        72.00747
560.01        72.31274
560.45        72.61266
560.88        72.67012
561.32         72.4951
561.75        72.12543
562.19        71.73634
562.63        71.49508
563.06        71.43954
563.50        71.54391
563.93        71.70571
564.37        71.80812
564.80        71.78538
565.24        71.68504
565.68        71.55121
566.11        71.48495
566.55        71.55023
566.98        71.66152
567.42        71.81134
567.85        72.02696
568.29         72.3091
568.72        72.39851
569.16        72.47002
569.60        72.85448
570.03        73.17815
570.47        73.22924
570.90        72.79011
571.34        71.04777
571.77        71.93171
572.21        72.35973
572.64        71.60302
573.08        70.86637
573.51        67.66859
573.95        70.49344
574.38        75.21767
574.82        72.98145
