SpectraSmart Spectrum 2.9.0.0
--------- Device Information -----------
Spectrum Name :  反射率_0
Saving Time :  2024/04/26 01:35:32
Spectro-Module Model Name : SE2030-DUVN
Spectro-Module Serial Number : OS361AC55029948
Wavelength Start : 200
Wavelength End : 1025
Wavelength Unit : Wavelength(nm)
Spectrum Unit : Reflectance(%)
-----------Spectrum Setting ------------
Integration Time : 20ms
Average : 10
Boxcar : 0
Background removal :  enabled
linearity correction :  enabled
SC :  disabled
Intensity correction :  disabled
DWT denoise :  enabled
savitzky-golay :  disabled
FFT :  disabled
Running average :  disabled
Kalman :  disabled
High pass :  disabled
---------------BEGIN--------------------
Wavelength(nm)             Reflectance(%)
200.29               0
200.75        101.7804
201.21        93.68629
201.67        84.64877
202.13        80.19254
202.58         80.8881
203.04        85.65082
203.50        91.49377
203.96        93.22814
204.42        90.14117
204.88        84.61796
205.34        79.64494
205.80         78.1627
206.26        81.14391
206.72        90.52183
207.18        110.4943
207.64        129.5472
208.10        120.2382
208.55        97.84068
209.01        83.15347
209.47        77.71127
209.93        77.57293
210.39        80.57793
210.85        84.31101
211.31        84.09091
211.77        78.66961
212.23        69.98895
212.69        62.02977
213.14        60.84352
213.60         67.2099
214.06        79.28937
214.52        92.56613
214.98        100.1736
215.44        100.3987
215.90        95.46873
216.36        88.63389
216.81        84.37723
217.27        84.02259
217.73        85.99642
218.19        88.06745
218.65        87.34644
219.11        82.90022
219.57        74.42209
220.02         63.7393
220.48        59.28743
220.94        65.12434
221.40        78.05786
221.86        89.40514
222.32        90.71957
222.77        83.25338
223.23        72.33067
223.69        62.73512
224.15        59.29128
224.61        61.63549
225.06        67.44456
225.52        73.82491
225.98        77.18172
226.44         76.8248
226.90        74.29057
227.36        71.41546
227.81        70.61561
228.27        72.61928
228.73        76.13304
229.19        79.97672
229.65        82.48121
230.10        83.22169
230.56        83.13457
231.02        82.65893
231.48        82.27225
231.93        82.11604
232.39        82.09002
232.85        82.37743
233.31        83.41129
233.77        85.21471
234.22        87.75166
234.68        90.45185
235.14        92.11874
235.60        92.35417
236.05        91.46169
236.51        90.13487
236.97         89.4267
237.43         89.6298
237.88        90.61412
238.34        92.03467
238.80        93.44761
239.26        94.42735
239.71        95.44848
240.17        95.81759
240.63           95.08
241.08        93.46711
241.54         91.0758
242.00        89.22058
242.46        89.82276
242.91         94.6891
243.37        107.9684
243.83        146.9355
244.28        254.8223
244.74        340.5067
245.20        247.0658
245.66        184.3044
246.11          169.35
246.57        181.3408
247.03        233.5166
247.48        395.9078
247.94        336.0362
248.40        167.8622
248.85        113.9646
249.31        96.90603
249.77        93.60854
250.22         97.5438
250.68        107.9989
251.14        125.1776
251.59         140.036
252.05        141.6187
252.51        132.9861
252.96        121.8185
253.42        116.8984
253.88        118.3478
254.33        122.8348
254.79        129.5533
255.25        136.7437
255.70        142.8691
256.16        148.7266
256.62        153.0296
257.07        154.2882
257.53        153.6865
257.99        151.4615
258.44         148.434
258.90        147.1197
259.35        146.3075
259.81        145.6979
260.27        144.2028
260.72        140.7505
261.18        136.3335
261.63        131.0603
262.09        125.8146
262.55        120.4642
263.00        115.1555
263.46        110.4283
263.91        106.3075
264.37        103.5421
264.83        101.6173
265.28        100.0772
265.74        98.47641
266.19        95.71107
266.65        92.21507
267.11        88.50703
267.56        85.06691
268.02        82.49642
268.47        80.58945
268.93        79.12637
269.38        77.93709
269.84        76.97993
270.30        76.18277
270.75        75.57361
271.21        74.96525
271.66        74.02874
272.12        72.73455
272.57        71.15683
273.03        69.58875
273.48        68.35661
273.94        67.60031
274.39         67.1267
274.85        66.84219
275.31        66.52131
275.76        66.04633
276.22        65.52459
276.67        64.86705
277.13        64.13761
277.58        63.27032
278.04        62.35325
278.49        61.34841
278.95        60.38399
279.40        59.40132
279.86        58.47662
280.31         57.5505
280.77        56.72902
281.22        55.95387
281.68        55.28901
282.13        54.66132
282.59        54.07945
283.04        53.49659
283.50        52.98239
283.95        52.49954
284.41        52.07313
284.86        51.67928
285.32        51.33593
285.77        51.07018
286.22        51.02736
286.68        51.18827
287.13        51.44125
287.59        51.63377
288.04        51.48013
288.50        50.99012
288.95        50.22735
289.41        49.39857
289.86        48.65075
290.32        48.13102
290.77        47.77417
291.22        47.62579
291.68        47.69878
292.13        47.97727
292.59        48.47811
293.04        49.15812
293.50        49.95735
293.95        50.82196
294.40        51.72471
294.86        52.65071
295.31        53.58749
295.77        54.54473
296.22        55.52294
296.68        56.50362
297.13         57.4285
297.58        58.30661
298.04        59.17587
298.49        60.12201
298.95        61.34302
299.40        62.84467
299.85        64.55699
300.31         66.3248
300.76        67.88916
301.21        69.16226
301.67        70.26846
302.12        71.21896
302.58        72.17587
303.03        73.14972
303.48         74.1384
303.94        75.26416
304.39        76.63455
304.84         78.2641
305.30        80.10201
305.75        81.90025
306.20        83.31972
306.66        84.32025
307.11        84.95053
307.57        85.46899
308.02        86.11053
308.47        87.01274
308.93        88.11639
309.38         89.2997
309.83         90.4373
310.29        91.47675
310.74        92.41597
311.19        93.32738
311.65        94.30989
312.10        95.36115
312.55        96.45925
313.00        97.44072
313.46        98.06155
313.91         98.2654
314.36        98.14154
314.82        97.98215
315.27        98.17181
315.72        98.83016
316.18        99.84796
316.63        100.9564
317.08        101.6625
317.53        101.8372
317.99        101.6118
318.44        101.3108
318.89        101.4609
319.35        102.1562
319.80         103.268
320.25        104.4018
320.70        104.9043
321.16         104.634
321.61        103.8203
322.06        102.8914
322.51        102.5162
322.97        102.8285
323.42        103.6473
323.87        104.6516
324.32        105.2947
324.78         105.389
325.23        105.1577
325.68         104.745
326.13        104.4147
326.59        104.2479
327.04        104.1875
327.49        104.2475
327.94        104.5004
328.39        104.9357
328.85        105.5294
329.30        106.2037
329.75        106.6144
330.20        106.7037
330.66        106.5511
331.11         106.409
331.56        106.6119
332.01        107.2663
332.46        108.2467
332.92        109.3984
333.37        110.6561
333.82        111.8213
334.27        112.9128
334.72        113.7629
335.17        114.1069
335.63        113.9286
336.08        113.3772
336.53        112.7263
336.98        112.4776
337.43        112.7733
337.88        113.4692
338.34        114.4421
338.79        115.5707
339.24        116.7083
339.69        117.9197
340.14        118.9503
340.59        119.3616
341.05         119.111
341.50        118.3133
341.95        117.4524
342.40        117.2841
342.85        117.9587
343.30        119.2639
343.75        120.7702
344.20        121.7062
344.66        121.8519
345.11        121.4297
345.56        120.7519
346.01        120.2894
346.46        120.1927
346.91        120.3136
347.36          120.54
347.81        120.7142
348.26        120.7874
348.72        120.8441
349.17        120.9138
349.62        121.0696
350.07        121.3066
350.52        121.5561
350.97        121.7422
351.42        121.7703
351.87        121.6207
352.32        121.3401
352.77        120.9561
353.22        120.5129
353.67        120.0476
354.13        119.5731
354.58        119.1263
355.03        118.8249
355.48        118.6717
355.93        118.6233
356.38        118.5639
356.83        118.3069
357.28        117.8018
357.73        117.0992
358.18        116.2719
358.63        115.4429
359.08        114.6629
359.53        113.9104
359.98         113.173
360.43        112.4285
360.88         111.663
361.33        110.8797
361.78        110.1045
362.23        109.3715
362.68        108.6922
363.13        108.0742
363.58        107.4371
364.03        106.6521
364.48        105.7046
364.93        104.6263
365.38          103.58
365.83        102.8332
366.28        102.4216
366.73         102.242
367.18        102.0762
367.63        101.5717
368.08        100.6573
368.53        99.48043
368.98        98.20919
369.43        97.08705
369.88        96.19653
370.33        95.46436
370.78        94.89157
371.23        94.48398
371.68        94.21481
372.13          94.083
372.58        93.99777
373.03         93.7941
373.48        93.43233
373.93        92.95512
374.38        92.42393
374.83        91.94406
375.28        91.54417
375.72        91.17061
376.17        90.84606
376.62        90.58775
377.07        90.37321
377.52        90.17917
377.97         89.9252
378.42        89.48001
378.87         88.8407
379.32        88.09264
379.77        87.29603
380.22        86.52802
380.67         85.8139
381.11        85.11648
381.56        84.51778
382.01        84.16003
382.46        84.05617
382.91        84.18102
383.36        84.30153
383.81        84.04177
384.26         83.3462
384.71        82.33286
385.15        81.29594
385.60        80.75343
386.05        80.74269
386.50        81.08477
386.95        81.48482
387.40         81.4453
387.85        80.88063
388.29        79.98749
388.74         79.0872
389.19        78.32378
389.64        77.74067
390.09        77.21823
390.54        76.86659
390.98        76.87037
391.43        77.21355
391.88        77.83867
392.33        78.40731
392.78        78.20019
393.23        77.37001
393.67        76.16722
394.12        75.15102
394.57        74.05037
395.02        73.99183
395.47        74.40293
395.91        75.35684
396.36         76.0173
396.81        76.20731
397.26        76.22039
397.71        76.08795
398.15        75.69758
398.60        75.18351
399.05        74.65351
399.50        74.14515
399.95        73.35174
400.39        72.70528
400.84        72.32551
401.29         72.2896
401.74        72.29511
402.18        72.29476
402.63        72.28085
403.08        72.30885
403.53        72.49985
403.97        72.82921
404.42        73.15405
404.87        73.35081
405.32        73.22192
405.76        72.73223
406.21        72.16457
406.66        71.61977
407.11        70.97957
407.55        70.48565
408.00         70.6285
408.45        71.29812
408.90         71.9837
409.34         72.2902
409.79        71.65067
410.24        70.41429
410.68         69.8035
411.13        69.93658
411.58        70.10181
412.03        70.21224
412.47        70.46056
412.92        70.74741
413.37        71.04485
413.81        71.25411
414.26        71.27018
414.71        71.06125
415.15        70.64842
415.60        70.17133
416.05        69.87708
416.49        69.83543
416.94        70.00674
417.39        70.21329
417.83        70.13093
418.28          69.714
418.73        69.08173
419.17        68.50036
419.62        68.39238
420.07        68.79236
420.51         69.5482
420.96        70.36985
421.41        70.71362
421.85        70.42745
422.30        69.95587
422.74        69.42617
423.19        68.76016
423.64        68.17212
424.08         68.4524
424.53        69.42302
424.98        69.95911
425.42        69.90382
425.87        70.11057
426.31        70.53993
426.76        70.21591
427.21        69.45764
427.65        69.76369
428.10        70.99033
428.54        71.84789
428.99        72.23947
429.44        72.38816
429.88        72.35419
430.33        73.04491
430.77        73.84795
431.22        72.66846
431.66        70.07024
432.11        68.68221
432.56        68.82827
433.00        69.64351
433.45         71.0053
433.89        73.00279
434.34        74.10764
434.78        75.49256
435.23        71.63742
435.67        69.05265
436.12        71.62798
436.57        72.72868
437.01         73.2879
437.46        74.30485
437.90        74.22617
438.35         73.1447
438.79        74.06229
439.24        73.83374
439.68        73.52583
440.13        73.09233
440.57        72.89492
441.02        73.72482
441.46        75.18372
441.91        76.16745
442.35        76.32162
442.80        75.40251
443.24        73.92902
443.69        74.43551
444.13        76.49796
444.58        76.47823
445.02        74.53803
445.47        74.15473
445.91        75.23064
446.36        75.51523
446.80        74.94756
447.24        74.69162
447.69        74.82785
448.13        75.01302
448.58        75.26243
449.02        75.59157
449.47        75.92887
449.91        76.24738
450.36        76.46952
450.80        76.40156
451.25        76.11246
451.69        75.86282
452.13        75.70797
452.58        75.51767
453.02        75.31958
453.47         75.2533
453.91        75.30801
454.36        75.46417
454.80        75.65276
455.24        75.59671
455.69        75.26743
456.13        74.96516
456.58         74.8757
457.02        74.12645
457.46        74.26963
457.91        74.47755
458.35        74.99252
458.79         75.2439
459.24        75.19099
459.68         75.0285
460.13        74.81036
460.57        74.51221
461.01        74.21887
461.46        73.85423
461.90        73.38012
462.34        73.50503
462.79        72.96155
463.23        72.98745
463.68        73.18055
464.12        73.56966
464.56        73.98869
465.01        74.15137
465.45        73.94207
465.89        73.73935
466.34        73.44657
466.78        72.37474
467.22        71.17107
467.67        70.22765
468.11        72.13174
468.55        72.75559
468.99        72.57201
469.44        72.11857
469.88        71.62971
470.32        71.61486
470.77        71.96957
471.21         71.9257
471.65        71.44368
472.10         71.1624
472.54         71.1532
472.98        71.18744
473.42         71.2693
473.87        71.59045
474.31        71.93763
474.75        71.82005
475.20        71.42265
475.64        70.87688
476.08        71.44115
476.52        71.40903
476.97        71.11752
477.41        71.16298
477.85        71.54482
478.29        71.15063
478.74        71.25922
479.18        71.20958
479.62        70.02525
480.06        70.56369
480.50        70.89129
480.95         71.4368
481.39        71.68027
481.83        70.77156
482.27        70.92875
482.72         70.5825
483.16        69.17799
483.60        69.26281
484.04        70.83878
484.48        71.12798
484.93        70.63731
485.37        72.63033
485.81        73.71253
486.25        71.96913
486.69        99.68363
487.14        80.92935
487.58        49.45533
488.02        59.99686
488.46        68.55161
488.90        67.67899
489.34        69.40995
489.79        68.57807
490.23        70.15397
490.67        70.94059
491.11        70.11348
491.55        70.12234
491.99        70.50716
492.43        70.28106
492.88        69.55715
493.32        69.52795
493.76        69.68967
494.20        69.89936
494.64        69.90352
495.08        69.99732
495.52        70.21542
495.96        70.07006
496.41        69.61576
496.85        70.16046
497.29        71.32858
497.73        70.17513
498.17        67.74674
498.61        67.86727
499.05        70.51916
499.49        70.97595
499.93        70.74663
500.37        70.33004
500.82        69.70177
501.26        69.75296
501.70        70.33328
502.14         70.6245
502.58        70.49262
503.02        70.37067
503.46        70.24944
503.90        69.83427
504.34        69.28712
504.78        69.02531
505.22        69.11227
505.66        69.41573
506.10        69.77782
506.54        69.96889
506.98        69.89536
507.42        69.57492
507.86        69.14818
508.30        68.95451
508.74        69.04723
509.18        69.29292
509.62        69.57558
510.06        69.73751
510.50        69.72783
510.94        69.60708
511.38        69.44458
511.82        69.34087
512.26        69.32858
512.70         69.3703
513.14        69.44206
513.58        69.51159
514.02        69.55901
514.46        69.59352
514.90        69.61499
515.34         69.6037
515.78        69.54899
516.22        69.51804
516.66        69.51432
517.10        69.37166
517.54        69.09524
517.98        69.32216
518.42        69.17944
518.86        69.31989
519.30        69.47081
519.74        69.69054
520.18        69.92046
520.62        70.05432
521.06         70.0779
521.50        70.02107
521.93        69.90969
522.37        69.78347
522.81        69.67276
523.25        69.57604
523.69        69.52245
524.13        69.55459
524.57        69.67227
525.01        69.85616
525.45        70.06268
525.89        70.21809
526.32        70.28886
526.76        70.29219
527.20        70.22915
527.64        70.12399
528.08        70.01138
528.52        69.83443
528.96         69.6025
529.40        69.52682
529.83        69.65464
530.27        69.21686
530.71        69.56956
531.15        69.59418
531.59        69.68955
532.03        69.81261
532.46        69.98148
532.90        70.19419
533.34        70.42129
533.78        70.65054
534.22        70.81879
534.66        70.84437
535.09        70.70651
535.53        70.46066
535.97        70.16209
536.41        69.91896
536.85        69.77172
537.28         69.7039
537.72        69.68487
538.16        69.67434
538.60        69.65748
539.04        69.59119
539.47        69.50003
539.91        69.60493
540.35        69.83167
540.79        69.87384
541.22        69.72562
541.66        69.66452
542.10        69.68961
542.54        69.62486
542.97         69.5182
543.41        69.55676
543.85        69.73934
544.29        70.02734
544.72        70.27412
545.16        70.27951
545.60        70.00716
546.04        69.53246
546.47        69.05403
546.91        68.91598
547.35        69.19219
547.79        69.73798
548.22        70.28696
548.66        70.62473
549.10        70.53888
549.53        69.64093
549.97        68.37133
550.41        67.81645
550.84         68.1172
551.28        68.79464
551.72        69.58015
552.15        70.06657
552.59        70.09148
553.03         70.1921
553.46         69.7381
553.90        69.54805
554.34        69.46861
554.77        69.37196
555.21        69.23816
555.65        69.27569
556.08        69.51899
556.52         69.0877
556.96        69.56092
557.39        69.50458
557.83        69.41963
558.27        69.42216
558.70        69.40276
559.14        69.53552
559.57         69.7513
560.01        70.02018
560.45        70.24876
560.88        70.41518
561.32          70.468
561.75        70.12473
562.19        69.58337
562.63         69.3031
563.06        69.32583
563.50          69.444
563.93        69.56873
564.37        69.68638
564.80        69.73497
565.24        69.73602
565.68        69.68779
566.11        69.61946
566.55        69.58949
566.98        69.53584
567.42        69.50959
567.85        69.66882
568.29        70.02544
568.72        70.18368
569.16        70.30529
569.60        70.83524
570.03         71.4121
570.47        71.45491
570.90        71.28121
571.34        69.48927
571.77        70.65264
572.21         70.6852
572.64        70.09457
573.08        69.31293
573.51        65.78114
573.95        68.48389
574.38        73.23293
574.82        71.52493
