SpectraSmart Spectrum 2.9.0.0
--------- Device Information -----------
Spectrum Name :  反射率_0
Saving Time :  2024/04/26 01:25:19
Spectro-Module Model Name : SE2030-DUVN
Spectro-Module Serial Number : OS361AC55029948
Wavelength Start : 200
Wavelength End : 1025
Wavelength Unit : Wavelength(nm)
Spectrum Unit : Reflectance(%)
-----------Spectrum Setting ------------
Integration Time : 20ms
Average : 10
Boxcar : 0
Background removal :  enabled
linearity correction :  enabled
SC :  disabled
Intensity correction :  disabled
DWT denoise :  enabled
savitzky-golay :  disabled
FFT :  disabled
Running average :  disabled
Kalman :  disabled
High pass :  disabled
---------------BEGIN--------------------
Wavelength(nm)             Reflectance(%)
200.29               0
200.75         91.2324
201.21        86.76791
201.67        81.18514
202.13         77.8961
202.58        77.31504
203.04        78.83038
203.50        80.60658
203.96        79.75676
204.42        76.18962
204.88        71.48923
205.34        67.42956
205.80        65.50509
206.26        66.02029
206.72        69.75946
207.18        78.78944
207.64         88.5824
208.10        86.05938
208.55        76.51427
209.01        70.05585
209.47        68.32357
209.93        69.55315
210.39        72.86948
210.85        76.10431
211.31        74.83913
211.77        68.12727
212.23        57.79619
212.69        48.40597
213.14        46.90373
213.60        54.22075
214.06        68.44881
214.52        84.11803
214.98        92.76287
215.44        92.38786
215.90        85.70238
216.36        76.96053
216.81         72.1523
217.27        72.64654
217.73        76.13762
218.19        79.49196
218.65        78.65206
219.11        72.24474
219.57        59.87733
220.02        43.25208
220.48        32.49047
220.94        33.85424
221.40        44.76592
221.86        56.22551
222.32        58.69796
222.77        52.76755
223.23        43.37083
223.69         35.1539
224.15        32.76655
224.61        35.74957
225.06        41.77653
225.52        47.59138
225.98        49.20954
226.44        46.03925
226.90        39.96421
227.36        33.47809
227.81        29.87123
228.27         30.1049
228.73        32.80532
229.19        36.57143
229.65        39.35151
230.10        40.52485
230.56        40.75573
231.02        40.62143
231.48        40.72739
231.93        41.17194
232.39        41.73193
232.85        42.10489
233.31        41.91879
233.77        41.11236
234.22        39.81552
234.68        38.50542
235.14        37.99338
235.60        38.54283
236.05        39.95559
236.51        41.62592
236.97        42.66747
237.43        42.93145
237.88          42.664
238.34        42.38149
238.80        43.49457
239.26        46.54397
239.71        51.10032
240.17        55.99549
240.63        59.71452
241.08        61.79786
241.54        62.57401
242.00        62.65477
242.46        63.00031
242.91        64.42084
243.37        67.52892
243.83        78.41125
244.28        122.7788
244.74        190.0822
245.20        174.4313
245.66        149.9151
246.11        143.2661
246.57        148.5604
247.03        170.1158
247.48        228.2772
247.94        176.9619
248.40        109.3773
248.85        91.12342
249.31        86.59892
249.77        86.68273
250.22        89.31901
250.68        94.85622
251.14        102.7479
251.59        106.5675
252.05        101.0562
252.51        89.76385
252.96        78.80039
253.42        73.79819
253.88        74.03609
254.33        77.22027
254.79        82.49254
255.25        87.99986
255.70        92.36716
256.16        95.98949
256.62        97.58028
257.07        95.77039
257.53        91.55038
257.99        85.48062
258.44        79.20277
258.90        75.63358
259.35        74.02247
259.81        73.48962
260.27        72.37585
260.72        69.05846
261.18        64.21633
261.63         58.4905
262.09        53.31048
262.55        49.65619
263.00        47.47612
263.46        46.35206
263.91        45.45389
264.37        44.16769
264.83        42.29808
265.28        39.96531
265.74        37.72172
266.19        36.17105
266.65        35.52519
267.11        35.43895
267.56        35.36688
268.02        34.64156
268.47        33.14462
268.93        31.10738
269.38        28.92246
269.84         27.5077
270.30        27.10895
270.75        27.46129
271.21        28.06294
271.66         28.1615
272.12        27.55903
272.57         26.4996
273.03        25.35667
273.48        24.61203
273.94        24.40097
274.39        24.49951
274.85        24.66157
275.31        24.53761
275.76        24.04021
276.22        23.32792
276.67         22.5518
277.13        22.00293
277.58         21.6955
278.04        21.54991
278.49        21.40268
278.95        21.07535
279.40        20.51848
279.86        19.86411
280.31          19.189
280.77        18.70001
281.22         18.4106
281.68        18.27634
282.13        18.24297
282.59        18.25867
283.04        18.29394
283.50        18.38491
283.95        18.48324
284.41        18.52542
284.86        18.49614
285.32        18.41245
285.77        18.35337
286.22        18.49921
286.68        18.84692
287.13        19.31389
287.59        19.73627
288.04        19.86981
288.50        19.69598
288.95        19.28947
289.41        18.82791
289.86        18.47752
290.32        18.34418
290.77        18.37202
291.22        18.54506
291.68        18.79807
292.13        19.12051
292.59        19.54247
293.04        20.09579
293.50         20.8222
293.95        21.70503
294.40        22.69151
294.86        23.71188
295.31        24.67722
295.77        25.57973
296.22        26.46175
296.68        27.35808
297.13        28.29143
297.58        29.29476
298.04        30.37074
298.49        31.57991
298.95        33.06419
299.40         34.8224
299.85        36.80228
300.31        38.84237
300.76        40.68193
301.21        42.22742
301.67        43.57166
302.12        44.78061
302.58        46.05371
303.03        47.42442
303.48        48.86499
303.94        50.41093
304.39        52.05899
304.84        53.80405
305.30        55.63819
305.75        57.43909
306.20        59.03816
306.66        60.41709
307.11         61.5756
307.57        62.64152
308.02        63.70132
308.47        64.84303
308.93        66.04926
309.38        67.28429
309.83        68.53912
310.29        69.78377
310.74        70.98306
311.19        72.12864
311.65        73.20711
312.10        74.20127
312.55        75.12604
313.00        75.91263
313.46        76.46039
313.91        76.75369
314.36        76.84976
314.82        76.93364
315.27        77.24271
315.72        77.85925
316.18        78.71453
316.63        79.66185
317.08        80.41124
317.53        80.86936
317.99        81.09712
318.44        81.24326
318.89        81.55945
319.35        82.08711
319.80        82.77535
320.25        83.41783
320.70        83.68208
321.16        83.50832
321.61        83.01641
322.06        82.47314
322.51        82.29286
322.97         82.5489
323.42        83.14841
323.87        83.84859
324.32        84.23244
324.78        84.17211
325.23        83.83052
325.68        83.38071
326.13         83.1319
326.59        83.15987
327.04        83.39579
327.49        83.74678
327.94        84.08694
328.39        84.36493
328.85        84.61406
329.30        84.87712
329.75        85.07143
330.20        85.20452
330.66        85.26407
331.11        85.39258
331.56        85.75545
332.01        86.39625
332.46        87.25803
332.92        88.17749
333.37         89.0239
333.82        89.64371
334.27        90.07075
334.72        90.31838
335.17         90.4344
335.63        90.46131
336.08        90.43776
336.53        90.41353
336.98         90.5078
337.43        90.75546
337.88         91.1289
338.34        91.60483
338.79        92.22414
339.24        92.92577
339.69        93.70975
340.14        94.41769
340.59        94.77985
341.05        94.75406
341.50        94.41516
341.95        94.01712
342.40        93.95866
342.85        94.32417
343.30        94.99836
343.75        95.76732
344.20        96.25021
344.66        96.34239
345.11        96.14996
345.56        95.82064
346.01        95.57246
346.46        95.48122
346.91        95.48119
347.36        95.53627
347.81        95.59772
348.26        95.65253
348.72        95.74918
349.17        95.86795
349.62        96.02063
350.07         96.1932
350.52        96.34671
350.97        96.47076
351.42        96.56467
351.87        96.61549
352.32         96.6237
352.77        96.53271
353.22        96.25468
353.67        95.79684
354.13        95.22151
354.58        94.62269
355.03        94.20223
355.48        93.99835
355.93        93.94116
356.38        93.93196
356.83        93.81023
357.28        93.51527
357.73        93.08862
358.18         92.5373
358.63        91.87516
359.08        91.13407
359.53        90.32877
359.98        89.51407
360.43         88.7762
360.88        88.13621
361.33        87.57058
361.78        87.07623
362.23        86.63857
362.68        86.24097
363.13         85.8912
363.58        85.51418
364.03        84.99014
364.48        84.30431
364.93        83.48775
365.38        82.66375
365.83        82.03424
366.28        81.62526
366.73        81.39528
367.18        81.23523
367.63         80.8456
368.08        80.15556
368.53        79.73305
368.98        78.80292
369.43        78.08553
369.88        77.37208
370.33         76.6546
370.78        76.00688
371.23        75.57592
371.68        75.38489
372.13        75.38775
372.58        75.43391
373.03        75.25819
373.48        74.80327
373.93        74.16099
374.38         73.4725
374.83        72.95631
375.28        72.66291
375.72        72.49525
376.17        72.41552
376.62        72.33634
377.07        72.20773
377.52        72.05042
377.97        71.80688
378.42        71.38421
378.87        70.79469
379.32        70.09254
379.77        69.37885
380.22         68.7979
380.67        68.37296
381.11        68.05324
381.56        67.80537
382.01        67.57507
382.46         67.3429
382.91        67.14763
383.36        66.92171
383.81        66.55991
384.26        66.06002
384.71        65.43816
385.15         64.8453
385.60        64.57106
386.05        64.60806
386.50        64.86191
386.95        65.08864
387.40        64.88055
387.85        64.20009
388.29        63.22119
388.74         62.2802
389.19        61.60474
389.64        61.23088
390.09        61.02523
390.54        60.98384
390.98        61.10077
391.43        61.33275
391.88         61.6708
392.33        61.89938
392.78        61.69056
393.23        61.05349
393.67        60.10984
394.12        59.24553
394.57        58.79701
395.02        58.84681
395.47         59.3082
395.91        60.00876
396.36        60.49799
396.81        60.63715
397.26        60.53236
397.71        60.25959
398.15        59.84652
398.60        59.41581
399.05        59.04511
399.50        58.71566
399.95        58.06324
400.39        57.44049
400.84        57.08218
401.29        57.07692
401.74        57.10646
402.18        57.14984
402.63        57.30131
403.08        57.54603
403.53        57.80011
403.97        58.02547
404.42        58.19225
404.87        58.23472
405.32         58.0441
405.76        57.61191
406.21        57.10975
406.66        56.64957
407.11        56.21217
407.55        55.94866
408.00        56.22361
408.45        56.88151
408.90        57.22627
409.34        57.07756
409.79        56.61783
410.24        56.06701
410.68        55.79086
411.13        55.86818
411.58        56.09398
412.03         56.3945
412.47        56.72131
412.92        56.97527
413.37        57.18863
413.81         57.3105
414.26        57.30209
414.71        57.15323
415.15        56.86903
415.60        56.53797
416.05        56.32793
416.49        56.28827
416.94        56.39779
417.39        56.54467
417.83        56.52283
418.28        56.29807
418.73        55.93033
419.17        55.59253
419.62        55.56529
420.07         55.8742
420.51          56.428
420.96        56.99771
421.41        57.20044
421.85        56.94087
422.30        56.43705
422.74        55.87291
423.19        55.58879
423.64        55.63002
424.08        55.96292
424.53        56.45527
424.98        56.86778
425.42        57.11872
425.87        57.38444
426.31        57.65202
426.76        57.61748
427.21        57.43714
427.65        57.68223
428.10        58.30458
428.54        58.92223
428.99        59.50185
429.44        59.82257
429.88         59.8807
430.33        60.60121
430.77        61.40435
431.22        60.30281
431.66        57.88465
432.11        56.67566
432.56        56.94298
433.00        57.84848
433.45        59.14165
433.89        60.65741
434.34        61.23804
434.78        62.44151
435.23        58.75056
435.67        57.91531
436.12        59.64864
436.57        60.76775
437.01        61.25674
437.46        61.50793
437.90         61.6506
438.35        61.56968
438.79        61.85393
439.24        61.86543
439.68        61.81588
440.13        61.57361
440.57        61.41505
441.02        62.29906
441.46        63.81652
441.91        64.42603
442.35        64.02252
442.80        63.21831
443.24        62.38569
443.69        62.98754
444.13        64.62831
444.58        64.60954
445.02         63.1229
445.47        62.83095
445.91        63.70768
446.36        64.00784
446.80        63.68898
447.24        63.68126
447.69        64.00782
448.13        64.30304
448.58        64.55556
449.02        64.82025
449.47        65.07573
449.91        65.29922
450.36        65.48159
450.80        65.60142
451.25         65.6487
451.69        65.58659
452.13          65.438
452.58        65.22621
453.02         65.0172
453.47        64.94624
453.91         65.0208
454.36        65.20652
454.80        65.41972
455.24        65.44363
455.69        65.25369
456.13        65.02386
456.58        64.85402
457.02        64.50567
457.46        64.17775
457.91        64.46079
458.35        65.15843
458.79        65.44218
459.24         65.2635
459.68        65.01782
460.13        64.77245
460.57        64.46545
461.01        64.18464
461.46        63.77644
461.90        63.24551
462.34        63.64249
462.79        63.25444
463.23        63.66515
463.68        64.19696
464.12        64.56046
464.56        64.67174
465.01        64.54393
465.45        64.18758
465.89        64.27389
466.34        64.58406
466.78        63.58894
467.22        61.83738
467.67        61.61607
468.11        62.87593
468.55        63.70138
468.99        63.73222
469.44         63.4614
469.88        63.06423
470.32        63.07453
470.77        63.44193
471.21        63.44157
471.65        63.04538
472.10        62.83363
472.54        62.85996
472.98        62.89481
473.42        62.92353
473.87        63.17858
474.31        63.50544
474.75        63.33537
475.20        62.80909
475.64        62.75178
476.08        63.16412
476.52        63.20668
476.97        62.82067
477.41        63.06712
477.85         63.2038
478.29        62.91809
478.74         63.3459
479.18        63.54587
479.62          62.481
480.06        63.02442
480.50        63.37589
480.95        63.89377
481.39        64.16061
481.83        63.13103
482.27        63.42017
482.72         63.2761
483.16        61.92258
483.60         62.1489
484.04        63.50952
484.48        63.89108
484.93        63.63198
485.37        65.16846
485.81        65.62232
486.25        64.29047
486.69        87.28518
487.14        70.97709
487.58        44.27948
488.02        54.39624
488.46        62.02349
488.90        61.07594
489.34        62.74327
489.79         62.6238
490.23         63.9777
490.67        64.68092
491.11         63.6779
491.55        63.72217
491.99        64.36725
492.43        64.28617
492.88        63.56607
493.32        63.51434
493.76        63.69191
494.20        63.92688
494.64        64.00003
495.08        64.12222
495.52        64.33092
495.96        64.36076
496.41        64.18277
496.85          64.609
497.29        65.38519
497.73        64.28452
498.17        62.26662
498.61        62.61454
499.05        65.24345
499.49        65.59393
499.93        65.14679
500.37        64.86932
500.82        64.68378
501.26        64.84245
501.70        65.26649
502.14        65.43285
502.58        65.27759
503.02        65.12029
503.46        64.96663
503.90        64.56428
504.34        64.07304
504.78        63.89172
505.22        64.07636
505.66        64.50993
506.10        65.01063
506.54         65.2728
506.98        65.20816
507.42         64.9201
507.86        64.55766
508.30        64.38802
508.74        64.47137
509.18        64.72939
509.62        65.03544
510.06        65.18817
510.50        65.13745
510.94        64.95716
511.38        64.76043
511.82        64.71638
512.26        64.86259
512.70        65.13164
513.14        65.42616
513.58        65.59396
514.02        65.58561
514.46         65.4502
514.90        65.25137
515.34        65.06792
515.78        64.92281
516.22        64.87047
516.66        64.89928
517.10        64.78923
517.54        64.53088
517.98        64.86116
518.42        64.77464
518.86          65.009
519.30        65.24748
519.74        65.55439
520.18        65.84792
520.62        65.99036
521.06        65.96627
521.50        65.81375
521.93        65.60078
522.37        65.43763
522.81        65.36861
523.25        65.37152
523.69        65.42935
524.13        65.51087
524.57        65.60159
525.01         65.7104
525.45        65.82839
525.89        65.93852
526.32        66.02269
526.76        66.07122
527.20        66.07397
527.64        66.03931
528.08        65.98675
528.52        65.86643
528.96        65.66106
529.40        65.52814
529.83        65.51281
530.27        64.91254
530.71        65.04714
531.15        64.93906
531.59        64.98074
532.03        65.11385
532.46        65.33097
532.90        65.58646
533.34          65.835
533.78        66.07692
534.22        66.25477
534.66        66.29487
535.09        66.18051
535.53        65.95875
535.97        65.68573
536.41        65.47419
536.85        65.36244
537.28        65.32948
537.72        65.34372
538.16        65.36026
538.60        65.36317
539.04         65.3184
539.47        65.23875
539.91        65.31637
540.35        65.48203
540.79        65.45054
541.22        65.25111
541.66        65.19579
542.10        65.29219
542.54        65.36524
542.97        65.40364
543.41        65.49094
543.85        65.61192
544.29         65.7641
544.72        65.88167
545.16        65.87521
545.60         65.7215
546.04         65.4866
546.47        65.29102
546.91         65.2234
547.35        65.35992
547.79        65.93186
548.22        66.64836
548.66        66.77894
549.10        66.26691
549.53        65.51228
549.97        64.83409
550.41        64.49292
550.84        64.58255
551.28        65.07591
551.72        65.77639
552.15        66.11739
552.59        66.20231
553.03        66.18782
553.46        65.80977
553.90        65.66753
554.34        65.72243
554.77        65.78205
555.21        65.79836
555.65        65.91532
556.08        66.14962
556.52        65.68123
556.96        66.04485
557.39        65.93373
557.83        65.85424
558.27        65.85727
558.70        65.96457
559.14        66.11259
559.57         66.2662
560.01        66.45152
560.45        66.60563
560.88        66.69115
561.32        66.67604
561.75        66.38437
562.19         65.9722
562.63         65.6765
563.06        65.58341
563.50        65.78551
563.93        66.15397
564.37        66.36668
564.80        66.34894
565.24        66.29627
565.68        66.23582
566.11        66.14992
566.55        66.09895
566.98         66.0686
567.42        66.07948
567.85        66.15802
568.29        66.34512
568.72        66.44969
569.16        66.60071
569.60        67.04826
570.03        67.43581
570.47        67.36632
570.90        67.17811
571.34        65.49162
571.77         66.1484
572.21        66.72176
572.64        65.95066
573.08        64.94883
573.51        62.29459
573.95        64.79493
574.38        69.03503
574.82        66.72404
