SpectraSmart Spectrum 2.9.0.0
--------- Device Information -----------
Spectrum Name :  反射率_0
Saving Time :  2024/04/26 01:37:02
Spectro-Module Model Name : SE2030-DUVN
Spectro-Module Serial Number : OS361AC55029948
Wavelength Start : 200
Wavelength End : 1025
Wavelength Unit : Wavelength(nm)
Spectrum Unit : Reflectance(%)
-----------Spectrum Setting ------------
Integration Time : 20ms
Average : 10
Boxcar : 0
Background removal :  enabled
linearity correction :  enabled
SC :  disabled
Intensity correction :  disabled
DWT denoise :  enabled
savitzky-golay :  disabled
FFT :  disabled
Running average :  disabled
Kalman :  disabled
High pass :  disabled
---------------BEGIN--------------------
Wavelength(nm)             Reflectance(%)
200.29               0
200.75        97.10549
201.21        90.89681
201.67        82.99361
202.13        77.19437
202.58        74.15046
203.04        73.11947
203.50        73.36696
203.96        73.83495
204.42        74.05785
204.88        74.27402
205.34        74.73232
205.80        75.81346
206.26        77.95118
206.72        82.22332
207.18        89.62623
207.64        93.81241
208.10        85.51912
208.55        73.96903
209.01        67.57327
209.47        66.09993
209.93        67.48204
210.39        71.06638
210.85        75.02476
211.31        75.34931
211.77        70.91405
212.23        63.20693
212.69        55.68417
213.14        53.73862
213.60        58.13811
214.06        67.55399
214.52        78.26936
214.98        84.51203
215.44        84.86758
215.90        81.10581
216.36        76.17896
216.81        74.17313
217.27        75.92467
217.73        79.64825
218.19        82.88864
218.65        82.50125
219.11        77.42057
219.57        67.22736
220.02        52.99615
220.48        42.66291
220.94        41.51592
221.40        48.11061
221.86        55.88856
222.32        57.54427
222.77        53.18318
223.23        46.39606
223.69        40.55043
224.15        39.06222
224.61        41.51937
225.06        46.24014
225.52        50.46748
225.98        50.87552
226.44        47.12037
226.90        40.89844
227.36        34.62548
227.81        31.51125
228.27        32.42716
228.73        35.94571
229.19        40.63629
229.65        44.35025
230.10        46.32858
230.56        47.22906
231.02        47.40736
231.48        47.22725
231.93        46.86494
232.39        46.25035
232.85        45.47414
233.31        44.78723
233.77        44.25203
234.22        43.82157
234.68        43.59766
235.14        43.64246
235.60        43.94061
236.05        44.51776
236.51        45.06825
236.97        45.08353
237.43        44.52082
237.88        43.54907
238.34        42.62988
238.80        43.14757
239.26        45.74467
239.71        50.09229
240.17        55.39312
240.63        60.66028
241.08        65.30748
241.54        69.15388
242.00        72.15604
242.46        74.70185
242.91        77.73743
243.37        82.43664
243.83        94.33549
244.28        130.7024
244.74        168.5487
245.20        143.5101
245.66        123.5435
246.11        120.4305
246.57        129.1914
247.03        159.9221
247.48        254.5217
247.94        226.6297
248.40         130.411
248.85        98.12318
249.31        87.38795
249.77        84.72793
250.22         86.0358
250.68        90.64295
251.14        97.67348
251.59        100.5712
252.05        94.39962
252.51        82.98378
252.96        72.67749
253.42         69.1654
253.88         71.5092
254.33         77.1337
254.79        84.14015
255.25        89.34155
255.70        91.70044
256.16         92.6788
256.62        92.07092
257.07        89.51138
257.53        85.82075
257.99        80.95065
258.44        76.08931
258.90        73.62242
259.35        72.67336
259.81        72.52007
260.27        71.54332
260.72        68.14661
261.18        63.08524
261.63        57.06173
262.09        51.59093
262.55        47.76816
263.00        45.55927
263.46        44.49779
263.91        43.72955
264.37        42.60255
264.83        40.92074
265.28        38.81504
265.74        36.82151
266.19         35.5093
266.65        35.05986
267.11        35.11635
267.56        35.15591
268.02         34.5501
268.47        33.18988
268.93        31.30263
269.38        29.23995
269.84        27.84344
270.30        27.34671
270.75        27.51647
271.21        27.92776
271.66        27.94178
272.12        27.38155
272.57        26.45384
273.03        25.46621
273.48        24.79766
273.94        24.56224
274.39        24.57703
274.85        24.63673
275.31        24.45067
275.76        23.94867
276.22        23.26502
276.67        22.54678
277.13        22.08029
277.58        21.87135
278.04        21.84344
278.49        21.80799
278.95        21.55131
279.40        21.02046
279.86        20.35431
280.31         19.6609
280.77        19.19917
281.22        18.98204
281.68        18.93763
282.13        18.96962
282.59        18.96881
283.04        18.89707
283.50        18.81968
283.95        18.71316
284.41        18.55163
284.86        18.34012
285.32        18.09174
285.77        17.90012
286.22        17.96497
286.68        18.28148
287.13        18.76024
287.59        19.21257
288.04        19.35487
288.50        19.15795
288.95        18.70637
289.41        18.18592
289.86        17.77988
290.32         17.5964
290.77        17.56781
291.22        17.67989
291.68        17.87217
292.13        18.13037
292.59        18.48207
293.04        18.93684
293.50        19.50168
293.95        20.15623
294.40        20.85829
294.86        21.57047
295.31        22.25352
295.77        22.90833
296.22        23.56331
296.68        24.22101
297.13        24.85352
297.58        25.48598
298.04        26.14095
298.49         26.9133
298.95        27.99089
299.40        29.38236
299.85        31.01789
300.31         32.7159
300.76         34.1892
301.21        35.34393
301.67        36.28942
302.12        37.10791
302.58        38.00319
303.03        39.01665
303.48        40.10997
303.94        41.32813
304.39        42.69032
304.84        44.19408
305.30        45.83601
305.75        47.47198
306.20        48.88979
306.66        50.06857
307.11         51.0288
307.57        51.94951
308.02        53.01264
308.47        54.30326
308.93        55.75951
309.38        57.26785
309.83        58.68801
310.29        59.96224
310.74        61.11187
311.19        62.18118
311.65        63.24152
312.10        64.30994
312.55          65.369
313.00        66.36544
313.46         67.2203
313.91        67.89661
314.36        68.43066
314.82        68.92496
315.27        69.50045
315.72        70.21763
316.18        71.04473
316.63        71.90243
317.08        72.61947
317.53        73.14287
317.99        73.50314
318.44        73.82613
318.89        74.32381
319.35        75.02179
319.80        75.88108
320.25        76.68604
320.70        77.08084
321.16        76.99804
321.61        76.55697
322.06        76.03616
322.51        75.87519
322.97        76.15901
323.42        76.78991
323.87        77.53152
324.32        77.97121
324.78        77.98582
325.23        77.74595
325.68        77.41358
326.13        77.27554
326.59        77.40398
327.04          77.722
327.49        78.17183
327.94        78.68826
328.39        79.22321
328.85        79.78984
329.30        80.34439
329.75        80.66338
330.20        80.72659
330.66        80.57637
331.11        80.45665
331.56        80.69965
332.01        81.40094
332.46        82.45963
332.92        83.67818
333.37        84.84033
333.82        85.74902
334.27         86.4582
334.72        86.94032
335.17        87.17612
335.63        87.20191
336.08        87.06606
336.53        86.89859
336.98        86.95669
337.43        87.31327
337.88        87.91293
338.34        88.67516
338.79         89.5338
339.24        90.39429
339.69        91.28604
340.14        92.08271
340.59        92.56652
341.05        92.70621
341.50        92.54956
341.95        92.32565
342.40        92.40688
342.85        92.87905
343.30        93.64758
343.75        94.51865
344.20        95.13801
344.66         95.4024
345.11        95.39698
345.56        95.26414
346.01        95.21757
346.46        95.32663
346.91        95.52988
347.36        95.75711
347.81        95.90707
348.26        95.96606
348.72        96.00185
349.17        96.06728
349.62        96.29057
350.07        96.68159
350.52        97.16657
350.97        97.65092
351.42        98.00515
351.87        98.18707
352.32        98.23203
352.77        98.15289
353.22        97.97403
353.67        97.72443
354.13        97.42342
354.58        97.09765
355.03        96.84525
355.48        96.68449
355.93        96.59307
356.38        96.52646
356.83        96.40514
357.28        96.19727
357.73        95.91836
358.18        95.56756
358.63        95.14683
359.08        94.67035
359.53        94.14833
359.98         93.6036
360.43        93.07312
360.88        92.56647
361.33        92.07022
361.78        91.60172
362.23        91.18443
362.68        90.81827
363.13        90.50587
363.58        90.17431
364.03        89.70605
364.48        89.08386
364.93        88.33623
365.38        87.58312
365.83        87.02371
366.28        86.69227
366.73        86.51865
367.18        86.36481
367.63        86.00486
368.08        85.39592
368.53        84.64037
368.98        83.84129
369.43         83.1452
369.88        82.60073
370.33        82.15351
370.78        81.81538
371.23        81.61255
371.68        81.52329
372.13        81.53287
372.58        81.54035
373.03         81.3706
373.48        80.99146
373.93        80.46769
374.38        79.89225
374.83        79.40986
375.28        79.06517
375.72        78.80198
376.17        78.63873
376.62        78.57602
377.07        78.58154
377.52         78.6311
377.97        78.63143
378.42        78.43362
378.87        78.01785
379.32        77.45187
379.77        76.80373
380.22        76.17049
380.67        75.58503
381.11        75.01965
381.56        74.52497
382.01        74.18697
382.46        74.02267
382.91        74.03497
383.36        74.08276
383.81        73.93323
384.26          73.545
384.71        72.96822
385.15        72.38853
385.60        72.16161
386.05        72.29046
386.50        72.64727
386.95        72.96902
387.40        72.81945
387.85        72.15079
388.29        71.15475
388.74        70.17942
389.19        69.42849
389.64        68.95254
390.09        68.63899
390.54        68.52359
390.98        68.66528
391.43        69.01591
391.88        69.51965
392.33        69.93989
392.78        69.85245
393.23        69.23539
393.67        68.42065
394.12        67.71654
394.57        66.91026
395.02        66.29227
395.47        66.75705
395.91        68.08007
396.36        68.81916
396.81        68.76582
397.26        68.60783
397.71        68.45564
398.15        68.09777
398.60        67.66721
399.05        67.35275
399.50        67.10715
399.95        66.39436
400.39        65.67146
400.84        65.39295
401.29        65.62403
401.74        65.83772
402.18        65.92756
402.63        65.89186
403.08        65.83031
403.53        65.99976
403.97        66.40068
404.42        66.81962
404.87        67.09532
405.32        67.02231
405.76        66.55264
406.21        65.92816
406.66        65.33249
407.11        64.80038
407.55        64.54449
408.00        64.99843
408.45        65.94197
408.90        66.50554
409.34        66.40297
409.79        65.72653
410.24        64.80389
410.68        64.29931
411.13        64.33231
411.58        64.54575
412.03        64.84964
412.47         65.2358
412.92        65.58678
413.37        65.92445
413.81        66.17876
414.26         66.2867
414.71        66.22257
415.15        65.98266
415.60        65.65723
416.05        65.42242
416.49        65.33514
416.94        65.38478
417.39        65.45235
417.83        65.31148
418.28        64.94677
418.73        64.44971
419.17        64.04467
419.62        64.08859
420.07        64.59621
420.51         65.4296
420.96        66.31467
421.41        66.72095
421.85        66.49687
422.30        66.10012
422.74        65.63805
423.19        64.93744
423.64        64.24859
424.08        64.52233
424.53        65.58105
424.98        66.15833
425.42        66.08524
425.87        66.29395
426.31        66.77417
426.76        66.54696
427.21        65.94793
427.65        66.50844
428.10        67.98301
428.54         68.9445
428.99        69.29263
429.44        69.15493
429.88        68.76983
430.33        69.69123
430.77        71.14148
431.22        70.05431
431.66        67.08759
432.11        65.74422
432.56        66.31645
433.00        67.25831
433.45         68.3431
433.89        70.02351
434.34        71.03881
434.78         72.0097
435.23        68.85356
435.67        66.79507
436.12        69.72103
436.57         70.7929
437.01        71.04753
437.46        71.40212
437.90        72.13294
438.35        70.99821
438.79        72.11776
439.24         71.9145
439.68        71.64381
440.13        71.18188
440.57        70.92387
441.02        71.72126
441.46        73.19195
441.91        74.30914
442.35        74.62979
442.80        73.71822
443.24        72.15444
443.69        72.61996
444.13        74.68652
444.58         75.0858
445.02        73.12914
445.47        72.82014
445.91        73.86627
446.36        74.21577
446.80        73.81131
447.24        73.72973
447.69        74.01326
448.13        74.24932
448.58        74.44952
449.02        74.73017
449.47        75.08575
449.91        75.40695
450.36        75.66133
450.80         75.9947
451.25         76.2861
451.69        76.00379
452.13        75.30669
452.58        74.94435
453.02        74.96605
453.47        74.94042
453.91        74.86367
454.36        75.02953
454.80        75.38314
455.24        75.55824
455.69        75.48743
456.13        75.44162
456.58        75.45308
457.02        74.93326
457.46        74.15068
457.91        74.50227
458.35         75.0677
458.79        75.37486
459.24        75.17577
459.68         74.9367
460.13        74.68254
460.57        74.67328
461.01         74.3205
461.46        73.88204
461.90        73.47009
462.34        73.82406
462.79        73.16444
463.23        73.36603
463.68        73.81186
464.12        74.47408
464.56        75.07442
465.01        75.12371
465.45        74.59902
465.89        74.27264
466.34        74.10665
466.78         73.1574
467.22        71.93034
467.67        71.50495
468.11        72.79318
468.55          73.519
468.99        73.62541
469.44        73.27127
469.88        72.67113
470.32        72.59965
470.77        72.98787
471.21        72.95329
471.65        72.46433
472.10        72.19984
472.54        72.21883
472.98          72.271
473.42        72.34464
473.87        72.64586
474.31        73.00639
474.75        72.92756
475.20         72.4944
475.64        72.34258
476.08        72.55511
476.52        72.50261
476.97        72.14318
477.41        72.62775
477.85        72.90797
478.29        72.38555
478.74         72.7065
479.18        72.43591
479.62        71.67154
480.06        72.26324
480.50        72.52555
480.95        72.98836
481.39        73.16292
481.83         72.2968
482.27        72.47086
482.72        72.23195
483.16        70.91481
483.60        71.11615
484.04        72.46767
484.48        72.93829
484.93        73.08751
485.37        74.30392
485.81        74.84094
486.25        73.84074
486.69        100.5787
487.14        80.61811
487.58        50.15213
488.02         61.4589
488.46        70.05904
488.90         69.8882
489.34        71.67674
489.79        70.40984
490.23        72.53367
490.67        73.14044
491.11        72.01739
491.55        72.14806
491.99        73.00915
492.43        72.98514
492.88        72.11601
493.32        71.94006
493.76        72.00471
494.20        72.16605
494.64        72.18864
495.08        72.38354
495.52        72.73531
495.96        72.61898
496.41        72.08745
496.85        72.62865
497.29        73.88634
497.73        72.69882
498.17         70.1767
498.61        70.52534
499.05         73.6768
499.49        74.19116
499.93        73.67929
500.37        73.36852
500.82        73.19078
501.26        73.07242
501.70        73.50456
502.14         73.7173
502.58        73.52071
503.02        73.39561
503.46        73.26065
503.90         72.8988
504.34        72.45677
504.78        72.30171
505.22        72.46726
505.66        72.89682
506.10        73.43067
506.54        73.56879
506.98        73.18102
507.42        73.19345
507.86        72.59724
508.30         72.1595
508.74        72.46809
509.18        72.75197
509.62         73.1163
510.06         73.3123
510.50        73.29152
510.94        73.11454
511.38        72.88204
511.82        72.76605
512.26         72.8106
512.70        72.95744
513.14        73.13857
513.58        73.25169
514.02        73.25954
514.46         73.1913
514.90        73.09631
515.34        73.03311
515.78        73.00967
516.22        73.06482
516.66         73.1498
517.10        73.03328
517.54        72.70444
517.98        72.76126
518.42        72.49437
518.86        72.57884
519.30        72.79229
519.74        73.15091
520.18        73.55189
520.62        73.82397
521.06        73.92569
521.50        73.89829
521.93        73.78316
522.37        73.65037
522.81        73.53793
523.25        73.42996
523.69        73.34679
524.13        73.31953
524.57        73.35294
525.01        73.44784
525.45        73.57446
525.89        73.67719
526.32         73.7298
526.76         73.7375
527.20        73.71674
527.64        73.71609
528.08        73.76143
528.52        73.77673
528.96        73.70387
529.40        73.66381
529.83        73.69004
530.27        73.00293
530.71        73.11549
531.15        72.97446
531.59        73.03347
532.03        73.21777
532.46        73.48868
532.90        73.74439
533.34        73.92947
533.78        74.06643
534.22        74.14345
534.66         74.1531
535.09        74.08843
535.53        73.97649
535.97        73.82282
536.41        73.66331
536.85        73.51939
537.28        73.39568
537.72        73.30691
538.16        73.27893
538.60        73.30145
539.04        73.34116
539.47        73.38466
539.91        73.49297
540.35        73.55251
540.79        73.73369
541.22         73.2769
541.66        73.19759
542.10        73.27217
542.54        73.30685
542.97        73.30212
543.41         73.3907
543.85        73.56519
544.29        73.80927
544.72        73.99432
545.16        73.94857
545.60        73.64362
546.04        73.13416
546.47         72.6482
546.91        72.56552
547.35        72.94801
547.79        73.69179
548.22        74.45496
548.66        74.75095
549.10        74.44553
549.53        73.55323
549.97         72.4929
550.41         72.0495
550.84        72.32298
551.28        72.84749
551.72        73.39408
552.15        73.78725
552.59         73.9188
553.03        73.81121
553.46        73.54698
553.90        73.38857
554.34        73.38829
554.77        73.31919
555.21        73.20074
555.65        73.40973
556.08        73.90496
556.52        73.52763
556.96        73.94396
557.39        73.67024
557.83        73.35791
558.27        73.37348
558.70        73.71977
559.14        73.90512
559.57          73.992
560.01        74.17514
560.45        74.42488
560.88        74.44925
561.32        74.26307
561.75        74.04366
562.19        73.85886
562.63        73.42186
563.06        72.89541
563.50        72.94928
563.93        73.45544
564.37        73.68188
564.80        73.55606
565.24        73.51773
565.68        73.56558
566.11        73.57269
566.55         73.6028
566.98        73.54204
567.42        73.45476
567.85        73.77594
568.29        74.42034
568.72        74.40931
569.16        73.99428
569.60        74.54459
570.03        74.88199
570.47        74.99732
570.90        74.98857
571.34        72.62171
571.77        73.87318
572.21        73.83768
572.64        73.67075
573.08        72.44466
573.51        69.24121
573.95        72.01329
574.38        76.82913
574.82         75.1361
