SpectraSmart Spectrum 2.9.0.0
--------- Device Information -----------
Spectrum Name :  反射率_0
Saving Time :  2024/04/26 01:43:52
Spectro-Module Model Name : SE2030-DUVN
Spectro-Module Serial Number : OS361AC55029948
Wavelength Start : 200
Wavelength End : 1025
Wavelength Unit : Wavelength(nm)
Spectrum Unit : Reflectance(%)
-----------Spectrum Setting ------------
Integration Time : 20ms
Average : 10
Boxcar : 0
Background removal :  enabled
linearity correction :  enabled
SC :  disabled
Intensity correction :  disabled
DWT denoise :  enabled
savitzky-golay :  disabled
FFT :  disabled
Running average :  disabled
Kalman :  disabled
High pass :  disabled
---------------BEGIN--------------------
Wavelength(nm)             Reflectance(%)
200.29               0
200.75        90.90728
201.21        83.48052
201.67         75.0022
202.13        69.40702
202.58        67.14761
203.04        67.54549
203.50        69.40307
203.96        70.61656
204.42        70.56761
204.88        69.96346
205.34        69.51572
205.80        70.04195
206.26        72.10464
206.72        76.83276
207.18        86.16315
207.64        95.19868
208.10        91.21664
208.55        80.35597
209.01        73.30347
209.47        71.36526
209.93        72.54502
210.39        76.10677
210.85        79.62211
211.31        78.03379
211.77        70.37833
212.23        58.80384
212.69        48.48243
213.14        47.37099
213.60        56.47916
214.06         73.2238
214.52        91.65871
214.98         102.606
215.44        103.6885
215.90        98.01495
216.36        89.05193
216.81        81.63445
217.27         77.7075
217.73        75.82832
218.19        74.62882
218.65        72.29364
219.11        67.90427
219.57        60.98904
220.02        52.70845
220.48        49.06223
220.94        52.74153
221.40        61.92958
221.86        69.16833
222.32        67.07692
222.77        57.29242
223.23        44.57136
223.69        34.31515
224.15        32.05833
224.61        37.00219
225.06        46.27155
225.52        55.66829
225.98        59.71347
226.44         57.4746
226.90        51.27487
227.36        44.15567
227.81        40.26086
228.27        40.73379
228.73        43.81838
229.19        47.88989
229.65        50.59501
230.10        51.32643
230.56        51.12143
231.02        50.53616
231.48        50.10829
231.93        49.95443
232.39        49.79114
232.85        49.68615
233.31        49.87682
233.77        50.36541
234.22        51.18833
234.68        51.96926
235.14         51.8935
235.60        50.80819
236.05        48.99432
236.51        47.17748
236.97        46.33749
237.43        46.76417
237.88        48.49984
238.34        51.10692
238.80        53.29918
239.26        54.23206
239.71        54.09422
240.17        53.53871
240.63        54.45828
241.08        57.38723
241.54         61.5448
242.00        65.85938
242.46        69.16996
242.91        71.69085
243.37        74.13506
243.83        79.94167
244.28        105.6783
244.74        149.5902
245.20        142.8247
245.66        128.3988
246.11        124.9494
246.57        129.5426
247.03        146.6875
247.48        195.8111
247.94        165.5748
248.40        111.8376
248.85        95.93924
249.31        91.43671
249.77        90.70721
250.22         91.8765
250.68        94.75491
251.14        99.10979
251.59        101.6302
252.05        99.40302
252.51        94.22691
252.96        88.56222
253.42        85.19631
253.88        83.69711
254.33         83.0002
254.79        83.77821
255.25        86.30943
255.70        89.77021
256.16         93.7534
256.62        96.35753
257.07        95.66174
257.53        92.52972
257.99         87.6349
258.44        82.64683
258.90        80.47899
259.35        80.17101
259.81        80.68884
260.27        80.26129
260.72        77.18983
261.18        72.29604
261.63        66.33884
262.09        60.82103
262.55        56.75295
263.00        54.12447
263.46        52.54389
263.91        51.28934
264.37        49.90454
264.83        48.14823
265.28         46.0969
265.74        44.08749
266.19         42.3699
266.65        41.19972
267.11        40.41323
267.56        39.75587
268.02         38.9128
268.47         37.7568
268.93        36.37706
269.38         34.9461
269.84         33.9758
270.30        33.57366
270.75        33.60706
271.21        33.70886
271.66        33.33066
272.12        32.36186
272.57        30.98746
273.03        29.61905
273.48        28.79062
273.94        28.63581
274.39        28.92485
274.85        29.32512
275.31        29.33643
275.76         28.8391
276.22        28.02873
276.67         27.1331
277.13        26.57651
277.58        26.38373
278.04         26.4278
278.49        26.45758
278.95         26.1925
279.40        25.56136
279.86        24.74446
280.31         23.8799
280.77        23.27705
281.22        22.96189
281.68        22.85579
282.13         22.8477
282.59        22.81741
283.04        22.71996
283.50        22.63233
283.95        22.53239
284.41        22.40326
284.86        22.24158
285.32        22.04569
285.77        21.90173
286.22        22.00652
286.68        22.35162
287.13        22.85022
287.59        23.29107
288.04        23.34929
288.50        23.00577
288.95        22.36244
289.41        21.67207
289.86        21.20938
290.32        21.09587
290.77        21.22531
291.22        21.51862
291.68        21.81404
292.13        22.07398
292.59        22.36686
293.04        22.74224
293.50         23.2715
293.95        23.95965
294.40        24.74802
294.86         25.5994
295.31        26.47617
295.77        27.37017
296.22        28.30019
296.68        29.25056
297.13        30.15922
297.58        31.03416
298.04        31.90392
298.49        32.84482
298.95        34.02739
299.40        35.46675
299.85        37.10285
300.31        38.81077
300.76        40.38978
301.21        41.75764
301.67        42.99707
302.12        44.11734
302.58        45.22501
303.03        46.33998
303.48        47.46569
303.94        48.69706
304.39        50.12458
304.84        51.76224
305.30        53.56791
305.75        55.37396
306.20        56.94189
306.66        58.23357
307.11        59.27324
307.57        60.21397
308.02        61.18095
308.47        62.27128
308.93        63.45525
309.38        64.68111
309.83        65.91549
310.29        67.12406
310.74        68.28242
311.19        69.40407
311.65        70.50751
312.10        71.58073
312.55        72.62597
313.00        73.54286
313.46        74.18013
313.91        74.50606
314.36         74.5864
314.82        74.63685
315.27        74.94561
315.72        75.60517
316.18        76.53564
316.63        77.55326
317.08        78.30649
317.53        78.69543
317.99        78.80955
318.44        78.85245
318.89        79.16022
319.35        79.79244
319.80        80.66475
320.25         81.5285
320.70        81.97672
321.16        81.91861
321.61        81.49515
322.06        80.97427
322.51        80.77426
322.97        80.98145
323.42        81.50204
323.87        82.13278
324.32        82.52578
324.78        82.56951
325.23        82.41042
325.68        82.17455
326.13        82.08946
326.59        82.20449
327.04        82.46477
327.49        82.80689
327.94        83.15855
328.39        83.48463
328.85        83.80461
329.30        84.13228
329.75        84.33745
330.20        84.42254
330.66        84.40224
331.11        84.46397
331.56          84.842
332.01        85.59667
332.46        86.64601
332.92        87.79847
333.37        88.86576
333.82         89.6655
334.27        90.24639
334.72        90.59814
335.17        90.73597
335.63        90.70421
336.08        90.54275
336.53         90.3776
336.98        90.45351
337.43          90.829
337.88        91.44852
338.34        92.18617
338.79        92.90611
339.24        93.50461
339.69        94.03263
340.14        94.44366
340.59         94.6657
341.05        94.71132
341.50        94.58851
341.95        94.45496
342.40        94.56819
342.85        94.98341
343.30        95.64371
343.75        96.37728
344.20        96.87268
344.66         97.0443
345.11        96.94817
345.56        96.74417
346.01        96.67767
346.46        96.81178
346.91        97.07954
347.36        97.34148
347.81         97.3848
348.26        97.18041
348.72        96.82951
349.17        96.48651
349.62        96.45106
350.07         96.7749
350.52        97.33315
350.97        97.93273
351.42        98.28706
351.87        98.31904
352.32        98.12192
352.77         97.7763
353.22        97.41286
353.67        97.09115
354.13         96.7868
354.58        96.50162
355.03        96.29824
355.48        96.17533
355.93        96.12398
356.38        96.07538
356.83           95.91
357.28        95.59142
357.73        95.13943
358.18         94.6011
358.63         94.0586
359.08         93.5428
359.53        93.04631
359.98         92.5344
360.43        91.94963
360.88        91.28639
361.33        90.56556
361.78        89.87235
362.23        89.34071
362.68        88.99178
363.13        88.78179
363.58        88.57946
364.03        88.17563
364.48        87.52923
364.93        86.70966
365.38        85.84667
365.83        85.15529
366.28        84.68639
366.73        84.35468
367.18        84.08408
367.63        83.75307
368.08        83.32233
368.53        82.85654
368.98        82.33155
369.43        81.69441
369.88        80.95745
370.33        80.13065
370.78        79.35249
371.23        78.86274
371.68        78.70934
372.13        78.82337
372.58        79.02914
373.03        79.01929
373.48        78.70985
373.93        78.19741
374.38        77.60615
374.83        77.12911
375.28        76.81573
375.72         76.5768
376.17        76.39134
376.62        76.20501
377.07        75.98558
377.52        75.75423
377.97        75.46667
378.42         75.0455
378.87        74.50107
379.32        73.87981
379.77        73.25937
380.22        72.74939
380.67        72.36338
381.11        72.05618
381.56        71.80129
382.01        71.55938
382.46        71.31632
382.91        71.10565
383.36        70.86096
383.81        70.47915
384.26        69.96121
384.71        69.33082
385.15        68.73709
385.60        68.46725
386.05        68.51533
386.50        68.79032
386.95        69.05992
387.40         68.9332
387.85        68.36474
388.29        67.50579
388.74        66.68429
389.19        66.10493
389.64        65.80759
390.09        65.67837
390.54        65.69777
390.98        65.83122
391.43        66.02199
391.88        66.25787
392.33        66.39545
392.78        66.14542
393.23        65.51378
393.67        64.79402
394.12        64.22633
394.57        63.51009
395.02        62.91235
395.47        63.35615
395.91        64.64237
396.36        65.36569
396.81        65.33743
397.26        65.24265
397.71         65.1362
398.15        64.77618
398.60        64.29335
399.05        63.75827
399.50        63.24184
399.95        62.66599
400.39        62.33118
400.84        62.03234
401.29         61.8461
401.74          61.773
402.18        61.82296
402.63        61.93153
403.08        62.11763
403.53        62.40122
403.97        62.74986
404.42         63.1169
404.87        63.36201
405.32        63.24074
405.76        62.72661
406.21        62.02647
406.66        61.32349
407.11        60.80684
407.55        60.63171
408.00        60.83716
408.45        61.31164
408.90        61.90289
409.34        62.29297
409.79         61.8573
410.24        60.89552
410.68        60.49826
411.13        60.76703
411.58        61.09568
412.03        61.37533
412.47        61.68853
412.92        61.92971
413.37        62.10869
413.81        62.17589
414.26        62.09404
414.71        61.85428
415.15         61.4612
415.60        61.03556
416.05        60.79013
416.49        60.78138
416.94        60.98573
417.39        61.22237
417.83        61.16196
418.28        60.75924
418.73        60.12693
419.17          59.547
419.62        59.46387
420.07        59.91528
420.51        60.73817
420.96        61.61895
421.41         61.9727
421.85        61.64493
422.30        61.09264
422.74        60.47368
423.19        59.74107
423.64        59.12116
424.08        59.37238
424.53        60.33255
424.98        60.92636
425.42        60.99408
425.87        61.31676
426.31        61.82517
426.76        61.62443
427.21        60.96918
427.65        61.10891
428.10        61.97018
428.54        62.60838
428.99        62.97913
429.44        63.15129
429.88        63.16534
430.33        63.95669
430.77        64.89919
431.22        63.83114
431.66        61.33869
432.11        60.12714
432.56        60.47701
433.00         61.3796
433.45         62.6241
433.89        64.29222
434.34        65.11381
434.78        66.23688
435.23        62.60204
435.67        60.98985
436.12        62.95758
436.57        64.08403
437.01        64.78734
437.46        65.12501
437.90        65.21503
438.35        64.95638
438.79        65.28412
439.24        65.18008
439.68        64.96535
440.13         64.5699
440.57        64.29156
441.02        65.05824
441.46        66.49551
441.91        67.16074
442.35        66.90278
442.80        66.24242
443.24        65.50201
443.69        66.06866
444.13        67.59505
444.58        67.53915
445.02        66.11414
445.47        65.97462
445.91        67.02396
446.36        67.29384
446.80         66.7081
447.24        66.61973
447.69        66.56119
448.13        66.79179
448.58        67.15541
449.02        67.66816
449.47        68.20433
449.91        68.58154
450.36        68.75152
450.80        68.74229
451.25        68.60593
451.69        68.39959
452.13        68.18182
452.58        67.94769
453.02        67.75575
453.47        67.73301
453.91        67.87133
454.36        68.14776
454.80        68.48302
455.24        68.54436
455.69        68.27298
456.13        68.08145
456.58        68.11177
457.02        67.16798
457.46        66.98323
457.91        67.21504
458.35        68.03854
458.79        68.31113
459.24        68.01331
459.68        67.58797
460.13        67.13547
460.57        66.90639
461.01        67.06454
461.46        66.19463
461.90        66.44952
462.34        66.80437
462.79        66.65462
463.23        66.86068
463.68        67.04748
464.12        67.32796
464.56        67.57016
465.01         67.6683
465.45        67.53378
465.89        67.20062
466.34        66.67191
466.78        65.99905
467.22        65.61047
467.67         64.6553
468.11        65.97349
468.55        66.53944
468.99        66.90028
469.44        66.69279
469.88        66.11404
470.32        66.08103
470.77        66.51694
471.21        66.54939
471.65        66.14211
472.10        65.93492
472.54        65.97295
472.98        66.02055
473.42        66.07069
473.87        66.29255
474.31        66.54895
474.75         66.4614
475.20        66.14464
475.64        65.94926
476.08        66.31261
476.52        66.28771
476.97        65.93917
477.41        66.04094
477.85        66.60796
478.29        65.68687
478.74        66.47152
479.18        66.66518
479.62        65.68706
480.06        66.28561
480.50        66.58216
480.95        66.95387
481.39        66.98347
481.83        66.12941
482.27         66.1794
482.72        66.25163
483.16        65.01151
483.60        65.21124
484.04        66.53242
484.48        67.27468
484.93         67.2253
485.37        68.16457
485.81        68.10425
486.25        67.38525
486.69        90.66714
487.14        73.02479
487.58           45.99
488.02        56.73929
488.46        64.30125
488.90        64.29771
489.34         65.7649
489.79        65.28911
490.23        67.54755
490.67        68.39172
491.11        67.27135
491.55        67.11033
491.99        67.55516
492.43        67.34924
492.88        66.59907
493.32        66.58157
493.76        66.82052
494.20        67.13681
494.64        67.28059
495.08         67.5615
495.52        67.94608
495.96        67.85089
496.41        67.35733
496.85        67.75985
497.29        68.78389
497.73        67.90201
498.17        66.00507
498.61        66.17873
499.05         68.4397
499.49        68.88663
499.93        68.98486
500.37        68.65982
500.82        67.89259
501.26        67.94573
501.70        68.56342
502.14        68.92942
502.58        68.84012
503.02        68.69424
503.46        68.47857
503.90        67.93373
504.34        67.28294
504.78        67.01685
505.22        67.21326
505.66        67.73271
506.10        68.37556
506.54        68.72455
506.98        68.64021
507.42        68.38982
507.86        68.17499
508.30        67.54086
508.74        67.98317
509.18        68.22601
509.62        68.56259
510.06         68.7681
510.50        68.79372
510.94         68.6973
511.38        68.54904
511.82        68.48798
512.26        68.55007
512.70        68.68074
513.14        68.81349
513.58        68.93147
514.02        69.02161
514.46        68.94416
514.90        68.69267
515.34        69.04321
515.78        68.71085
516.22         68.7812
516.66        68.84683
517.10        68.72145
517.54        68.39131
517.98        68.54177
518.42        68.31876
518.86        68.41615
519.30        68.56865
519.74        68.82644
520.18         69.1183
520.62         69.3203
521.06        69.40961
521.50        69.41537
521.93        69.36553
522.37        69.30815
522.81        69.26809
523.25        69.22799
523.69         69.2092
524.13        69.24799
524.57        69.34334
525.01        69.48484
525.45        69.62449
525.89        69.68202
526.32        69.63602
526.76         69.5116
527.20        69.34698
527.64        69.24453
528.08        69.24786
528.52        69.20665
528.96        69.08547
529.40        69.18114
529.83        69.44405
530.27        68.78172
530.71        68.66398
531.15        68.47015
531.59        68.64373
532.03        68.89684
532.46           69.18
532.90        69.47421
533.34        69.71945
533.78        69.91752
534.22        70.03159
534.66        70.01709
535.09        69.86915
535.53        69.62303
535.97        69.33044
536.41         69.1218
536.85        69.03787
537.28        68.95894
537.72        69.02554
538.16        69.04018
538.60        69.03693
539.04        68.98881
539.47         68.9071
539.91        68.97289
540.35        69.13029
540.79        69.12077
541.22        68.95402
541.66        69.00095
542.10        69.05069
542.54        69.12392
542.97        69.15507
543.41        69.23586
543.85        69.35052
544.29        69.49736
544.72          69.594
545.16        69.52832
545.60        69.28252
546.04        68.91962
546.47        68.59232
546.91        68.50395
547.35        68.72344
547.79        69.30424
548.22        69.97034
548.66        70.23248
549.10        69.96577
549.53        69.21992
549.97        68.35079
550.41        67.95792
550.84        68.15779
551.28        68.71413
551.72        69.39599
552.15        69.82348
552.59         69.8737
553.03        69.79868
553.46        69.49543
553.90        69.35509
554.34        69.35649
554.77        69.42575
555.21        69.53403
555.65         69.4457
556.08        69.80599
556.52        69.31055
556.96        69.73646
557.39        69.50478
557.83        69.22035
558.27        69.25117
558.70        69.58241
559.14        69.83807
559.57        69.95269
560.01        70.12835
560.45        70.33379
560.88        70.43159
561.32        70.39578
561.75        70.25512
562.19        70.06266
562.63        69.54449
563.06        68.93108
563.50        69.06821
563.93        69.78596
564.37        70.13145
564.80        69.98443
565.24         69.8273
565.68        69.73001
566.11        69.65356
566.55        69.66584
566.98        69.72079
567.42        69.79899
567.85         69.8937
568.29        70.03608
568.72        70.02351
569.16        70.02896
569.60         70.4025
570.03        70.79405
570.47        70.71443
570.90        70.43076
571.34        68.79141
571.77        69.26443
572.21        69.74863
572.64        68.92882
573.08        68.43018
573.51        65.30605
573.95        67.86636
574.38        72.05824
574.82        70.13811
