SpectraSmart Spectrum 2.9.0.0
--------- Device Information -----------
Spectrum Name :  反射率_0
Saving Time :  2024/04/26 01:38:05
Spectro-Module Model Name : SE2030-DUVN
Spectro-Module Serial Number : OS361AC55029948
Wavelength Start : 200
Wavelength End : 1025
Wavelength Unit : Wavelength(nm)
Spectrum Unit : Reflectance(%)
-----------Spectrum Setting ------------
Integration Time : 20ms
Average : 10
Boxcar : 0
Background removal :  enabled
linearity correction :  enabled
SC :  disabled
Intensity correction :  disabled
DWT denoise :  enabled
savitzky-golay :  disabled
FFT :  disabled
Running average :  disabled
Kalman :  disabled
High pass :  disabled
---------------BEGIN--------------------
Wavelength(nm)             Reflectance(%)
200.29               0
200.75        100.7813
201.21        93.62228
201.67        84.91326
202.13        78.99818
202.58        76.51977
203.04        76.78908
203.50        78.23985
203.96        78.35873
204.42         76.7172
204.88        74.27322
205.34        72.49343
205.80         73.0019
206.26         76.6426
206.72        85.60367
207.18        103.0765
207.64         116.945
208.10        104.3661
208.55        82.22072
209.01        68.98688
209.47        65.38061
209.93         67.4675
210.39        73.27567
210.85        80.35419
211.31         83.1851
211.77        79.79446
212.23        72.38259
212.69        64.42433
213.14        61.25714
213.60        63.82066
214.06        70.61154
214.52        78.99648
214.98        84.96329
215.44        87.19268
215.90        86.81239
216.36        85.17041
216.81        83.94991
217.27        83.90762
217.73        84.39042
218.19        84.30402
218.65        82.16806
219.11        77.25626
219.57        68.71355
220.02         57.5011
220.48        50.31745
220.94        50.98082
221.40        58.12192
221.86        64.91052
222.32        63.97149
222.77        56.24353
223.23        46.04548
223.69        37.57003
224.15        35.09288
224.61        38.03539
225.06         44.1077
225.52        50.25629
225.98        52.74303
226.44        50.90826
226.90         46.4534
227.36        41.32325
227.81        38.08058
228.27         37.6113
228.73        38.77824
229.19        40.88778
229.65        42.92725
230.10        44.42227
230.56        45.68228
231.02        46.59039
231.48        46.96079
231.93        46.84915
232.39        46.28991
232.85        45.59814
233.31        45.35358
233.77        45.66051
234.22        46.39536
234.68        47.18284
235.14         47.2057
235.60        46.30813
236.05        44.88736
236.51        43.49042
236.97        42.80874
237.43        43.10916
237.88        44.40039
238.34        46.75493
238.80        50.07486
239.26        53.93815
239.71         58.2258
240.17        62.22853
240.63        65.46909
241.08        67.85116
241.54        69.17417
242.00        69.91068
242.46        71.02439
242.91        73.50775
243.37        78.91337
243.83        95.08858
244.28        146.7938
244.74        204.0715
245.20        171.3832
245.66        142.5043
246.11        135.9504
246.57         143.774
247.03        173.9448
247.48        266.6457
247.94        233.6701
248.40        138.1089
248.85        107.2201
249.31        97.51033
249.77        95.54414
250.22        97.52704
250.68        102.8214
251.14        111.0484
251.59        116.4278
252.05        113.3335
252.51        104.7068
252.96        95.10616
253.42        89.05193
253.88        86.12232
254.33        84.64661
254.79        85.21786
255.25        88.06715
255.70        92.07023
256.16        96.63543
256.62        99.57614
257.07        98.65059
257.53        94.84894
257.99        89.12675
258.44        83.23652
258.90         80.2303
259.35        79.24635
259.81        79.18413
260.27        78.49113
260.72         75.6831
261.18        71.41065
261.63        66.25394
262.09        61.33968
262.55        57.24248
263.00        54.06728
263.46        51.73203
263.91        49.83366
264.37        48.23438
264.83        46.68361
265.28        45.08434
265.74         43.6407
266.19        42.39057
266.65        41.49855
267.11        40.87375
267.56        40.26227
268.02        39.34517
268.47        38.02164
268.93        36.38506
269.38        34.69072
269.84        33.61254
270.30        33.30367
270.75        33.58829
271.21        34.00941
271.66        33.87458
272.12        33.02814
272.57        31.68459
273.03        30.28972
273.48        29.43423
273.94        29.26641
274.39        29.53372
274.85        29.88231
275.31        29.78307
275.76        29.12397
276.22        28.13395
276.67        27.07722
277.13        26.42549
277.58        26.21183
278.04        26.28481
278.49          26.383
278.95        26.20988
279.40        25.68315
279.86        24.98892
280.31        24.22663
280.77        23.65096
281.22        23.28206
281.68        23.05024
282.13        22.91482
282.59        22.85999
283.04        22.84856
283.50        22.92414
283.95        22.96634
284.41        22.80714
284.86        22.42689
285.32        21.88924
285.77        21.39839
286.22        21.32555
286.68        21.69705
287.13        22.36307
287.59        23.02497
288.04        23.22927
288.50        22.91896
288.95        22.23492
289.41         21.4686
289.86        20.94954
290.32        20.81794
290.77        20.95329
291.22        21.25541
291.68        21.53487
292.13        21.75212
292.59        21.98577
293.04        22.32498
293.50        22.90096
293.95        23.71798
294.40         24.6836
294.86         25.6933
295.31        26.60719
295.77        27.39806
296.22         28.1256
296.68        28.82008
297.13        29.49813
297.58        30.19964
298.04        30.92806
298.49        31.77599
298.95        32.93476
299.40         34.4108
299.85        36.14266
300.31        37.93438
300.76        39.46846
301.21        40.64975
301.67        41.60144
302.12        42.43159
302.58         43.3938
303.03        44.53101
303.48        45.78815
303.94        47.18263
304.39        48.68602
304.84        50.28479
305.30         51.9892
305.75        53.66165
306.20        55.10749
306.66        56.31114
307.11        57.27713
307.57        58.19344
308.02        59.24475
308.47        60.52162
308.93         61.9722
309.38        63.45721
309.83        64.80104
310.29        65.94328
310.74        66.90575
311.19        67.79446
311.65        68.77348
312.10        69.86876
312.55        71.04083
313.00        72.13029
313.46        72.88506
313.91        73.24382
314.36        73.30869
314.82        73.33251
315.27        73.65809
315.72        74.39223
316.18        75.43137
316.63        76.57104
317.08        77.43059
317.53        77.89756
317.99        78.07019
318.44        78.15996
318.89         78.5135
319.35        79.19656
319.80        80.12412
320.25        81.04096
320.70        81.53028
321.16        81.49947
321.61        81.09026
322.06         80.5921
322.51        80.45655
322.97        80.77398
323.42        81.44217
323.87         82.2169
324.32        82.67857
324.78        82.70074
325.23        82.45412
325.68        82.11995
326.13        82.01614
326.59        82.21753
327.04        82.64332
327.49        83.18708
327.94         83.7054
328.39         84.1329
328.85         84.4977
329.30        84.83425
329.75        85.04713
330.20        85.15132
330.66        85.15919
331.11        85.22329
331.56        85.52181
332.01         86.1147
332.46        86.94361
332.92        87.91029
333.37        88.98953
333.82        90.03838
334.27        91.05354
334.72        91.89881
335.17        92.36986
335.63        92.43938
336.08        92.20706
336.53        91.87071
336.98        91.80055
337.43        92.10503
337.88        92.69106
338.34        93.44562
338.79        94.25562
339.24        95.01468
339.69        95.78537
340.14        96.46265
340.59        96.85718
341.05        96.95316
341.50         96.7823
341.95        96.57772
342.40        96.72433
342.85        97.29465
343.30        98.17578
343.75         99.1343
344.20        99.74703
344.66        99.90246
345.11        99.72826
345.56        99.38722
346.01        99.12314
346.46        99.02994
346.91        99.03519
347.36        99.14253
347.81        99.36597
348.26        99.68781
348.72        100.1253
349.17         100.575
349.62        100.9049
350.07        101.0721
350.52        101.0988
350.97        101.0411
351.42        101.0014
351.87        101.0122
352.32         101.048
352.77        101.0834
353.22        101.0784
353.67        101.0209
354.13        100.9384
354.58        100.8273
355.03        100.7339
355.48        100.6586
355.93        100.5812
356.38        100.4494
356.83        100.1876
357.28        99.77876
357.73        99.24295
358.18        98.64228
358.63        98.07437
359.08        97.56898
359.53        97.11388
359.98        96.64784
360.43        96.06952
360.88        95.36127
361.33        94.55431
361.78        93.75202
362.23        93.11883
362.68        92.69321
363.13         92.4347
363.58        92.20551
364.03        91.78606
364.48        91.13062
364.93        90.30119
365.38        89.45892
365.83        88.85943
366.28        88.53455
366.73        88.42702
367.18        88.38196
367.63        87.99329
368.08        87.17051
368.53        86.67234
368.98         85.5099
369.43        84.70478
369.88        83.99163
370.33        83.34727
370.78        82.81338
371.23        82.48618
371.68        82.37266
372.13        82.43932
372.58        82.54531
373.03         82.4409
373.48        82.06929
373.93         81.5052
374.38        80.88432
374.83        80.42329
375.28        80.17184
375.72        80.03874
376.17        79.97508
376.62        79.87718
377.07        79.69328
377.52        79.44553
377.97        79.11015
378.42        78.64549
378.87        78.07575
379.32        77.45149
379.77        76.81776
380.22        76.23409
380.67        75.71523
381.11        75.23315
381.56        74.84486
382.01        74.64558
382.46        74.63743
382.91        74.80128
383.36        74.94068
383.81        74.74487
384.26        74.16832
384.71        73.30323
385.15        72.41061
385.60        71.94925
386.05        71.95412
386.50         72.2785
386.95        72.64223
387.40        72.57267
387.85        71.99666
388.29        71.10043
388.74        70.22421
389.19        69.57103
389.64        69.18487
390.09        68.93847
390.54        68.84675
390.98        68.94704
391.43        69.19643
391.88        69.55715
392.33        69.82398
392.78        69.65645
393.23        69.02464
393.67        68.21166
394.12          67.255
394.57        66.64913
395.02        66.44512
395.47        66.80645
395.91        67.60435
396.36        68.21356
396.81        68.49808
397.26        68.70049
397.71        68.76377
398.15         68.4515
398.60        67.88005
399.05        67.15858
399.50        66.44851
399.95         65.7548
400.39        65.44084
400.84        65.32127
401.29        65.40794
401.74        65.56049
402.18        65.69752
402.63        65.65696
403.08        65.54774
403.53        65.67775
403.97        66.05385
404.42        66.47747
404.87        66.77834
405.32         66.7049
405.76        66.20818
406.21         65.5505
406.66         64.8948
407.11        64.29347
407.55        63.94521
408.00        64.13377
408.45        64.75067
408.90        65.37194
409.34        65.69057
409.79        65.34875
410.24        64.57955
410.68        64.20653
411.13        64.32016
411.58        64.42472
412.03        64.49352
412.47        64.72335
412.92        65.04568
413.37        65.43088
413.81        65.74554
414.26        65.82575
414.71        65.63036
415.15        65.20339
415.60        64.70965
416.05        64.43678
416.49         64.4603
416.94        64.71716
417.39        65.01709
417.83        65.01523
418.28        64.65783
418.73        64.08264
419.17        63.52963
419.62        63.37585
420.07        63.65741
420.51        64.23089
420.96        64.89886
421.41        65.24508
421.85        65.13055
422.30        65.01518
422.74        64.88206
423.19        64.27435
423.64        63.46487
424.08        63.69441
424.53        64.81649
424.98        65.39877
425.42        65.29207
425.87        65.52875
426.31         66.0781
426.76        65.95016
427.21        65.41172
427.65        65.79683
428.10        66.97173
428.54        67.80064
428.99        68.19449
429.44        68.35874
429.88        68.32295
430.33        68.82954
430.77        69.36457
431.22        68.18844
431.66        65.84212
432.11        64.62282
432.56        64.82782
433.00        65.82463
433.45        67.44823
433.89        69.43413
434.34        70.30021
434.78        71.75728
435.23        67.87349
435.67        65.56271
436.12         68.5914
436.57        69.56841
437.01        69.63152
437.46         69.8664
437.90        70.48296
438.35        69.34255
438.79        70.26518
439.24        70.18861
439.68        69.94958
440.13        69.84866
440.57        69.99889
441.02        70.60706
441.46         71.4465
441.91         72.3905
442.35        73.05727
442.80        72.50105
443.24         71.1764
443.69        71.75787
444.13        73.83468
444.58         73.8409
445.02        72.00294
445.47        71.54884
445.91        72.46215
446.36        72.73114
446.80        72.31704
447.24        72.27974
447.69        72.62274
448.13        72.90343
448.58        73.10497
449.02        73.28529
449.47        73.42921
449.91        73.62728
450.36         73.8968
450.80        74.01308
451.25        73.88662
451.69         74.2775
452.13         73.7285
452.58        73.47775
453.02        73.19524
453.47         73.1198
453.91        73.25171
454.36        73.53936
454.80        73.91321
455.24         74.0347
455.69        73.84061
456.13         73.7683
456.58        73.87453
457.02        73.03535
457.46        72.33576
457.91        72.68315
458.35        73.68364
458.79        74.15366
459.24        73.94584
459.68        73.71328
460.13        73.48949
460.57         73.2913
461.01        73.29819
461.46        72.11219
461.90        72.04092
462.34        72.01558
462.79        71.98864
463.23        71.47425
463.68        72.51464
464.12        72.97636
464.56        73.39474
465.01        73.42044
465.45        72.97678
465.89        73.22326
466.34        72.88486
466.78        71.84116
467.22         70.3814
467.67        69.59661
468.11        71.08463
468.55         71.9057
468.99        72.14771
469.44        71.90735
469.88        71.37245
470.32        71.31615
470.77        71.67403
471.21        71.59417
471.65        71.05503
472.10        70.72404
472.54        70.66768
472.98        70.65291
473.42        70.67093
473.87        70.93536
474.31        71.28896
474.75        71.20667
475.20         70.7909
475.64         70.7748
476.08        71.18252
476.52         71.1946
476.97        70.73695
477.41        71.15158
477.85        71.26467
478.29        70.77358
478.74        71.46046
479.18        71.58769
479.62        70.41913
480.06        70.99565
480.50        71.39697
480.95        71.78576
481.39        71.67619
481.83        71.01007
482.27        70.84169
482.72        70.88523
483.16        69.39902
483.60        69.67915
484.04        71.11789
484.48        71.39107
484.93        71.02042
485.37        72.65154
485.81        73.78705
486.25        72.38114
486.69        98.17316
487.14        79.85787
487.58        49.49503
488.02        60.83422
488.46        69.30476
488.90        68.19427
489.34        69.63004
489.79        69.50543
490.23         71.1993
490.67        72.16436
491.11        71.10503
491.55        71.04014
491.99        71.60884
492.43        71.44252
492.88        70.68639
493.32        70.65604
493.76        70.85808
494.20        71.12785
494.64        71.20396
495.08        71.40396
495.52        71.71916
495.96        71.55041
496.41        70.98348
496.85        71.45452
497.29        72.60799
497.73        71.51017
498.17        69.16752
498.61        69.20611
499.05        71.67027
499.49        72.16072
499.93        72.19387
500.37        71.97616
500.82        71.39245
501.26        71.32783
501.70        71.59028
502.14        71.85134
502.58         71.9408
503.02        71.91747
503.46        71.76076
503.90        71.44587
504.34        71.10504
504.78        70.91061
505.22        70.90546
505.66        71.20275
506.10        71.70481
506.54        71.82262
506.98        71.41626
507.42        71.75316
507.86        71.35639
508.30        70.87856
508.74        71.34383
509.18        71.55845
509.62        71.81387
510.06        71.87711
510.50        71.73029
510.94        71.41544
511.38        71.07371
511.82        70.95827
512.26        71.11915
512.70        71.47688
513.14        71.88925
513.58        72.12454
514.02        72.11265
514.46        71.92051
514.90         71.6615
515.34        71.49804
515.78        71.46824
516.22        71.58138
516.66        71.75885
517.10        71.71481
517.54        71.41911
517.98        71.50343
518.42        71.21384
518.86         71.2919
519.30        71.51703
519.74        71.80116
520.18        72.00859
520.62         72.4589
521.06        72.25676
521.50        72.14841
521.93        71.95242
522.37        71.81109
522.81         71.7653
523.25         71.7865
523.69        71.86975
524.13        71.98564
524.57        72.11948
525.01        72.27886
525.45        72.43327
525.89        72.53065
526.32        72.55025
526.76        72.49754
527.20        72.39743
527.64        72.31822
528.08        72.29522
528.52        72.24339
528.96        72.11713
529.40        72.07735
529.83        72.14463
530.27         71.4883
530.71        71.59159
531.15        71.48489
531.59          71.612
532.03        71.85301
532.46        72.17919
532.90        72.52731
533.34        72.83478
533.78        73.10092
534.22        73.27396
534.66        73.28947
535.09        73.13444
535.53        72.86256
535.97        72.51833
536.41        72.19737
536.85        71.94566
537.28        71.75742
537.72        71.64496
538.16        71.63261
538.60        71.71303
539.04        71.81702
539.47        71.90574
539.91        72.11215
540.35        72.33874
540.79         72.2946
541.22        72.02677
541.66        71.90746
542.10        71.95747
542.54        71.96983
542.97        71.95277
543.41        72.03334
543.85        72.19603
544.29        72.42985
544.72        72.61779
545.16        72.59233
545.60        72.32124
546.04        71.89286
546.47        71.49207
546.91        71.34321
547.35        71.54034
547.79        72.19711
548.22        72.98646
548.66        73.25423
549.10        72.86845
549.53        72.01443
549.97        71.08466
550.41         70.6175
550.84        70.72121
551.28        71.37827
551.72        72.07424
552.15        72.49052
552.59        72.38528
553.03        72.54355
553.46        72.00976
553.90        71.88304
554.34         71.8895
554.77        72.01859
555.21        72.22919
555.65        72.01577
556.08        72.49747
556.52        71.90578
556.96        72.24938
557.39        72.05014
557.83        71.88635
558.27        71.85101
558.70        71.95871
559.14        72.12814
559.57        72.30927
560.01        72.51855
560.45        72.71275
560.88        72.86315
561.32        72.90379
561.75        72.71643
562.19        72.38445
562.63        71.77291
563.06        71.12916
563.50        71.27083
563.93        72.00889
564.37        72.32203
564.80        72.11003
565.24        71.97478
565.68        71.96648
566.11         71.9502
566.55        71.99323
566.98        72.02969
567.42        72.07905
567.85        72.33279
568.29        72.74653
568.72        72.75049
569.16        72.57674
569.60        72.90604
570.03        73.37833
570.47        73.39635
570.90        73.20491
571.34        71.28077
571.77        72.26886
572.21        72.59399
572.64        71.83089
573.08        70.88456
573.51        67.73157
573.95         70.4804
574.38        75.07498
574.82        73.17279
