SpectraSmart Spectrum 2.9.0.0
--------- Device Information -----------
Spectrum Name :  反射率_0
Saving Time :  2024/04/26 02:01:11
Spectro-Module Model Name : SE2030-DUVN
Spectro-Module Serial Number : OS361AC55029948
Wavelength Start : 200
Wavelength End : 1025
Wavelength Unit : Wavelength(nm)
Spectrum Unit : Reflectance(%)
-----------Spectrum Setting ------------
Integration Time : 20ms
Average : 10
Boxcar : 0
Background removal :  enabled
linearity correction :  enabled
SC :  disabled
Intensity correction :  disabled
DWT denoise :  enabled
savitzky-golay :  disabled
FFT :  disabled
Running average :  disabled
Kalman :  disabled
High pass :  disabled
---------------BEGIN--------------------
Wavelength(nm)             Reflectance(%)
200.29               0
200.75        86.21964
201.21        81.81194
201.67         77.0241
202.13        73.20673
202.58        70.52547
203.04        69.00494
203.50        68.64783
203.96        69.48881
204.42        71.10624
204.88         72.9907
205.34        74.85777
205.80        76.74465
206.26        79.10645
206.72        83.14756
207.18        89.55714
207.64        92.12235
208.10        83.25504
208.55        72.08286
209.01        66.44577
209.47        66.02319
209.93        68.87135
210.39        74.65899
210.85        81.13439
211.31        82.99821
211.77        78.61275
212.23         69.7264
212.69        61.10541
213.14        60.24693
213.60        68.14448
214.06        82.51212
214.52        97.53357
214.98        104.3533
215.44        101.1558
215.90        91.23244
216.36        79.39063
216.81         72.3012
217.27        71.61784
217.73        74.90434
218.19        78.79433
218.65        79.03661
219.11        74.24936
219.57        64.09261
220.02        50.63975
220.48        43.92474
220.94        49.09594
221.40         62.7565
221.86        74.53933
222.32        74.11326
222.77        63.31058
223.23        48.54682
223.69         36.1626
224.15        32.50384
224.61        36.82062
225.06        45.74078
225.52        55.06013
225.98        59.39664
226.44        57.70546
226.90        52.28633
227.36        45.71873
227.81        41.43874
228.27        40.56765
228.73        41.65943
229.19        43.74316
229.65        45.46222
230.10        46.33203
230.56        46.89846
231.02        47.27254
231.48        47.48238
231.93        47.57687
232.39        47.49612
232.85        47.34156
233.31        47.38156
233.77        47.65715
234.22        48.11266
234.68        48.61111
235.14        48.80309
235.60        48.59615
236.05        48.13576
236.51        47.62066
236.97        47.27354
237.43        47.22348
237.88        47.58117
238.34        48.36721
238.80        49.68361
239.26        51.43204
239.71        53.50446
240.17        55.80674
240.63        58.72744
241.08        62.29209
241.54        66.21667
242.00        69.83423
242.46        72.55134
242.91        74.82874
243.37        76.95523
243.83        83.41234
244.28        119.7463
244.74        191.0547
245.20        188.1906
245.66        167.7235
246.11        161.0385
246.57        163.7106
247.03        176.8975
247.48        203.3736
247.94        137.3241
248.40        96.09589
248.85        89.47694
249.31         89.6177
249.77        91.14146
250.22         93.5669
250.68         97.7634
251.14        103.4284
251.59        105.9265
252.05        101.5649
252.51        92.92644
252.96         84.2485
253.42        79.69306
253.88        78.65954
254.33         79.5627
254.79         82.5714
255.25        87.13925
255.70        92.02703
256.16        96.99221
256.62        100.0066
257.07        99.03455
257.53        95.10464
257.99        89.01301
258.44        82.80348
258.90        79.84594
259.35        79.17899
259.81        79.58945
260.27        79.04165
260.72        75.57214
261.18        70.05034
261.63        63.40558
262.09        57.33849
262.55        53.09568
263.00        50.64815
263.46        49.44964
263.91        48.60463
264.37        47.46958
264.83        45.80782
265.28        43.74539
265.74        41.74979
266.19        40.26565
266.65        39.51081
267.11        39.20082
267.56        38.90507
268.02        38.10938
268.47         36.6946
268.93        34.84133
269.38        32.86497
269.84        31.54042
270.30        31.07523
270.75        31.26572
271.21        31.66487
271.66        31.59702
272.12        30.89571
272.57        29.77274
273.03        28.62381
273.48        27.96181
273.94        27.91059
274.39        28.22634
274.85        28.58806
275.31         28.5255
275.76        27.93754
276.22        27.03483
276.67        26.04655
277.13        25.38937
277.58        25.10097
278.04        25.06367
278.49        25.06568
278.95        24.87449
279.40        24.41358
279.86        23.82925
280.31        23.19703
280.77        22.73133
281.22        22.43842
281.68        22.27055
282.13        22.15836
282.59        22.04188
283.04        21.89486
283.50        21.77618
283.95        21.65987
284.41         21.5204
284.86        21.35411
285.32         21.1718
285.77        21.05188
286.22        21.17481
286.68        21.52907
287.13        22.02431
287.59        22.47227
288.04        22.58723
288.50        22.34724
288.95        21.83767
289.41        21.26159
289.86        20.82066
290.32        20.63179
290.77        20.62478
291.22        20.77772
291.68         21.0142
292.13        21.31829
292.59        21.72878
293.04        22.26756
293.50        22.96063
293.95        23.78979
294.40        24.70278
294.86        25.65154
295.31        26.58342
295.77        27.48927
296.22        28.38852
296.68        29.27855
297.13        30.12404
297.58         30.9439
298.04        31.76511
298.49         32.6666
298.95        33.81745
299.40        35.23397
299.85         36.8642
300.31        38.57727
300.76        40.15941
301.21        41.52784
301.67         42.7659
302.12        43.89737
302.58        45.05445
303.03        46.25066
303.48        47.46521
303.94        48.76842
304.39        50.21379
304.84        51.80873
305.30        53.53604
305.75        55.22234
306.20        56.62125
306.66        57.71078
307.11        58.52377
307.57        59.28397
308.02        60.22029
308.47        61.43546
308.93        62.86307
309.38        64.34567
309.83        65.68081
310.29        66.79913
310.74        67.72928
311.19        68.58439
311.65        69.53931
312.10        70.62028
312.55        71.78008
313.00        72.85202
313.46        73.57401
313.91        73.88525
314.36        73.89823
314.82        73.86999
315.27        74.14757
315.72        74.84082
316.18        75.84145
316.63        76.95923
317.08        77.83719
317.53        78.36043
317.99        78.61509
318.44        78.77313
318.89        79.12015
319.35        79.70866
319.80        80.47146
320.25          81.194
320.70        81.53118
321.16        81.41791
321.61        80.98376
322.06        80.49154
322.51         80.3483
322.97        80.62984
323.42        81.24158
323.87        81.96499
324.32        82.42312
324.78        82.49462
325.23        82.33298
325.68        82.06654
326.13        81.93013
326.59        81.98586
327.04        82.18494
327.49         82.4922
327.94        82.88195
328.39        83.32442
328.85        83.81667
329.30        84.34492
329.75        84.72571
330.20        84.93758
330.66        85.01354
331.11        85.11447
331.56        85.43735
332.01        86.04664
332.46        86.86181
332.92         87.7917
333.37        88.83137
333.82        89.84508
334.27        90.84328
334.72        91.65655
335.17        92.01732
335.63        91.89717
336.08        91.42031
336.53         90.8804
336.98        90.79517
337.43        91.29817
337.88        92.25121
338.34         93.4158
338.79        94.47039
339.24        95.24957
339.69        95.86462
340.14        96.32021
340.59        96.62695
341.05        96.82055
341.50         96.8586
341.95        96.87791
342.40        97.12356
342.85        97.64234
343.30        98.38831
343.75          99.175
344.20        99.65635
344.66        99.75261
345.11        99.54829
345.56        99.23488
346.01        99.10448
346.46        99.23552
346.91        99.54169
347.36        99.90089
347.81        100.1257
348.26        100.1747
348.72        100.1352
349.17         100.077
349.62        100.1604
350.07        100.4125
350.52        100.7537
350.97        101.0993
351.42        101.3332
351.87        101.4203
352.32        101.4052
352.77        101.2957
353.22        101.1032
353.67        100.8504
354.13         100.548
354.58         100.237
355.03        100.0409
355.48        99.97453
355.93         100.006
356.38        100.0332
356.83        99.88873
357.28        99.53064
357.73        99.00307
358.18        98.39517
358.63        97.85174
359.08        97.41386
359.53        97.04404
359.98        96.67143
360.43        96.18512
360.88        95.55893
361.33        94.82822
361.78        94.07975
362.23        93.44932
362.68        92.97408
363.13        92.62522
363.58        92.29545
364.03        91.81275
364.48        91.14613
364.93        90.34914
365.38        89.56167
365.83        89.01083
366.28        88.73343
366.73        88.63397
367.18         88.5602
367.63        88.26924
368.08        87.70439
368.53        86.97098
368.98         86.1496
369.43        85.35253
369.88         84.6306
370.33        83.94604
370.78        83.36208
371.23        82.98907
371.68        82.83314
372.13        82.86658
372.58         82.9516
373.03        82.84344
373.48        82.48587
373.93        81.95724
374.38        81.37593
374.83        80.92934
375.28        80.66416
375.72        80.49739
376.17        80.40884
376.62        80.34211
377.07        80.25448
377.52        80.15088
377.97        79.96983
378.42        79.61165
378.87        79.08057
379.32        78.43506
379.77        77.75224
380.22        77.14021
380.67        76.62373
381.11        76.16715
381.56        75.78735
382.01        75.51195
382.46        75.34357
382.91        75.30286
383.36        75.27081
383.81        75.05536
384.26        74.63097
384.71        74.03417
385.15        73.45903
385.60         73.2749
386.05         73.4803
386.50        73.94495
386.95        74.36819
387.40        74.24742
387.85        73.52438
388.29        72.41512
388.74        71.31966
389.19        70.50437
389.64        70.03029
390.09        69.76672
390.54        69.72211
390.98        69.90912
391.43        70.26905
391.88        70.76075
392.33        71.16928
392.78        71.12046
393.23        70.59687
393.67        69.85336
394.12        69.18714
394.57        68.48986
395.02        67.98938
395.47        68.31359
395.91        69.30605
396.36        69.90655
396.81        69.94904
397.26          69.914
397.71        69.85728
398.15        69.54287
398.60        69.08398
399.05        68.73836
399.50        68.45844
399.95        67.59331
400.39        66.67075
400.84        66.37529
401.29        66.75834
401.74        67.07484
402.18        67.17255
402.63        67.10165
403.08         66.9872
403.53        67.13764
403.97        67.56473
404.42         68.0126
404.87        68.28345
405.32        68.17641
405.76        67.64831
406.21        66.84729
406.66        66.03531
407.11        65.58791
407.55        65.62434
408.00        66.03013
408.45        66.61457
408.90        67.05944
409.34        67.13107
409.79         66.6289
410.24        65.82877
410.68        65.42854
411.13        65.53244
411.58        65.78416
412.03        66.10218
412.47         66.4812
412.92        66.80833
413.37        67.11414
413.81        67.32333
414.26        67.35981
414.71        67.20358
415.15        66.86469
415.60         66.4601
416.05        66.20566
416.49        66.16199
416.94        66.29542
417.39        66.45823
417.83        66.37748
418.28        66.01538
418.73        65.47349
419.17        64.97151
419.62        64.85912
420.07        65.16522
420.51         65.7692
420.96         66.4362
421.41        66.71574
421.85        66.47832
422.30          66.124
422.74         65.7542
423.19        65.24071
423.64        64.78601
424.08        65.22224
424.53        66.35126
424.98        66.88177
425.42        66.87849
425.87        66.95524
426.31        67.22079
426.76        66.98118
427.21        66.50847
427.65        66.90859
428.10        68.02273
428.54        68.84087
428.99        69.25877
429.44         69.3922
429.88         69.3077
430.33        69.82497
430.77        70.43303
431.22        69.41714
431.66        67.22754
432.11        65.93513
432.56        65.83418
433.00        66.54202
433.45        68.05791
433.89        69.84387
434.34        70.78463
434.78        72.68956
435.23        68.71901
435.67        65.92199
436.12        68.99036
436.57        70.24979
437.01        71.09467
437.46        71.42449
437.90        71.39677
438.35        71.03211
438.79         71.2028
439.24         71.0312
439.68        70.81677
440.13        70.43571
440.57        70.22351
441.02        71.18034
441.46        72.85213
441.91        73.77726
442.35        73.66205
442.80        72.57422
443.24        71.08769
443.69        71.63675
444.13        73.80414
444.58        74.03401
445.02         72.4614
445.47        72.16878
445.91        73.26966
446.36        73.61376
446.80        73.19392
447.24        73.00752
447.69        73.13805
448.13         73.3212
448.58        73.57035
449.02         73.9002
449.47        74.24798
449.91         74.5294
450.36         74.7157
450.80        74.80906
451.25        74.81944
451.69         74.7309
452.13        74.58289
452.58        74.39932
453.02        74.24328
453.47         74.2557
453.91        74.43002
454.36        74.71803
454.80        75.04871
455.24        75.16164
455.69        74.99844
456.13        74.91917
456.58        74.95877
457.02        74.29982
457.46        73.28599
457.91        73.84982
458.35        74.74118
458.79        75.16189
459.24        74.77391
459.68           74.37
460.13        74.07267
460.57        73.81626
461.01        73.72871
461.46        73.06028
461.90        73.19556
462.34        73.09299
462.79         73.1396
463.23        73.29826
463.68        73.50408
464.12        73.72293
464.56        73.89946
465.01        73.96008
465.45        73.79793
465.89        73.82734
466.34        73.85027
466.78         72.7822
467.22         71.2614
467.67        70.57641
468.11        72.21406
468.55        73.02285
468.99        73.07696
469.44        72.75407
469.88        72.26755
470.32        72.27921
470.77        72.70827
471.21        72.71062
471.65        72.24821
472.10        71.98262
472.54         71.9983
472.98        72.06486
473.42        72.16756
473.87        72.56805
474.31        73.03696
474.75        72.83696
475.20        72.14965
475.64        71.91605
476.08        72.29308
476.52        72.30962
476.97        71.97469
477.41        72.06918
477.85        72.65101
478.29        72.03313
478.74        72.88218
479.18        72.65182
479.62        71.56948
480.06        72.11446
480.50         72.5976
480.95        73.05583
481.39        72.91785
481.83        72.54623
482.27        72.32838
482.72        72.04344
483.16         70.6331
483.60        70.84857
484.04        72.28413
484.48        72.78711
484.93        72.84194
485.37        73.96261
485.81        74.63956
486.25        73.31718
486.69        98.44719
487.14        79.88586
487.58        50.06482
488.02        61.42918
488.46        69.73006
488.90        69.74123
489.34        71.26028
489.79        70.36885
490.23         72.3952
490.67        73.11211
491.11        72.03259
491.55        72.06826
491.99        72.75059
492.43        72.65478
492.88        71.85096
493.32        71.74197
493.76        71.86443
494.20        72.11472
494.64        72.24804
495.08        72.54609
495.52        72.95515
495.96        72.85658
496.41        72.30354
496.85        72.64176
497.29        73.59641
497.73        72.48882
498.17        70.34149
498.61        70.58387
499.05        73.22211
499.49        73.88821
499.93        74.04979
500.37        73.69639
500.82        72.84425
501.26        72.48627
501.70        73.10024
502.14        73.44464
502.58        73.50005
503.02        73.44671
503.46        73.25346
503.90        72.85616
504.34        72.40679
504.78        72.06723
505.22        71.97079
505.66        72.39727
506.10        73.17075
506.54        73.52992
506.98        73.33533
507.42        73.14112
507.86        73.16257
508.30        72.40353
508.74        72.87631
509.18        72.96848
509.62        73.14902
510.06         73.1981
510.50        73.09173
510.94        72.87537
511.38        72.64595
511.82        72.60059
512.26        72.77209
512.70        73.09175
513.14        73.44698
513.58        73.65816
514.02         73.6685
514.46        73.52898
514.90        73.32234
515.34        73.16495
515.78        73.08699
516.22        73.11271
516.66        73.20004
517.10        73.12678
517.54        72.87673
517.98         73.0402
518.42        72.88287
518.86        73.02389
519.30        73.23193
519.74        73.53292
520.18        73.84922
520.62        74.05342
521.06        74.11951
521.50        74.08184
521.93        73.97094
522.37        73.83662
522.81        73.71455
523.25         73.6003
523.69         73.5291
524.13        73.55328
524.57        73.67709
525.01        73.88411
525.45         74.1254
525.89        74.31748
526.32        74.42105
526.76         74.4473
527.20        74.40813
527.64        74.34683
528.08        74.29761
528.52        74.19386
528.96        74.00469
529.40        73.89278
529.83        73.90298
530.27         73.2442
530.71        73.41747
531.15        73.33819
531.59         73.4483
532.03         73.6733
532.46        73.97513
532.90        74.25246
533.34        74.45149
533.78        74.59908
534.22         74.6712
534.66        74.64477
535.09        74.51545
535.53        74.31359
535.97        74.09048
536.41        73.95288
536.85        73.92941
537.28        74.00107
537.72        74.10073
538.16         74.1295
538.60        74.06306
539.04        73.87384
539.47        73.63137
539.91        73.63713
540.35        73.83199
540.79        73.87851
541.22        73.75063
541.66        73.70671
542.10        73.73581
542.54        73.66454
542.97        73.55723
543.41        73.62923
543.85        73.88313
544.29        74.26948
544.72        74.61214
545.16        74.67382
545.60        74.40416
546.04        73.87399
546.47        73.32172
546.91        73.15354
547.35        73.43227
547.79        74.03526
548.22        74.65739
548.66        74.83835
549.10        74.48306
549.53        73.73792
549.97        72.94654
550.41        72.57878
550.84        72.73048
551.28         73.2693
551.72        74.00822
552.15        74.40411
552.59        74.30117
553.03        74.52017
553.46        74.31393
553.90        73.68768
554.34        73.98562
554.77           73.77
555.21         73.5107
555.65        73.69357
556.08        74.26131
556.52        73.68568
556.96        73.75059
557.39         73.6016
557.83        73.78802
558.27         73.9959
558.70        74.17801
559.14        74.27419
559.57        74.29081
560.01        74.43083
560.45        74.64502
560.88        74.76933
561.32        74.73803
561.75         74.3968
562.19        73.90767
562.63        73.45884
563.06         73.1953
563.50        73.40562
563.93        73.92533
564.37        74.18952
564.80        74.11103
565.24        74.04228
565.68        73.99362
566.11        73.88719
566.55        73.80011
566.98        73.63734
567.42        73.47441
567.85        73.72437
568.29        74.34663
568.72        74.44037
569.16        74.15283
569.60        74.94629
570.03        75.23613
570.47        75.21449
570.90        74.85455
571.34        73.02229
571.77        73.62434
572.21        74.05543
572.64        73.27303
573.08        72.43219
573.51        69.29694
573.95        71.89172
574.38        76.15384
574.82        74.42364
