SpectraSmart Spectrum 2.9.0.0
--------- Device Information -----------
Spectrum Name :  反射率_0
Saving Time :  2024/04/26 02:06:58
Spectro-Module Model Name : SE2030-DUVN
Spectro-Module Serial Number : OS361AC55029948
Wavelength Start : 200
Wavelength End : 1025
Wavelength Unit : Wavelength(nm)
Spectrum Unit : Reflectance(%)
-----------Spectrum Setting ------------
Integration Time : 20ms
Average : 10
Boxcar : 0
Background removal :  enabled
linearity correction :  enabled
SC :  disabled
Intensity correction :  disabled
DWT denoise :  enabled
savitzky-golay :  disabled
FFT :  disabled
Running average :  disabled
Kalman :  disabled
High pass :  disabled
---------------BEGIN--------------------
Wavelength(nm)             Reflectance(%)
200.29               0
200.75        88.65611
201.21        87.25964
201.67        84.65652
202.13        81.25654
202.58        77.37438
203.04        73.33568
203.50        69.94359
203.96        68.89618
204.42        70.27632
204.88        72.98011
205.34        76.15198
205.80        79.41045
206.26        83.34497
206.72        89.90602
207.18        100.9148
207.64        108.3307
208.10        98.56204
208.55        83.07439
209.01        73.78983
209.47         70.6049
209.93        70.79751
210.39        73.36339
210.85        76.68425
211.31        77.30188
211.77        74.23196
212.23        68.77916
212.69        63.69575
213.14        63.36086
213.60        68.22405
214.06        76.91553
214.52        86.40644
214.98        92.13174
215.44        92.86331
215.90         90.0872
216.36        85.69722
216.81        82.23206
217.27        80.76373
217.73        80.47157
218.19        80.18246
218.65        78.29723
219.11        74.04432
219.57        66.71868
220.02        57.20573
220.48        51.49559
220.94         52.7118
221.40        59.46251
221.86        65.29101
222.32        63.38338
222.77        54.92475
223.23        44.23411
223.69        35.55431
224.15        33.20256
224.61        36.59111
225.06        43.39671
225.52        50.55474
225.98        54.31114
226.44        53.86628
226.90        50.73036
227.36        46.73168
227.81        44.29699
228.27        44.26645
228.73        45.60021
229.19        47.34694
229.65        48.18837
230.10        47.88203
230.56        47.05867
231.02        46.29302
231.48        46.17426
231.93        46.68645
232.39        47.53015
232.85        48.31019
233.31        48.49791
233.77        47.95641
234.22        46.87259
234.68        45.48045
235.14        44.22362
235.60        43.38418
236.05        42.92794
236.51        42.84829
236.97        43.06584
237.43        43.59712
237.88        44.65033
238.34        46.28363
238.80        48.47615
239.26        50.98735
239.71        53.66772
240.17        56.12249
240.63        58.39877
241.08         60.5629
241.54         62.4344
242.00        64.12929
242.46        66.08923
242.91        69.20255
243.37          75.136
243.83        92.22739
244.28        148.2788
244.74        213.5733
245.20        179.3686
245.66        146.5626
246.11        135.9501
246.57        136.8988
247.03        149.9107
247.48        184.7421
247.94        138.8994
248.40        94.51027
248.85        84.37252
249.31        83.15029
249.77         85.4072
250.22         90.3298
250.68        98.81372
251.14        110.8886
251.59        119.2616
252.05        116.1834
252.51        104.8277
252.96        91.56343
253.42        82.62217
253.88        77.69753
254.33        74.81061
254.79        74.59542
255.25        77.29758
255.70        81.69622
256.16         87.0363
256.62        90.76901
257.07        90.32861
257.53        86.62913
257.99        80.67603
258.44        74.55579
258.90         71.6169
259.35        71.01622
259.81        71.51428
260.27        71.17953
260.72        68.17197
261.18        63.25071
261.63         57.2498
262.09        51.77607
262.55        48.00662
263.00        45.89231
263.46        44.91147
263.91        44.15937
264.37        42.93246
264.83        41.04613
265.28        38.68132
265.74         36.4174
266.19        34.89767
266.65        34.33706
267.11        34.35553
267.56        34.42976
268.02        33.93307
268.47        32.74486
268.93        31.08277
269.38        29.25679
269.84        28.02438
270.30        27.58632
270.75        27.72729
271.21        28.04857
271.66        27.95903
272.12         27.3042
272.57        26.28346
273.03        25.21824
273.48        24.50843
273.94        24.26765
274.39        24.30737
274.85        24.40698
275.31        24.24687
275.76        23.75294
276.22        23.07667
276.67        22.36002
277.13        21.88272
277.58        21.65671
278.04        21.60228
278.49        21.57172
278.95         21.4114
279.40         21.0631
279.86        20.63498
280.31         20.1606
280.77        19.78668
281.22        19.51163
281.68         19.3132
282.13        19.16259
282.59        19.04735
283.04        18.95266
283.50        18.91129
283.95        18.87743
284.41        18.79129
284.86        18.64121
285.32        18.45067
285.77        18.30158
286.22        18.37424
286.68        18.66347
287.13        19.08366
287.59         19.4648
288.04        19.55463
288.50        19.33165
288.95        18.87205
289.41        18.35326
289.86        17.94348
290.32        17.74845
290.77        17.71005
291.22        17.81536
291.68        18.00433
292.13         18.2657
292.59        18.62675
293.04        19.10984
293.50        19.74129
293.95        20.50322
294.40        21.34861
294.86        22.21713
295.31        23.03571
295.77        23.79623
296.22          24.529
296.68        25.26394
297.13        26.01826
297.58        26.82258
298.04        27.68664
298.49        28.65747
298.95           29.85
299.40        31.26806
299.85        32.87638
300.31        34.56046
300.76        36.13615
301.21        37.52736
301.67         38.7984
302.12          39.977
302.58        41.19521
303.03        42.46764
303.48        43.77817
303.94        45.17131
304.39        46.66253
304.84        48.25742
305.30        49.95135
305.75        51.62603
306.20         53.1161
306.66         54.4085
307.11        55.50755
307.57        56.56391
308.02        57.70637
308.47          59.014
308.93        60.44537
309.38        61.90568
309.83        63.28947
310.29        64.54646
310.74        65.67585
311.19        66.72192
311.65        67.75539
312.10        68.78773
312.55        69.81163
313.00        70.73962
313.46        71.43766
313.91        71.87087
314.36        72.09883
314.82        72.30779
315.27        72.73956
315.72        73.47637
316.18        74.45226
316.63        75.49529
317.08        76.27862
317.53        76.70935
317.99        76.86102
318.44        76.94974
318.89         77.3326
319.35        78.06905
319.80          79.075
320.25        80.05223
320.70        80.50784
321.16        80.33921
321.61        79.71564
322.06        78.99144
322.51         78.7192
322.97        79.01225
323.42        79.73614
323.87        80.60484
324.32        81.12373
324.78        81.14018
325.23        80.85123
325.68        80.44696
326.13        80.25823
326.59         80.3727
327.04        80.70219
327.49           81.17
327.94        81.68451
328.39        82.18964
328.85        82.70329
329.30        83.21318
329.75         83.5407
330.20        83.67415
330.66        83.64334
331.11        83.63595
331.56        83.89478
332.01        84.49386
332.46        85.34605
332.92        86.32948
333.37        87.37545
333.82        88.32726
334.27         89.2074
334.72        89.87864
335.17        90.12935
335.63        89.95345
336.08        89.46964
336.53        88.93919
336.98        88.82606
337.43        89.25401
337.88        90.09637
338.34        91.17487
338.79        92.26624
339.24        93.21618
339.69        94.09484
340.14        94.80315
340.59        95.17439
341.05        95.20577
341.50        94.92905
341.95        94.57996
342.40        94.54336
342.85        94.90696
343.30        95.58089
343.75        96.37778
344.20         96.9471
344.66        97.18507
345.11        97.17409
345.56          97.034
346.01        96.94579
346.46        96.97142
346.91        97.05415
347.36        97.15057
347.81        97.20391
348.26        97.20841
348.72        97.21912
349.17        97.25714
349.62        97.39799
350.07        97.64645
350.52        97.95715
350.97        98.27684
351.42        98.53361
351.87        98.70156
352.32        98.79838
352.77        98.81422
353.22        98.73982
353.67        98.58232
354.13        98.35236
354.58        98.07751
355.03        97.86111
355.48        97.71643
355.93        97.61897
356.38        97.48653
356.83        97.18374
357.28         96.6856
357.73         96.0417
358.18        95.34159
358.63        94.72461
359.08         94.2336
359.53        93.83576
359.98         93.4725
360.43        93.04984
360.88        92.53763
361.33        91.95667
361.78        91.36312
362.23        90.84577
362.68        90.42803
363.13        90.09184
363.58        89.74715
364.03        89.25401
364.48        88.58953
364.93        87.79192
365.38        87.00127
365.83        86.44543
366.28        86.15846
366.73         86.0529
367.18        85.95322
367.63        85.57526
368.08        84.86548
368.53        83.95135
368.98        82.96848
369.43        82.11218
369.88        81.44877
370.33        80.91219
370.78        80.51835
371.23        80.29674
371.68        80.22369
372.13         80.2893
372.58        80.36555
373.03        80.23091
373.48        79.83684
373.93        79.24383
374.38        78.58315
374.83        78.06458
375.28        77.73919
375.72        77.53255
376.17        77.39211
376.62        77.20275
377.07         76.9213
377.52        76.57759
377.97        76.18948
378.42        75.78095
378.87        75.37341
379.32        74.97563
379.77        74.56841
380.22        74.12266
380.67        73.63042
381.11        73.09093
381.56        72.58057
382.01        72.22814
382.46         72.0639
382.91        72.07401
383.36        72.09019
383.81        71.84612
384.26        71.30061
384.71        70.52374
385.15        69.76067
385.60        69.44138
386.05        69.58433
386.50        70.04939
386.95        70.50181
387.40        70.38184
387.85        69.62099
388.29        68.45522
388.74        67.32885
389.19        66.58211
389.64        66.27526
390.09        66.24403
390.54        66.41794
390.98        66.67707
391.43        66.93118
391.88        67.19195
392.33        67.32382
392.78        67.06098
393.23        66.41837
393.67        65.64496
394.12        64.99718
394.57        64.27105
395.02        63.70178
395.47        64.04449
395.91        65.12691
396.36        65.75132
396.81        65.74561
397.26        65.67507
397.71        65.59076
398.15        65.25674
398.60        64.79326
399.05        64.36509
399.50         63.9888
399.95        63.31565
400.39        62.75394
400.84        62.53184
401.29        62.69783
401.74        62.89557
402.18        63.01992
402.63        62.96322
403.08        62.83009
403.53        62.94159
403.97        63.31001
404.42        63.70412
404.87        63.96577
405.32        63.93557
405.76          63.575
406.21        62.99652
406.66        62.37944
407.11        62.04606
407.55        62.08106
408.00        62.22182
408.45        62.39269
408.90        62.78723
409.34        63.15187
409.79         62.7348
410.24        61.78905
410.68        61.35342
411.13         61.5181
411.58         61.7241
412.03        61.89731
412.47        62.15761
412.92        62.41653
413.37        62.67044
413.81        62.84918
414.26        62.88412
414.71        62.75288
415.15        62.46534
415.60        62.13285
416.05        61.95564
416.49        61.98677
416.94         62.1973
417.39        62.42064
417.83        62.35694
418.28         61.9659
418.73        61.35348
419.17         60.7831
419.62         60.6692
420.07        61.05544
420.51         61.8007
420.96        62.61173
421.41        62.96972
421.85        62.72728
422.30        62.21783
422.74        61.62124
423.19         61.1138
423.64        60.83392
424.08        61.13062
424.53        61.82633
424.98        62.25872
425.42        62.31613
425.87        62.41574
426.31        62.61643
426.76        62.61996
427.21        62.58961
427.65        63.05575
428.10        63.87972
428.54         64.5993
428.99        65.15891
429.44        65.28134
429.88        65.04743
430.33        65.72014
430.77        66.67466
431.22        65.45731
431.66        62.71502
432.11        61.55722
432.56        62.21454
433.00        63.08335
433.45         63.9409
433.89        65.63584
434.34        66.95532
434.78         67.6835
435.23        64.33495
435.67        62.64258
436.12        64.78067
436.57        65.93517
437.01         66.5211
437.46        66.92092
437.90        67.31126
438.35        66.21414
438.79        67.00625
439.24        66.82751
439.68        66.68996
440.13        66.64391
440.57        66.85371
441.02        67.48985
441.46        68.32693
441.91        69.19205
442.35        69.72427
442.80        69.13686
443.24         67.8264
443.69        68.13577
444.13        69.77843
444.58        69.72343
445.02        68.21262
445.47        68.13347
445.91        69.36607
446.36        69.85964
446.80        69.51947
447.24        69.40136
447.69         69.5727
448.13        69.70959
448.58        69.83084
449.02         69.9755
449.47        70.13358
449.91        70.30587
450.36        70.48723
450.80        70.65656
451.25        70.78315
451.69        70.78989
452.13         70.6861
452.58        70.49584
453.02        70.29942
453.47        70.26468
453.91        70.40398
454.36        70.67217
454.80         70.9544
455.24        70.99539
455.69        70.77087
456.13        70.43341
456.58        70.13884
457.02        69.82124
457.46        69.64572
457.91        69.95459
458.35        70.57596
458.79        70.91991
459.24        70.94624
459.68        70.88171
460.13        70.74648
460.57        70.53628
461.01        70.34679
461.46        69.67584
461.90        69.22488
462.34        69.47566
462.79         69.1326
463.23        69.54101
463.68        70.08118
464.12        70.44058
464.56        70.50541
465.01        70.37263
465.45        70.05445
465.89        69.97066
466.34        69.97417
466.78        69.16185
467.22         67.9911
467.67         67.3641
468.11        68.35952
468.55        69.10085
468.99        69.53178
469.44        69.35274
469.88        68.74718
470.32        68.72683
470.77        69.23737
471.21        69.31651
471.65        68.92245
472.10        68.73045
472.54         68.7943
472.98         68.8563
473.42        68.90543
473.87        69.17934
474.31        69.50278
474.75          69.298
475.20        68.73523
475.64        68.51167
476.08        69.03602
476.52         69.0331
476.97        68.56198
477.41        68.84644
477.85        69.04404
478.29        68.51891
478.74         69.0985
479.18          68.901
479.62        68.16698
480.06        68.74294
480.50        69.08112
480.95        69.42644
481.39        69.31824
481.83        68.74648
482.27        69.06266
482.72        68.55276
483.16         67.7068
483.60        67.97993
484.04         69.3351
484.48        69.69592
484.93        69.66956
485.37        70.68589
485.81        71.27313
486.25        70.44746
486.69        94.69593
487.14        76.24827
487.58        47.68393
488.02         58.9972
488.46        66.70725
488.90        66.03828
489.34        68.10307
489.79        67.40902
490.23        69.39827
490.67         70.2019
491.11        69.26546
491.55        69.28413
491.99        69.83163
492.43        69.71003
492.88        69.01004
493.32        69.01545
493.76        69.22697
494.20        69.49499
494.64        69.57452
495.08        69.69656
495.52        69.88602
495.96        69.82381
496.41         69.5106
496.85        69.84039
497.29         70.5647
497.73         69.4665
498.17        67.51187
498.61        67.76511
499.05        70.21511
499.49        70.75402
499.93        70.86594
500.37        70.60779
500.82        69.92505
501.26         69.9483
501.70          70.428
502.14        70.66116
502.58        70.49387
503.02        70.33357
503.46         70.1805
503.90        69.79087
504.34        69.32857
504.78         69.1698
505.22        69.36754
505.66        69.81273
506.10        70.32848
506.54        70.60049
506.98        70.53842
507.42        70.26708
507.86        69.94685
508.30        69.68119
508.74        69.75974
509.18        69.92598
509.62        70.15001
510.06        70.27271
510.50        70.25514
510.94        70.15916
511.38        70.05148
511.82        70.03165
512.26        70.12537
512.70        70.28959
513.14        70.48409
513.58        70.65119
514.02        70.76104
514.46        70.82449
514.90        70.84792
515.34        70.82749
515.78        70.75862
516.22        70.70212
516.66        70.66624
517.10        70.49706
517.54         70.2051
517.98         70.4144
518.42        70.27594
518.86        70.40479
519.30        70.53687
519.74        70.72736
520.18         70.9481
520.62        71.14398
521.06        71.30261
521.50        71.43169
521.93         71.4964
522.37         71.4428
522.81        71.28086
523.25        71.03626
523.69        70.80862
524.13        70.75111
524.57        70.89008
525.01        71.17608
525.45        71.50762
525.89        71.71614
526.32        71.74425
526.76        71.64044
527.20        71.46002
527.64         71.3101
528.08        71.24397
528.52        71.17447
528.96        71.05934
529.40        71.03558
529.83        71.13525
530.27        70.60265
530.71        70.86756
531.15        70.85892
531.59        70.99834
532.03        71.21376
532.46        71.49109
532.90        71.77579
533.34        72.01964
533.78         72.2298
534.22        72.35177
534.66        72.31361
535.09        72.10679
535.53        71.79097
535.97        71.43551
536.41        71.17287
536.85        71.04447
537.28        71.02029
537.72          71.068
538.16        71.12908
538.60        71.17634
539.04        71.20563
539.47        71.19587
539.91        71.22544
540.35        71.25671
540.79        71.17199
541.22        71.00117
541.66        70.94118
542.10        71.00253
542.54        71.01397
542.97        71.09409
543.41          71.168
543.85        71.25536
544.29        71.36753
544.72         71.4379
545.16        71.37571
545.60        71.16407
546.04        70.87153
546.47        70.63274
546.91        70.58467
547.35        70.80786
547.79        71.45161
548.22        72.21545
548.66        72.50202
549.10        72.17474
549.53        71.31993
549.97        70.33176
550.41         69.8614
550.84        70.02554
551.28        70.60062
551.72        71.34452
552.15        71.73336
552.59        71.60819
553.03        71.75591
553.46        71.17198
553.90        71.01116
554.34        71.00516
554.77        71.02253
555.21        71.01274
555.65        71.14577
556.08        71.44848
556.52        71.02192
556.96        71.50323
557.39        71.44771
557.83        71.38806
558.27        71.37502
558.70        71.45137
559.14        71.57243
559.57        71.70542
560.01        71.92072
560.45        72.12119
560.88        72.10666
561.32        71.89578
561.75        71.57378
562.19        71.28342
562.63        71.00999
563.06        70.84348
563.50        71.06449
563.93        71.51726
564.37        71.72978
564.80        71.62615
565.24        71.47256
565.68        71.32714
566.11        71.23604
566.55        71.27862
566.98        71.31931
567.42        71.37689
567.85        71.69578
568.29         72.1961
568.72         72.1769
569.16        71.85566
569.60        72.11559
570.03        72.64352
570.47         72.5144
570.90        71.96466
571.34        70.54275
571.77        71.11681
572.21        71.21546
572.64         70.9734
573.08        69.83453
573.51        67.02192
573.95        69.51193
574.38        73.65324
574.82        71.89266
