SpectraSmart Spectrum 2.9.0.0
--------- Device Information -----------
Spectrum Name :  反射率_0
Saving Time :  2024/04/26 01:34:06
Spectro-Module Model Name : SE2030-DUVN
Spectro-Module Serial Number : OS361AC55029948
Wavelength Start : 200
Wavelength End : 1025
Wavelength Unit : Wavelength(nm)
Spectrum Unit : Reflectance(%)
-----------Spectrum Setting ------------
Integration Time : 20ms
Average : 10
Boxcar : 0
Background removal :  enabled
linearity correction :  enabled
SC :  disabled
Intensity correction :  disabled
DWT denoise :  enabled
savitzky-golay :  disabled
FFT :  disabled
Running average :  disabled
Kalman :  disabled
High pass :  disabled
---------------BEGIN--------------------
Wavelength(nm)             Reflectance(%)
200.29               0
200.75        95.91051
201.21        90.83212
201.67        83.72768
202.13        79.15569
202.58        77.96109
203.04        79.07208
203.50        81.41496
203.96        83.29341
204.42        84.03085
204.88        84.18714
205.34        84.49369
205.80         85.8541
206.26        89.03297
206.72        95.77272
207.18        108.0435
207.64        116.5585
208.10        105.4469
208.55        87.67379
209.01        77.45131
209.47        74.88623
209.93        76.76984
210.39        82.04166
210.85        87.53753
211.31        86.53132
211.77        77.41863
212.23        62.81311
212.69        48.88516
213.14        45.12909
213.60        52.95534
214.06        69.50029
214.52         88.1272
214.98        98.47403
215.44        98.04408
215.90        90.49625
216.36        80.11875
216.81        72.89491
217.27        70.69775
217.73        71.35645
218.19        72.80958
218.65        72.54272
219.11        69.62162
219.57        63.99361
220.02        56.75437
220.48        53.50554
220.94        56.70854
221.40        64.42683
221.86        70.38154
222.32        68.45066
222.77        59.96249
223.23        49.11993
223.69        40.18678
224.15        37.47718
224.61        40.41809
225.06        46.78296
225.52        53.41903
225.98        56.41737
226.44        55.03236
226.90        50.87024
227.36        46.05831
227.81         43.4379
228.27        43.88957
228.73         46.2186
229.19        49.13339
229.65        50.78379
230.10        50.82579
230.56         50.1077
231.02        49.44178
231.48        49.71235
231.93        50.96247
232.39        52.80081
232.85        54.75801
233.31        56.21543
233.77        56.99409
234.22        57.31289
234.68        57.37142
235.14        57.48228
235.60        57.78648
236.05        58.17919
236.51        58.63665
236.97        59.14787
237.43        59.79374
237.88        60.81591
238.34        62.28624
238.80        64.39066
239.26        67.00636
239.71        70.03082
240.17        72.95551
240.63        75.65234
241.08        78.09015
241.54         80.0694
242.00        81.81577
242.46        83.95287
242.91        87.65489
243.37        95.06326
243.83        115.9056
244.28        179.1528
244.74        242.2457
245.20        195.9118
245.66        159.4401
246.11        150.6223
246.57        158.3642
247.03          191.65
247.48        291.0295
247.94        239.2213
248.40        132.8602
248.85         100.376
249.31        91.21852
249.77         91.3614
250.22        97.19089
250.68        109.1911
251.14        127.6616
251.59        142.6461
252.05        142.4645
252.51        130.6725
252.96        116.2716
253.42        108.9054
253.88        108.4281
254.33        111.2105
254.79        116.2445
255.25        121.5446
255.70        125.7005
256.16        129.6648
256.62        131.9307
257.07        130.7672
257.53         127.355
257.99        122.1682
258.44        116.8413
258.90        114.5649
259.35          114.15
259.81        114.6527
260.27        114.2087
260.72         111.033
261.18         106.096
261.63        99.99728
262.09        94.23624
262.55         89.5782
263.00        86.02807
263.46        83.47385
263.91        81.27758
264.37        79.30964
264.83        77.21209
265.28        74.91917
265.74         72.6283
266.19          70.291
266.65        68.26514
267.11        66.51763
267.56        64.90951
268.02        63.31267
268.47        61.53774
268.93        59.64304
269.38        57.74657
269.84        56.29953
270.30        55.42797
270.75        55.02696
271.21        54.81448
271.66        54.33995
272.12        53.49305
272.57        52.38137
273.03        51.27719
273.48        50.48623
273.94        50.10237
274.39         49.9273
274.85        49.76727
275.31        49.29586
275.76        48.43631
276.22        47.37289
276.67         46.2161
277.13        45.26728
277.58         44.5277
278.04        43.96209
278.49         43.4496
278.95        42.93948
279.40        42.34159
279.86        41.75528
280.31        41.11379
280.77        40.46766
281.22        39.78601
281.68        39.12701
282.13         38.5129
282.59        38.05456
283.04         37.7395
283.50        37.58208
283.95        37.49742
284.41        37.40179
284.86        37.25241
285.32        37.09167
285.77        36.97143
286.22          37.054
286.68        37.33126
287.13        37.69517
287.59        38.00657
288.04        38.02996
288.50        37.76476
288.95        37.26958
289.41        36.70783
289.86        36.18624
290.32        35.82896
290.77         35.5933
291.22        35.53244
291.68        35.67693
292.13        36.02409
292.59        36.57894
293.04         37.3059
293.50        38.14954
293.95        39.05988
294.40        40.01151
294.86        40.97698
295.31        41.92719
295.77        42.86944
296.22         43.8131
296.68        44.75798
297.13        45.67687
297.58        46.58276
298.04        47.49334
298.49        48.47907
298.95        49.70825
299.40        51.17892
299.85        52.82946
300.31        54.49681
300.76        55.91567
301.21         57.0092
301.67        57.90861
302.12        58.67323
302.58        59.50866
303.03        60.44506
303.48        61.46357
303.94        62.65267
304.39        64.07466
304.84        65.73267
305.30        67.59607
305.75         69.4441
306.20        70.97023
306.66        72.13125
307.11        72.95148
307.57        73.67545
308.02        74.54568
308.47        75.68064
308.93         77.0163
309.38        78.38383
309.83        79.57398
310.29        80.53124
310.74        81.29807
311.19         82.0279
311.65        82.94698
312.10        84.08618
312.55        85.38059
313.00         86.6234
313.46        87.48937
313.91        87.88641
314.36        87.92717
314.82        87.88548
315.27        88.12766
315.72        88.77849
316.18        89.73356
316.63         90.7796
317.08        91.52128
317.53        91.85042
317.99          91.872
318.44        91.84415
318.89        92.18609
319.35        92.96061
319.80        94.05345
320.25        95.11873
320.70        95.58862
321.16        95.34195
321.61         94.5844
322.06        93.68291
322.51        93.20836
322.97        93.28936
323.42        93.79018
323.87        94.48375
324.32         94.9791
324.78        95.13206
325.23        95.10618
325.68        94.98077
326.13         94.9072
326.59        94.92269
327.04        94.99811
327.49          95.127
327.94        95.34888
328.39        95.65957
328.85        96.03473
329.30        96.47913
329.75        96.81744
330.20        97.02602
330.66        97.14084
331.11        97.28987
331.56        97.60257
332.01        98.13077
332.46        98.80823
332.92        99.57824
333.37         100.535
333.82        101.5611
334.27        102.6374
334.72        103.5623
335.17        104.0105
335.63        103.9274
336.08        103.4608
336.53        102.8889
336.98        102.7107
337.43        103.0637
337.88        103.8078
338.34        104.7555
338.79        105.6833
339.24        106.4421
339.69        107.1232
340.14        107.6542
340.59        107.9078
341.05        107.8972
341.50        107.6354
341.95        107.3424
342.40         107.384
342.85        107.8276
343.30        108.5712
343.75        109.3955
344.20        109.9008
344.66        109.9831
345.11        109.7564
345.56        109.3646
346.01         109.024
346.46        108.8201
346.91        108.6897
347.36        108.6418
347.81        108.6984
348.26        108.8478
348.72        109.1053
349.17        109.3777
349.62        109.5507
350.07        109.5839
350.52        109.4913
350.97        109.3184
351.42        109.1493
351.87        109.0052
352.32        108.8601
352.77        108.6776
353.22        108.4036
353.67        108.0295
354.13        107.5932
354.58         107.111
355.03        106.6627
355.48        106.2614
355.93        105.8836
356.38        105.4815
356.83        104.9795
357.28        104.3625
357.73        103.6624
358.18         102.923
358.63        102.2104
359.08        101.5506
359.53         100.932
359.98        100.3359
360.43        99.73242
360.88        99.10242
361.33        98.43867
361.78        97.76191
362.23        97.10803
362.68        96.48579
363.13        95.89806
363.58         95.2722
364.03        94.49149
364.48        93.54613
364.93        92.47374
365.38        91.41981
365.83        90.62083
366.28         90.1135
366.73        89.80815
367.18        89.53703
367.63        89.02583
368.08         88.2184
368.53        87.23798
368.98        86.18623
369.43        85.20588
369.88        84.35346
370.33        83.57509
370.78        82.93145
371.23        82.53022
371.68        82.36765
372.13        82.41174
372.58        82.49159
373.03        82.31139
373.48        81.80431
373.93        81.06085
374.38        80.24389
374.83        79.60773
375.28        79.21666
375.72        78.97806
376.17        78.83029
376.62        78.64866
377.07        78.37669
377.52        78.03603
377.97        77.63298
378.42         77.1743
378.87        76.67719
379.32        76.16102
379.77        75.60001
380.22        74.95133
380.67        74.21765
381.11        73.41516
381.56        72.66651
382.01        72.17796
382.46        71.99519
382.91        72.07218
383.36        72.20753
383.81        72.07542
384.26        71.60987
384.71        70.90209
385.15        70.16517
385.60        69.78595
386.05        69.78391
386.50        70.01831
386.95         70.2508
387.40        70.09124
387.85        69.48936
388.29        68.61125
388.74        67.74504
389.19        67.03123
389.64        66.50065
390.09        66.04306
390.54        65.72749
390.98        65.67892
391.43        65.88716
391.88        66.30572
392.33        66.66154
392.78         66.4769
393.23        65.73376
393.67        64.70945
394.12        63.85828
394.57        63.06314
395.02        63.31158
395.47        63.72884
395.91        64.42084
396.36        64.97688
396.81        65.25417
397.26        65.30621
397.71        65.15691
398.15        64.75828
398.60        64.22179
399.05        63.74582
399.50         63.3326
399.95        62.41607
400.39        61.48665
400.84        61.25817
401.29        61.71945
401.74        61.87753
402.18        61.65617
402.63        61.56398
403.08        61.69701
403.53        61.93208
403.97        62.25833
404.42        62.66503
404.87        62.97289
405.32        62.88035
405.76        62.34056
406.21         61.5486
406.66        60.72797
407.11        60.14565
407.55         59.9365
408.00        60.10749
408.45         60.5153
408.90        60.84171
409.34        60.87687
409.79        60.44367
410.24         59.7593
410.68        59.41641
411.13        59.49444
411.58        59.66148
412.03        59.86565
412.47        60.15914
412.92        60.45423
413.37        60.75866
413.81        60.97783
414.26        61.00647
414.71        60.81787
415.15        60.43428
415.60        59.98966
416.05        59.72285
416.49         59.7005
416.94         59.8862
417.39        60.11432
417.83        60.08138
418.28        59.74587
418.73        59.22113
419.17        58.75049
419.62        58.71758
420.07        59.15197
420.51        59.90412
420.96        60.71876
421.41        61.10201
421.85        60.90733
422.30        60.56893
422.74        60.16499
423.19        59.48767
423.64        58.77441
424.08        58.94373
424.53        59.85468
424.98        60.36667
425.42        60.34348
425.87        60.59973
426.31        61.08183
426.76         60.9975
427.21        60.59222
427.65        60.87136
428.10        61.68169
428.54         62.7327
428.99        62.88271
429.44        63.03233
429.88        62.93991
430.33        63.66672
430.77        64.61263
431.22        63.57133
431.66        61.12508
432.11        60.02566
432.56        60.46153
433.00        61.17907
433.45        62.08962
433.89        63.31068
434.34        64.64899
434.78        66.04118
435.23        62.50787
435.67        61.24771
436.12        62.91999
436.57        63.87083
437.01        64.31292
437.46        64.56203
437.90        64.81666
438.35        64.23563
438.79        65.05286
439.24        65.04674
439.68        64.88411
440.13        64.58279
440.57        64.47238
441.02        65.17966
441.46        66.41718
441.91        67.54202
442.35         68.0736
442.80        67.19012
443.24        65.43187
443.69        65.65038
444.13         67.5396
444.58        67.53059
445.02         65.8504
445.47        65.64861
445.91        66.92996
446.36        67.36387
446.80        66.89496
447.24        66.61075
447.69        66.64264
448.13        66.77805
448.58        67.04538
449.02        67.43498
449.47        67.83682
449.91        68.09734
450.36        68.17366
450.80        68.09383
451.25        67.91618
451.69         67.7054
452.13         67.5135
452.58        67.32841
453.02        67.17863
453.47        67.14696
453.91         67.2215
454.36        67.38422
454.80        67.56406
455.24        67.55845
455.69         67.3472
456.13        67.10508
456.58        66.92209
457.02        66.51713
457.46        66.10545
457.91        66.34855
458.35        67.03813
458.79        67.30206
459.24        67.13564
459.68        66.82947
460.13         66.4084
460.57        66.26801
461.01        66.59847
461.46        65.36518
461.90         65.1844
462.34        66.18409
462.79        65.30125
463.23        65.52916
463.68        65.69566
464.12        65.91207
464.56        66.08147
465.01        66.15908
465.45        66.06947
465.89        66.06985
466.34        66.00657
466.78        65.08275
467.22         63.8488
467.67        63.09117
468.11        64.46716
468.55          65.089
468.99        65.12915
469.44        64.78676
469.88        64.25639
470.32        64.19355
470.77        64.52249
471.21        64.48264
471.65        64.04252
472.10        63.72403
472.54        63.72843
472.98        63.75959
473.42        63.83936
473.87        64.19707
474.31         64.6177
474.75        64.41117
475.20        63.72949
475.64        63.47993
476.08        63.72263
476.52        63.69236
476.97        63.35801
477.41        63.52535
477.85        64.02966
478.29        63.57441
478.74         63.9665
479.18        64.11504
479.62        63.08701
480.06        63.58136
480.50        63.77093
480.95        64.12304
481.39        64.24519
481.83        63.17205
482.27        63.22608
482.72        63.26076
483.16        61.90516
483.60        62.07721
484.04        63.29305
484.48        63.77401
484.93         63.8728
485.37        65.23492
485.81        65.92174
486.25        64.68529
486.69        89.07256
487.14        72.47136
487.58        44.32035
488.02        54.55602
488.46        61.34508
488.90        60.94241
489.34        62.14547
489.79        61.27956
490.23        63.15467
490.67        63.71963
491.11        62.59182
491.55        62.60795
491.99        63.35083
492.43        63.33369
492.88        62.60851
493.32        62.56096
493.76        62.75367
494.20        62.94987
494.64        62.92319
495.08        62.98666
495.52        63.16643
495.96          62.961
496.41        62.45385
496.85        62.95509
497.29        64.09836
497.73        63.09421
498.17         60.8624
498.61        60.86002
499.05        63.10878
499.49        63.49313
499.93        63.36814
500.37        63.06242
500.82        62.53677
501.26        62.61723
501.70        63.20906
502.14         63.4775
502.58        63.31438
503.02        63.14049
503.46        62.96035
503.90        62.49936
504.34        61.92746
504.78        61.69038
505.22        61.85625
505.66        62.21476
506.10        62.61956
506.54        63.00885
506.98         63.1757
507.42         62.8323
507.86          62.019
508.30        61.57986
508.74        61.85416
509.18         62.1901
509.62        62.51435
510.06        62.71014
510.50        62.71463
510.94        62.57492
511.38        62.38235
511.82        62.27865
512.26        62.30305
512.70        62.40467
513.14        62.53808
513.58         62.6348
514.02        62.66524
514.46        62.65326
514.90        62.61296
515.34        62.54207
515.78        62.43532
516.22        62.36853
516.66         62.3494
517.10        62.17697
517.54        61.85527
517.98        62.17095
518.42        62.02891
518.86        62.20414
519.30        62.35912
519.74        62.57827
520.18        62.81393
520.62        62.97878
521.06        63.06208
521.50        63.07472
521.93        63.03777
522.37        62.98867
522.81        62.94873
523.25        62.91539
523.69        62.89634
524.13        62.90293
524.57         62.9365
525.01        62.99258
525.45        63.06951
525.89        63.16225
526.32        63.25293
526.76        63.33475
527.20        63.37515
527.64        63.34186
528.08        63.24862
528.52        63.06113
528.96        62.79407
529.40        62.64816
529.83         62.6767
530.27        62.18793
530.71        62.41996
531.15        62.39766
531.59         62.4841
532.03        62.63269
532.46        62.84247
532.90        63.08069
533.34        63.30859
533.78        63.52248
534.22        63.66795
534.66        63.67652
535.09        63.53439
535.53        63.29077
535.97        63.00309
536.41        62.78255
536.85        62.66711
537.28        62.63577
537.72        62.65665
538.16        62.68406
538.60        62.69981
539.04        62.66897
539.47        62.60175
539.91        62.68015
540.35        62.83703
540.79        62.79957
541.22        62.59371
541.66        62.51613
542.10        62.57523
542.54        62.60366
542.97        62.59958
543.41        62.65857
543.85        62.76657
544.29        62.91279
544.72        63.02242
545.16        62.99572
545.60        62.81097
546.04        62.52872
546.47         62.2675
546.91        62.16489
547.35        62.28896
547.79        62.73702
548.22        63.27395
548.66        63.45104
549.10        63.16019
549.53        62.44841
549.97        61.63667
550.41        61.26517
550.84         61.4339
551.28        61.92878
551.72        62.53901
552.15        62.90786
552.59        62.92018
553.03        62.86357
553.46        62.52637
553.90        62.38089
554.34        62.38872
554.77        62.41079
555.21        62.40289
555.65        62.52431
556.08        62.78238
556.52        62.33987
556.96        62.65421
557.39        62.55967
557.83        62.51905
558.27        62.47028
558.70        62.44861
559.14         62.5316
559.57        62.70128
560.01        62.85989
560.45        62.97364
560.88        63.19513
561.32         63.4352
561.75        63.22889
562.19        62.72427
562.63        62.42273
563.06        62.38244
563.50        62.40835
563.93        62.45411
564.37        62.56668
564.80        62.68021
565.24        62.74317
565.68          62.737
566.11        62.70761
566.55        62.70655
566.98        62.64056
567.42         62.5624
567.85        62.64203
568.29        62.88785
568.72        62.94771
569.16        62.99186
569.60        63.38995
570.03        63.79822
570.47        63.99729
570.90        63.86626
571.34        62.22646
571.77         63.0409
572.21        63.41113
572.64        62.90155
573.08        62.11675
573.51        59.35382
573.95        61.57229
574.38         65.3095
574.82        63.94638
