SpectraSmart Spectrum 2.9.0.0
--------- Device Information -----------
Spectrum Name :  反射率_0
Saving Time :  2024/04/26 01:09:30
Spectro-Module Model Name : SE2030-DUVN
Spectro-Module Serial Number : OS361AC55029948
Wavelength Start : 200
Wavelength End : 1025
Wavelength Unit : Wavelength(nm)
Spectrum Unit : Reflectance(%)
-----------Spectrum Setting ------------
Integration Time : 20ms
Average : 10
Boxcar : 0
Background removal :  enabled
linearity correction :  enabled
SC :  disabled
Intensity correction :  disabled
DWT denoise :  enabled
savitzky-golay :  disabled
FFT :  disabled
Running average :  disabled
Kalman :  disabled
High pass :  disabled
---------------BEGIN--------------------
Wavelength(nm)             Reflectance(%)
200.29               0
200.75         98.4508
201.21        87.42533
201.67        74.34323
202.13        66.35135
202.58        64.45943
203.04        66.87081
203.50         71.4788
203.96        74.66174
204.42        75.16267
204.88        74.20574
205.34        73.11082
205.80        73.20833
206.26        75.11562
206.72         79.9211
207.18         88.2841
207.64         90.8099
208.10        77.37189
208.55        62.05783
209.01        55.01229
209.47        55.55039
209.93        60.94746
210.39        70.51305
210.85        81.10249
211.31        85.01269
211.77        79.62988
212.23        67.72223
212.69        55.20834
213.14        51.29772
213.60        57.59326
214.06        71.33072
214.52        86.87982
214.98        95.54669
215.44        95.18582
215.90        88.92549
216.36        80.42608
216.81        74.65784
217.27        73.16276
217.73        74.07982
218.19        75.31635
218.65        74.25797
219.11        69.83504
219.57        61.56011
220.02        50.60641
220.48        44.00478
220.94         45.6188
221.40        53.81496
221.86         61.0648
222.32        59.51458
222.77        50.50885
223.23        38.76317
223.69        29.42747
224.15        27.77691
224.61        32.98573
225.06        42.17327
225.52        51.30092
225.98        55.14677
226.44        52.81547
226.90        46.62132
227.36        39.29753
227.81        34.52802
228.27        33.49907
228.73        34.71786
229.19         37.2466
229.65        39.71864
230.10        41.48915
230.56         42.9479
231.02        43.98101
231.48        44.36126
231.93        44.16864
232.39        43.47398
232.85        42.52826
233.31        41.83632
233.77        41.50301
234.22        41.35777
234.68        41.34296
235.14        41.24297
235.60        41.00215
236.05        40.82775
236.51         40.5723
236.97        39.89871
237.43        38.77298
237.88         37.1951
238.34        35.76709
238.80        36.19679
239.26        39.23695
239.71        44.58543
240.17        50.72754
240.63        55.32917
241.08        57.61652
241.54        57.92526
242.00        57.28434
242.46        57.36475
242.91        59.22358
243.37         63.9708
243.83        78.52233
244.28        124.3456
244.74        173.6355
245.20        144.4903
245.66        118.7873
246.11        111.5403
246.57        114.9684
247.03        132.5897
247.48        187.6325
247.94          165.78
248.40         108.144
248.85        89.66655
249.31        84.42052
249.77        84.68741
250.22        88.32645
250.68        95.46139
251.14        105.3293
251.59         109.809
252.05        102.1974
252.51        87.24503
252.96        72.63535
253.42        64.81902
253.88        62.99347
254.33        64.70448
254.79        69.21552
255.25        74.83208
255.70        80.02592
256.16        84.85741
256.62        87.62862
257.07        86.60784
257.53         82.7746
257.99        76.85118
258.44        70.75467
258.90        67.64374
259.35        66.73121
259.81        66.90011
260.27        66.31377
260.72         63.1982
261.18        58.25932
261.63         52.2962
262.09        46.86166
262.55         43.1113
263.00        41.01133
263.46        40.05049
263.91        39.33236
264.37        38.11896
264.83        36.24762
265.28        33.90549
265.74        31.72157
266.19        30.42742
266.65        30.19482
267.11        30.58036
267.56        30.98081
268.02         30.6764
268.47        29.55697
268.93        27.87414
269.38        25.97882
269.84        24.69964
270.30        24.26572
270.75        24.44667
271.21        24.83251
271.66        24.81626
272.12        24.23398
272.57        23.29156
273.03        22.31054
273.48        21.69136
273.94        21.54168
274.39        21.67117
274.85        21.83695
275.31        21.69643
275.76         21.1735
276.22        20.42134
276.67        19.62168
277.13        19.10375
277.58        18.89282
278.04        18.89906
278.49        18.92546
278.95        18.73864
279.40        18.28008
279.86        17.67996
280.31        17.05871
280.77         16.6856
281.22        16.57004
281.68        16.63104
282.13         16.7332
282.59        16.70653
283.04        16.51826
283.50         16.2596
283.95        15.98007
284.41        15.75978
284.86        15.62395
285.32         15.5454
285.77         15.5536
286.22        15.74627
286.68        16.09406
287.13        16.54356
287.59        16.94127
288.04        17.06128
288.50        16.88773
288.95        16.48421
289.41        16.02482
289.86        15.68256
290.32        15.55928
290.77        15.59937
291.22         15.7813
291.68        16.03046
292.13        16.33545
292.59        16.72818
293.04        17.24007
293.50        17.91179
293.95        18.72761
294.40        19.63122
294.86        20.55923
295.31        21.43518
295.77        22.24857
296.22        23.03564
296.68        23.81425
297.13        24.58054
297.58        25.36843
298.04        26.19944
298.49        27.15641
298.95         28.4085
299.40        29.96942
299.85        31.78479
300.31        33.70602
300.76        35.49038
301.21        37.04401
301.67        38.45036
302.12        39.74879
302.58        41.09116
303.03         42.5006
303.48        43.94717
303.94        45.48971
304.39        47.16883
304.84        48.98382
305.30        50.91625
305.75        52.80162
306.20        54.40244
306.66        55.69518
307.11        56.71212
307.57        57.65107
308.02        58.70885
308.47         59.9871
308.93        61.42876
309.38        62.92468
309.83        64.34615
310.29        65.63143
310.74        66.78217
311.19        67.84377
311.65        68.88816
312.10        69.92184
312.55        70.93137
313.00        71.81409
313.46        72.41391
313.91        72.70343
314.36        72.76797
314.82        72.82113
315.27        73.14194
315.72        73.82397
316.18         74.7847
316.63        75.86748
317.08        76.76628
317.53        77.37767
317.99        77.76489
318.44          78.066
318.89        78.51936
319.35        79.16076
319.80        79.92915
320.25        80.63113
320.70        80.95843
321.16        80.85509
321.61        80.44251
322.06        79.95244
322.51        79.74228
322.97        79.88568
323.42        80.31229
323.87        80.85807
324.32        81.23743
324.78        81.35177
325.23        81.32027
325.68        81.22398
326.13        81.21927
326.59        81.33794
327.04        81.55148
327.49        81.82406
327.94        82.13092
328.39        82.45507
328.85        82.79582
329.30        83.17819
329.75        83.49152
330.20        83.73154
330.66        83.91074
331.11        84.15654
331.56        84.60509
332.01        85.30077
332.46        86.18525
332.92        87.15088
333.37        88.16723
333.82         89.0969
334.27        89.93797
334.72        90.59715
335.17        90.94138
335.63        90.96531
336.08        90.76215
336.53        90.48056
336.98        90.40269
337.43        90.61684
337.88        91.05348
338.34        91.65575
338.79        92.40303
339.24        93.21222
339.69        94.11626
340.14        94.94878
340.59        95.41649
341.05        95.47259
341.50        95.18057
341.95        94.83325
342.40        94.90063
342.85        95.47596
343.30        96.42441
343.75        97.46294
344.20        98.08752
344.66        98.16392
345.11        97.84003
345.56        97.34586
346.01        97.02361
346.46        96.98257
346.91        97.12395
347.36        97.35731
347.81        97.54973
348.26        97.66343
348.72        97.76867
349.17        97.89165
349.62        98.11296
350.07        98.43359
350.52        98.79531
350.97        99.12086
351.42         99.3116
351.87        99.34466
352.32        99.25437
352.77        99.08343
353.22        98.90089
353.67         98.7347
354.13        98.58131
354.58        98.41621
355.03          98.256
355.48        98.09326
355.93        97.92513
356.38        97.72504
356.83        97.44711
357.28        97.07914
357.73        96.63272
358.18        96.12399
358.63         95.5819
359.08        95.02416
359.53        94.45376
359.98        93.87768
360.43        93.30332
360.88        92.72818
361.33        92.14515
361.78        91.56477
362.23        91.00229
362.68        90.46452
363.13        89.96291
363.58        89.45173
364.03         88.8541
364.48        88.16384
364.93        87.40125
365.38        86.66682
365.83        86.12714
366.28        85.79978
366.73        85.61076
367.18        85.42976
367.63         85.0462
368.08        84.41769
368.53        83.64356
368.98        82.79298
369.43        81.96101
369.88        81.19558
370.33        80.46406
370.78        79.85038
371.23        79.49812
371.68        79.41423
372.13        79.55186
372.58        79.73203
373.03        79.64468
373.48        79.21512
373.93        78.54224
374.38        77.77725
374.83        77.15548
375.28        76.74506
375.72        76.46159
376.17        76.27943
376.62        76.13221
377.07        75.97361
377.52        75.80473
377.97         75.5901
378.42         75.2677
378.87        74.83479
379.32        74.33048
379.77        73.75288
380.22         73.0969
380.67        72.37663
381.11        71.59536
381.56        70.87421
382.01         70.4155
382.46        70.26607
382.91        70.39327
383.36        70.58541
383.81        70.49728
384.26        70.05956
384.71         69.3581
385.15        68.64375
385.60        68.36217
386.05        68.53674
386.50        69.00944
386.95         69.4589
387.40         69.3528
387.85        68.62324
388.29         67.5038
388.74        66.39847
389.19        65.59333
389.64        65.14705
390.09        64.91503
390.54        64.88914
390.98        65.05755
391.43        65.35999
391.88         65.7739
392.33        66.09186
392.78        65.96138
393.23        65.37684
393.67        64.55771
394.12        63.82137
394.57        63.17986
395.02         62.8194
395.47         63.1784
395.91        64.09382
396.36        64.65826
396.81        64.72052
397.26        64.68085
397.71        64.57577
398.15        64.24376
398.60        63.80106
399.05         63.3341
399.50        62.89136
399.95        62.27663
400.39        61.82985
400.84        61.55764
401.29        61.52024
401.74        61.49562
402.18        61.47876
402.63         61.5451
403.08        61.72025
403.53        61.97086
403.97        62.26805
404.42        62.57891
404.87        62.79505
405.32        62.70923
405.76        62.29092
406.21         61.7626
406.66        61.24313
407.11        60.72908
407.55        60.39813
408.00        60.56142
408.45        61.11158
408.90        61.59919
409.34        61.75926
409.79        61.33424
410.24        60.56633
410.68         60.2062
411.13        60.34293
411.58         60.5376
412.03        60.74002
412.47        61.06887
412.92        61.43681
413.37        61.82423
413.81         62.1273
414.26        62.23095
414.71        62.10381
415.15        61.77421
415.60        61.36662
416.05        61.10535
416.49          61.057
416.94        61.18524
417.39        61.35461
417.83        61.31286
418.28        61.02481
418.73        60.58717
419.17        60.19297
419.62        60.14918
420.07        60.47474
420.51        61.05332
420.96        61.68143
421.41        61.94822
421.85        61.73308
422.30        61.45804
422.74        61.17405
423.19        60.59711
423.64        59.97319
424.08        60.33176
424.53        61.48623
424.98        62.12678
425.42        62.09311
425.87        62.23968
426.31        62.59098
426.76            62.5
427.21        62.17165
427.65         62.4577
428.10        63.27803
428.54        64.00219
428.99         64.5713
429.44        64.88974
429.88        64.95866
430.33        65.64194
430.77        66.38033
431.22        65.27175
431.66        62.86533
432.11        61.62238
432.56        61.85044
433.00        62.61747
433.45        63.70216
433.89        65.52529
434.34         66.8543
434.78        67.47215
435.23        63.78772
435.67        62.82778
436.12        65.10395
436.57        66.41199
437.01        66.71918
437.46        67.06287
437.90        67.65192
438.35        66.56838
438.79        67.36158
439.24        67.12521
439.68        66.94812
440.13        66.69954
440.57        66.64579
441.02        67.46976
441.46        68.79304
441.91        69.57259
442.35        69.57823
442.80        68.84501
443.24        67.80189
443.69        68.42274
444.13        70.28856
444.58        70.40565
445.02        68.71758
445.47        68.42596
445.91        69.41484
446.36        69.74342
446.80        69.36117
447.24         69.2948
447.69        69.58566
448.13        69.85766
448.58        70.10259
449.02         70.3719
449.47        70.62915
449.91        70.82368
450.36        70.94323
450.80        70.99648
451.25        70.98602
451.69        70.85256
452.13        70.64791
452.58        70.47619
453.02        70.38701
453.47        70.42292
453.91        70.57503
454.36        70.85422
454.80        71.17191
455.24        71.25021
455.69        71.05383
456.13        70.84701
456.58        70.72338
457.02        70.24465
457.46        69.71314
457.91        70.13425
458.35        71.21813
458.79        71.65614
459.24        71.37003
459.68          70.981
460.13        70.62649
460.57        70.35609
461.01         70.1399
461.46        69.90415
461.90        69.49246
462.34         70.0518
462.79        69.51718
463.23        69.59698
463.68        70.05588
464.12        70.52736
464.56        70.94309
465.01        70.76345
465.45        70.10091
465.89        70.02905
466.34        70.30025
466.78        69.44437
467.22        68.05633
467.67        66.92591
468.11        68.64378
468.55        69.36105
468.99        69.48701
469.44        69.21131
469.88        68.73668
470.32        68.77953
470.77        69.26145
471.21        69.34324
471.65        68.98115
472.10        68.82739
472.54        68.90899
472.98        68.93906
473.42        68.90495
473.87        69.02165
474.31         69.1847
474.75        69.01015
475.20        68.61364
475.64        68.54929
476.08        68.85311
476.52        68.90246
476.97        68.63609
477.41        68.78581
477.85        69.45377
478.29        68.46021
478.74          69.271
479.18        69.28142
479.62        68.06451
480.06        68.55717
480.50        68.84621
480.95        69.29607
481.39        69.45019
481.83         68.3968
482.27        68.69912
482.72        68.55675
483.16        67.35777
483.60        67.55256
484.04        68.81004
484.48        69.16608
484.93        69.19963
485.37        70.56449
485.81        71.02946
486.25        70.65705
486.69        95.08708
487.14        76.83469
487.58        47.43008
488.02        58.53945
488.46        66.25368
488.90        66.19051
489.34        67.80985
489.79        67.16242
490.23        68.85771
490.67        69.69154
491.11        68.94101
491.55        68.95596
491.99         69.3207
492.43        69.10096
492.88        68.41239
493.32        68.38985
493.76        68.53644
494.20        68.76669
494.64        68.84188
495.08        68.95033
495.52        69.13269
495.96        69.14476
496.41        68.94207
496.85        69.30598
497.29         69.9996
497.73        68.80456
498.17         66.7551
498.61        67.21754
499.05        70.10847
499.49        70.66457
499.93         70.3641
500.37        70.03396
500.82        69.62312
501.26        69.24599
501.70        69.45188
502.14        69.59489
502.58        69.71425
503.02        69.70247
503.46        69.53655
503.90        69.22708
504.34        68.89181
504.78        68.74983
505.22        68.84006
505.66        69.07369
506.10        69.35355
506.54        69.55074
506.98        69.55422
507.42        69.47251
507.86        68.98048
508.30         68.8427
508.74        68.97443
509.18        69.20777
509.62        69.43021
510.06           69.53
510.50        69.47337
510.94        69.30309
511.38        69.11793
511.82        69.06516
512.26        69.17944
512.70        69.40914
513.14         69.6742
513.58        69.84727
514.02        69.88324
514.46        69.81499
514.90         69.6959
515.34        69.59321
515.78        69.52111
516.22        69.52618
516.66        69.57349
517.10        69.43309
517.54        69.09607
517.98        69.22557
518.42        68.99269
518.86        69.11741
519.30        69.33967
519.74        69.69553
520.18        70.07762
520.62        70.31097
521.06        70.36639
521.50        70.26581
521.93        70.07578
522.37         69.9743
522.81        70.01932
523.25        69.91234
523.69        70.08348
524.13         70.1227
524.57        70.15354
525.01        70.18452
525.45        70.23167
525.89        70.30743
526.32         70.3977
526.76        70.48771
527.20        70.55409
527.64        70.58285
528.08        70.58754
528.52        70.52393
528.96        70.36564
529.40        70.27042
529.83        70.28535
530.27        69.65158
530.71        69.81014
531.15        69.75442
531.59        69.90804
532.03        70.19462
532.46        70.55461
532.90        70.85284
533.34        71.02625
533.78        71.10744
534.22        71.09954
534.66        71.02039
535.09        70.87445
535.53        70.68332
535.97        70.46455
536.41        70.26935
536.85        70.12128
537.28        70.02528
537.72        69.97096
538.16        69.94755
538.60        69.94807
539.04        69.91472
539.47        69.85824
539.91        69.98396
540.35        70.21124
540.79        70.23714
541.22        70.06481
541.66        69.98363
542.10        69.99963
542.54        69.94163
542.97        69.84557
543.41        69.87957
543.85        70.03922
544.29        70.28704
544.72         70.5134
545.16        70.56389
545.60         70.3996
546.04        70.11007
546.47        69.81883
546.91        69.65725
547.35        69.71565
547.79        70.11929
548.22        70.64133
548.66        70.85152
549.10         70.6055
549.53        69.88501
549.97        69.03612
550.41        68.63134
550.84        68.75854
551.28        69.49915
551.72        69.97137
552.15        70.41599
552.59        70.52803
553.03        70.42571
553.46        70.18815
553.90        70.01481
554.34        69.96028
554.77        69.88269
555.21        69.79498
555.65        69.86698
556.08        70.22773
556.52        69.91566
556.96        70.50584
557.39        70.36366
557.83        70.07088
558.27        70.00393
558.70        70.20221
559.14        70.35677
559.57        70.42902
560.01        70.64616
560.45        70.91325
560.88        70.94316
561.32         70.7465
561.75        70.46507
562.19        70.21331
562.63        69.87056
563.06        69.55923
563.50        69.70918
563.93        70.18449
564.37        70.42603
564.80        70.35533
565.24        70.29301
565.68        70.25439
566.11        70.18715
566.55         70.1598
566.98        70.07266
567.42         69.9698
567.85        70.19392
568.29        70.71171
568.72        70.71501
569.16        70.37945
569.60        71.10967
570.03         71.3138
570.47        71.35027
570.90        71.20077
571.34        69.21167
571.77        70.32863
572.21        70.49955
572.64        69.88788
573.08        68.89008
573.51        65.84856
573.95        68.43968
574.38        72.73523
574.82        71.14426
