SpectraSmart Spectrum 2.9.0.0
--------- Device Information -----------
Spectrum Name :  反射率_0
Saving Time :  2024/04/26 01:52:22
Spectro-Module Model Name : SE2030-DUVN
Spectro-Module Serial Number : OS361AC55029948
Wavelength Start : 200
Wavelength End : 1025
Wavelength Unit : Wavelength(nm)
Spectrum Unit : Reflectance(%)
-----------Spectrum Setting ------------
Integration Time : 20ms
Average : 10
Boxcar : 0
Background removal :  enabled
linearity correction :  enabled
SC :  disabled
Intensity correction :  disabled
DWT denoise :  enabled
savitzky-golay :  disabled
FFT :  disabled
Running average :  disabled
Kalman :  disabled
High pass :  disabled
---------------BEGIN--------------------
Wavelength(nm)             Reflectance(%)
200.29               0
200.75        86.96302
201.21        79.45045
201.67        70.74068
202.13        66.22962
202.58         66.5042
203.04        70.34372
203.50        75.16257
203.96        76.53372
204.42        73.81826
204.88        69.16207
205.34        64.85568
205.80        62.95612
206.26        64.02306
206.72        68.98669
207.18        80.46665
207.64        92.92697
208.10        89.89112
208.55        78.00087
209.01        69.81105
209.47        67.22702
209.93        68.05303
210.39        71.17445
210.85        74.12487
211.31        72.00319
211.77        63.92039
212.23        52.04591
212.69         41.4465
213.14        39.84112
213.60        48.21696
214.06        64.15482
214.52        81.87086
214.98        92.39857
215.44        93.42234
215.90        87.92599
216.36        79.38707
216.81        72.67601
217.27        69.60023
217.73        68.62543
218.19        68.19994
218.65        66.30772
219.11        62.01603
219.57        54.87471
220.02        46.06825
220.48        41.92862
220.94        45.40675
221.40        54.68615
221.86        62.23423
222.32        60.52938
222.77         51.1649
223.23        38.87034
223.69        29.02493
224.15        27.14085
224.61         32.4057
225.06         41.9142
225.52        51.48343
225.98        55.66793
226.44        53.51697
226.90        47.35598
227.36        40.11248
227.81        35.76096
228.27         35.4773
228.73        37.63696
229.19        40.88354
229.65        43.25755
230.10        44.17512
230.56        44.42118
231.02        44.37035
231.48        44.34637
231.93        44.44081
232.39        44.47343
232.85        44.46144
233.31        44.55274
233.77        44.75623
234.22        45.07626
234.68        45.43031
235.14        45.54058
235.60        45.36853
236.05        45.06364
236.51        44.79875
236.97        44.78822
237.43        45.17228
237.88        46.04454
238.34        47.54773
238.80        49.92362
239.26        53.01563
239.71        56.65963
240.17        60.17617
240.63        63.05668
241.08        65.18101
241.54        66.46901
242.00        67.23698
242.46        68.12547
242.91        69.85489
243.37        73.22469
243.83        83.81951
244.28         122.747
244.74         175.234
245.20        157.0516
245.66        135.1454
246.11        128.7457
246.57        131.8526
247.03        147.1766
247.48        190.0908
247.94        154.8035
248.40        105.4907
248.85        91.79844
249.31        88.61237
249.77        89.35162
250.22         92.5342
250.68        98.52367
251.14        106.7919
251.59        110.7088
252.05        104.7673
252.51        92.86416
252.96        81.04079
253.42        74.65278
253.88        73.06819
254.33         74.2467
254.79        78.19165
255.25        84.13251
255.70        90.48454
256.16        96.84923
256.62        100.9699
257.07        100.5949
257.53        96.86362
257.99        90.76163
258.44        84.46002
258.90        81.48264
259.35        80.90984
259.81        81.48974
260.27        81.22598
260.72        78.20374
261.18        73.24262
261.63        67.17886
262.09         61.6058
262.55        57.61501
263.00        55.17428
263.46        53.83853
263.91         52.7879
264.37        51.48715
264.83        49.69638
265.28        47.51183
265.74        45.36665
266.19        43.65158
266.65        42.61678
267.11        42.02217
267.56        41.48237
268.02        40.52956
268.47        39.03339
268.93        37.15823
269.38        35.18612
269.84        33.83922
270.30        33.30828
270.75        33.39457
271.21        33.68539
271.66        33.55806
272.12         32.8492
272.57        31.74785
273.03        30.59385
273.48        29.81279
273.94        29.52866
274.39        29.54575
274.85        29.61459
275.31        29.36709
275.76        28.72083
276.22        27.83915
276.67        26.92606
277.13        26.36247
277.58        26.16107
278.04        26.21899
278.49         26.2737
278.95        26.02274
279.40        25.39598
279.86        24.57135
280.31        23.71851
280.77         23.2002
281.22        23.03613
281.68        23.11211
282.13        23.26504
282.59        23.30335
283.04        23.17112
283.50        22.97976
283.95        22.73273
284.41        22.45116
284.86        22.15709
285.32         21.8482
285.77        21.63522
286.22         21.7513
286.68        22.18299
287.13        22.81873
287.59        23.41286
288.04        23.58745
288.50         23.3046
288.95         22.6824
289.41        21.96369
289.86        21.40913
290.32        21.15678
290.77        21.11862
291.22        21.27211
291.68         21.5408
292.13        21.90099
292.59        22.38963
293.04        23.01068
293.50        23.75891
293.95        24.60812
294.40        25.51529
294.86         26.4405
295.31        27.34555
295.77        28.23129
296.22        29.11639
296.68        30.01119
297.13        30.90113
297.58        31.80392
298.04        32.73328
298.49        33.74849
298.95        34.99009
299.40        36.46221
299.85        38.11905
300.31        39.82626
300.76        41.36494
301.21        42.66593
301.67        43.83278
302.12        44.91533
302.58        46.08284
303.03        47.36071
303.48         48.7197
303.94        50.23547
304.39        51.96539
304.84        53.90478
305.30        56.02515
305.75        58.11039
306.20        59.84911
306.66        61.20645
307.11        62.23148
307.57         63.1851
308.02        64.35249
308.47        65.85616
308.93        67.61309
309.38         69.4565
309.83        71.16845
310.29        72.66813
310.74        73.98542
311.19        75.21958
311.65        76.52486
312.10        77.92519
312.55        79.37772
313.00        80.72847
313.46        81.73908
313.91        82.34581
314.36        82.64317
314.82        82.88058
315.27        83.38997
315.72        84.28581
316.18        85.47763
316.63        86.76458
317.08        87.76553
317.53        88.37009
317.99        88.67216
318.44        88.90663
318.89        89.46117
319.35        90.39874
319.80        91.61975
320.25        92.80583
320.70        93.43426
321.16        93.38906
321.61        92.84821
322.06        92.16742
322.51        91.90379
322.97        92.17788
323.42        92.86603
323.87        93.70067
324.32        94.21867
324.78        94.27444
325.23        94.06037
325.68         93.7541
326.13        93.66846
326.59        93.87512
327.04        94.29153
327.49        94.81986
327.94        95.33986
328.39        95.79357
328.85        96.20658
329.30        96.60483
329.75        96.85506
330.20        96.96674
330.66        96.95985
331.11        97.02652
331.56         97.4042
332.01        98.16274
332.46        99.21941
332.92        100.4149
333.37        101.6435
333.82        102.7193
334.27        103.6647
334.72        104.3774
335.17         104.715
335.63        104.6859
336.08        104.3933
336.53        104.0461
336.98        104.0333
337.43        104.4613
337.88        105.2239
338.34        106.1965
338.79         107.254
339.24        108.2648
339.69        109.2819
340.14        110.1335
340.59        110.5281
341.05        110.4423
341.50        109.9489
341.95        109.3886
342.40        109.2991
342.85        109.7942
343.30        110.7327
343.75        111.8217
344.20        112.5292
344.66         112.706
345.11        112.4965
345.56        112.1112
346.01        111.8702
346.46        111.8706
346.91        112.0023
347.36        112.1856
347.81        112.3092
348.26        112.3452
348.72        112.3752
349.17        112.4028
349.62        112.4657
350.07        112.5735
350.52        112.6899
350.97        112.8259
351.42        113.0148
351.87        113.2382
352.32        113.4668
352.77        113.6177
353.22        113.5613
353.67        113.2778
354.13        112.8343
354.58        112.2789
355.03        111.7529
355.48         111.301
355.93        110.8861
356.38        110.5063
356.83        110.1533
357.28         109.805
357.73        109.4638
358.18        109.0663
358.63        108.5063
359.08        107.7775
359.53        106.9273
359.98        106.0343
360.43        105.2243
360.88        104.5287
361.33        103.8993
361.78          103.33
362.23          102.81
362.68        102.3233
363.13        101.8892
363.58        101.4207
364.03         100.771
364.48        99.92906
364.93        98.94009
365.38        97.96216
365.83        97.26168
366.28        96.88169
366.73        96.71154
367.18         96.5985
367.63        96.29096
368.08        95.72179
368.53        95.00513
368.98        94.16597
369.43        93.23051
369.88        92.24346
370.33        91.18908
370.78        90.24464
371.23        89.71159
371.68        89.64014
372.13        89.95295
372.58        90.36696
373.03        90.38978
373.48        89.89447
373.93        89.02229
374.38        88.03582
374.83        87.34402
375.28        87.04449
375.72        86.99316
376.17        87.02861
376.62        86.87084
377.07        86.43353
377.52        85.80172
377.97        85.09596
378.42        84.49834
378.87        84.06693
379.32        83.75756
379.77        83.45226
380.22        82.97803
380.67        82.30197
381.11        81.47769
381.56        80.67295
382.01        80.16375
382.46        80.02049
382.91        80.17968
383.36         80.3981
383.81        80.29092
384.26        79.77872
384.71         78.9626
385.15        78.12591
385.60        77.76627
386.05         77.9089
386.50        78.38151
386.95        78.81769
387.40        78.61254
387.85        77.70048
388.29        76.35522
388.74        75.05529
389.19        74.14484
389.64        73.69036
390.09        73.51897
390.54         73.6026
390.98        73.89298
391.43        74.30193
391.88        74.80742
392.33        75.17992
392.78        75.01812
393.23         74.3186
393.67        73.37019
394.12         72.5256
394.57        71.70105
395.02        71.15191
395.47        71.57931
395.91        72.76707
396.36        73.44435
396.81        73.41562
397.26        73.26833
397.71        73.08598
398.15        72.67922
398.60        72.19225
399.05        71.76102
399.50        71.39163
399.95        70.73686
400.39        70.22013
400.84        69.96778
401.29        70.05988
401.74        70.27847
402.18        70.50983
402.63        70.49207
403.08        70.31307
403.53        70.38242
403.97        70.69737
404.42        70.95427
404.87        71.04565
405.32        70.85647
405.76        70.35251
406.21        69.85548
406.66        69.41521
407.11        68.68866
407.55        67.97382
408.00        68.12461
408.45        69.01335
408.90        69.76469
409.34        69.96717
409.79        69.27979
410.24        68.09666
410.68        67.60444
411.13        67.92595
411.58        68.35805
412.03        68.75128
412.47        69.17619
412.92        69.49664
413.37        69.71725
413.81        69.79245
414.26         69.7048
414.71        69.45102
415.15        69.02618
415.60        68.56223
416.05        68.29362
416.49        68.28168
416.94        68.49902
417.39        68.75163
417.83        68.68106
418.28        68.23904
418.73         67.5561
419.17        66.92626
419.62        66.81608
420.07        67.26603
420.51        68.10273
420.96        69.02143
421.41        69.44338
421.85        69.20031
422.30        68.77071
422.74        68.26448
423.19        67.52374
423.64        66.79513
424.08        66.99513
424.53        67.96745
424.98        68.52988
425.42        68.53438
425.87        68.83904
426.31        69.37578
426.76        69.22467
427.21        68.62683
427.65        68.78529
428.10        69.65717
428.54        70.40266
428.99        70.96948
429.44        71.36492
429.88        71.54557
430.33         72.3247
430.77        73.08014
431.22        71.78352
431.66        69.06667
432.11         67.6605
432.56        67.88219
433.00        68.71783
433.45        69.97612
433.89        71.95213
434.34        73.20956
434.78        74.48617
435.23        70.31393
435.67        68.82686
436.12        70.39029
436.57        71.60464
437.01        72.47109
437.46        72.91157
437.90        73.09682
438.35        72.37031
438.79        73.20048
439.24        73.17324
439.68         73.0369
440.13        72.68243
440.57        72.47576
441.02        73.42075
441.46        75.05291
441.91        75.97083
442.35        75.86343
442.80        74.64098
443.24        72.93084
443.69        73.52615
444.13        75.96544
444.58        76.18015
445.02        74.35098
445.47        74.15269
445.91        75.49889
446.36        75.89867
446.80        75.26204
447.24        75.16846
447.69        75.10464
448.13        75.28814
448.58        75.55721
449.02        75.90723
449.47        76.28582
449.91        76.66679
450.36        76.98283
450.80        77.18427
451.25        77.23167
451.69        76.93279
452.13        76.43244
452.58         76.1848
453.02        76.21579
453.47        76.23717
453.91        76.22581
454.36        76.39565
454.80        76.68171
455.24        76.70193
455.69         76.4167
456.13        76.20874
456.58        76.10919
457.02         75.3875
457.46        74.43806
457.91        74.70632
458.35        75.90788
458.79        76.38561
459.24         76.0634
459.68        75.76899
460.13         75.5864
460.57        75.30936
461.01        75.05135
461.46        74.37357
461.90          74.077
462.34        74.11185
462.79         74.0079
463.23        74.15453
463.68         74.3091
464.12        74.74123
464.56        75.26785
465.01        75.36874
465.45        74.94549
465.89        74.75037
466.34        74.58219
466.78         73.5833
467.22         72.2135
467.67        72.00005
468.11        73.12973
468.55        73.83082
468.99        73.85059
469.44        73.46044
469.88        72.88143
470.32        72.85755
470.77        73.30931
471.21        73.32629
471.65        72.86237
472.10         72.5964
472.54        72.60046
472.98         72.6271
473.42        72.65528
473.87        72.94658
474.31        73.30396
474.75        73.02481
475.20         72.3148
475.64        72.17738
476.08        72.55411
476.52         72.6078
476.97        72.34106
477.41        72.09254
477.85        71.96058
478.29        72.38869
478.74        73.10921
479.18        73.13433
479.62        71.72218
480.06        72.18372
480.50        72.71068
480.95        73.25336
481.39        73.35829
481.83        72.36745
482.27        72.09866
482.72        72.55285
483.16        70.83678
483.60        70.76175
484.04        72.59212
484.48        72.78932
484.93        72.26236
485.37         74.2039
485.81        75.11568
486.25        73.68373
486.69        99.23059
487.14        80.16816
487.58        50.34383
488.02        61.61337
488.46        70.18839
488.90        69.83539
489.34        71.39165
489.79        70.69297
490.23        72.55183
490.67         73.3707
491.11        72.38103
491.55        72.40012
491.99        72.96022
492.43        72.79347
492.88        71.99554
493.32        71.89143
493.76         71.9886
494.20        72.18852
494.64        72.24792
495.08        72.40096
495.52        72.66908
495.96        72.66108
496.41        72.37937
496.85          72.882
497.29         73.8499
497.73        72.68861
498.17        70.43047
498.61          70.599
499.05        73.20344
499.49        73.62324
499.93        73.46584
500.37        73.32535
500.82         73.0224
501.26        72.96791
501.70        72.99112
502.14          73.191
502.58        73.39026
503.02        73.36255
503.46         73.0848
503.90        72.65576
504.34        72.24187
504.78        72.06281
505.22        72.16283
505.66        72.50529
506.10        72.93311
506.54        73.08949
506.98        72.88196
507.42        72.76854
507.86        72.27481
508.30        72.16498
508.74        72.30944
509.18        72.63959
509.62        73.01881
510.06        73.24406
510.50        73.26132
510.94        73.12981
511.38        72.95246
511.82        72.88412
512.26        72.96452
512.70        73.14124
513.14        73.32819
513.58         73.3925
514.02        73.29849
514.46        73.09127
514.90        72.86031
515.34        72.72561
515.78        72.70901
516.22        72.83189
516.66        73.01585
517.10        72.97749
517.54        72.68727
517.98        72.75562
518.42        72.47868
518.86         72.5435
519.30        72.73248
519.74        73.05437
520.18        73.41364
520.62         73.6526
521.06        73.73457
521.50         73.7055
521.93        73.59581
522.37        73.45377
522.81        73.31654
523.25        73.17617
523.69        73.07758
524.13        73.09087
524.57        73.22217
525.01        73.45046
525.45        73.71235
525.89        73.89915
526.32        73.96835
526.76        73.94324
527.20        73.85086
527.64        73.75836
528.08        73.70591
528.52        73.61643
528.96        73.45773
529.40        73.38862
529.83        73.44837
530.27        72.85181
530.71        73.07164
531.15        72.99815
531.59        73.06875
532.03        73.21864
532.46        73.44285
532.90         73.6973
533.34        73.93864
533.78        74.17117
534.22        74.33784
534.66        74.36482
535.09        74.23563
535.53        74.00098
535.97        73.72337
536.41        73.52591
536.85        73.44939
537.28        73.47185
537.72        73.54427
538.16        73.59746
538.60        73.60701
539.04        73.53054
539.47        73.40762
539.91        73.49458
540.35        73.71848
540.79        73.75162
541.22        73.57541
541.66        73.46109
542.10        73.40863
542.54        73.24922
542.97        73.05585
543.41        73.05124
543.85        73.23033
544.29        73.56808
544.72        73.90977
545.16        73.93832
545.60         73.5845
546.04        73.34146
546.47        72.76405
546.91        72.58287
547.35         72.7225
547.79        73.30693
548.22        74.04537
548.66        74.38799
549.10        74.18618
549.53        73.47678
549.97        72.59495
550.41        72.13476
550.84        72.21201
551.28        72.56605
551.72        73.03103
552.15        73.35812
552.59        73.44932
553.03        73.50572
553.46         73.4017
553.90        73.29623
554.34        73.32906
554.77        73.32427
555.21        73.12763
555.65        73.26688
556.08        73.75233
556.52        73.13639
556.96        73.23705
557.39        73.07954
557.83        73.22125
558.27        73.43058
558.70        73.64446
559.14        73.75146
559.57         73.7414
560.01        73.79896
560.45        73.93592
560.88        74.06855
561.32        74.12281
561.75        74.01248
562.19        73.78003
562.63        73.16398
563.06        72.43713
563.50        72.59291
563.93        73.42799
564.37        73.75643
564.80        73.47437
565.24        73.28939
565.68        73.26911
566.11        73.22636
566.55        73.22628
566.98        73.29108
567.42        73.40218
567.85        73.52444
568.29        73.69128
568.72         73.7016
569.16        73.73006
569.60        74.12241
570.03        74.53362
570.47        74.40683
570.90        74.07356
571.34        72.27153
571.77        73.41651
572.21        73.29588
572.64        72.81156
573.08        71.88445
573.51        68.95958
573.95        71.56831
574.38        75.74789
574.82        73.88722
