SpectraSmart Spectrum 2.9.0.0
--------- Device Information -----------
Spectrum Name :  反射率_0
Saving Time :  2024/04/26 01:21:19
Spectro-Module Model Name : SE2030-DUVN
Spectro-Module Serial Number : OS361AC55029948
Wavelength Start : 200
Wavelength End : 1025
Wavelength Unit : Wavelength(nm)
Spectrum Unit : Reflectance(%)
-----------Spectrum Setting ------------
Integration Time : 20ms
Average : 10
Boxcar : 0
Background removal :  enabled
linearity correction :  enabled
SC :  disabled
Intensity correction :  disabled
DWT denoise :  enabled
savitzky-golay :  disabled
FFT :  disabled
Running average :  disabled
Kalman :  disabled
High pass :  disabled
---------------BEGIN--------------------
Wavelength(nm)             Reflectance(%)
200.29               0
200.75        98.28139
201.21        88.55717
201.67        77.48969
202.13        72.01363
202.58        72.90125
203.04        78.52602
203.50         85.4655
203.96        87.81839
204.42        84.66851
204.88        78.76314
205.34        73.34814
205.80        71.53856
206.26        74.34399
206.72        83.66982
207.18        103.7986
207.64        123.3905
208.10        114.7156
208.55        92.64709
209.01        78.29218
209.47        73.65363
209.93        74.81847
210.39        79.59052
210.85        85.23246
211.31        86.07344
211.77        80.48094
212.23        70.85482
212.69        61.73399
213.14        60.01174
213.60        66.67431
214.06        79.47225
214.52        93.76515
214.98        102.4956
215.44        103.7355
215.90        99.81857
216.36        93.39528
216.81        88.07391
217.27        85.35168
217.73        84.09392
218.19        82.99209
218.65        80.26035
219.11        74.95784
219.57         66.3609
220.02        55.54977
220.48         49.1471
220.94        50.85139
221.40        59.29044
221.86        66.95962
222.32        66.00918
222.77         57.6588
223.23        46.43734
223.69        37.56586
224.15        36.45382
224.61        42.28499
225.06        52.22688
225.52        61.95897
225.98        65.79462
226.44        62.82398
226.90        55.48391
227.36        47.16013
227.81        42.46326
228.27        42.66361
228.73        45.94973
229.19        50.41825
229.65        53.28257
230.10        53.86982
230.56        53.34796
231.02        52.60516
231.48        52.58204
231.93        53.37594
232.39        54.55062
232.85        55.73386
233.31        56.50052
233.77        56.72334
234.22        56.61041
234.68        56.31992
235.14         56.0661
235.60        56.00459
236.05        56.11707
236.51        56.42567
236.97        56.97415
237.43        57.83643
237.88        59.17405
238.34        61.09214
238.80        63.77343
239.26        67.02463
239.71        70.81323
240.17        74.20354
240.63        76.36794
241.08        77.26413
241.54        76.93332
242.00        76.60463
242.46        78.34551
242.91        84.13685
243.37        98.34863
243.83        138.6673
244.28        248.4233
244.74        333.1237
245.20        237.0963
245.66        172.5307
246.11        154.4255
246.57        159.8233
247.03        194.6574
247.48        305.3854
247.94         257.194
248.40        140.2807
248.85         104.031
249.31        93.33322
249.77        92.36817
250.22        96.91708
250.68          106.73
251.14        122.0771
251.59        134.9472
252.05        135.5565
252.51         126.843
252.96        115.0646
253.42        107.1987
253.88        103.3773
254.33        101.2146
254.79        101.8371
255.25        106.1528
255.70        112.6245
256.16        120.2406
256.62        125.8634
257.07         126.314
257.53         122.808
257.99        116.5984
258.44        109.8899
258.90        106.4544
259.35        105.2792
259.81         105.175
260.27        104.2352
260.72        100.6296
261.18        95.27831
261.63         88.9082
262.09        82.97352
262.55        78.26034
263.00        74.79225
263.46        72.36897
263.91        70.41017
264.37        68.77643
264.83        67.11945
265.28        65.35223
265.74        63.57824
266.19        61.62484
266.65        59.79141
267.11        58.10937
267.56        56.52706
268.02        54.98978
268.47        53.34763
268.93         51.6257
269.38        49.92491
269.84         48.6593
270.30        47.92797
270.75        47.63709
271.21        47.49992
271.66        47.06316
272.12        46.21838
272.57         45.0828
273.03        43.93686
273.48           43.11
273.94        42.70528
274.39        42.53727
274.85        42.41579
275.31        42.03028
275.76        41.30082
276.22        40.38535
276.67        39.39261
277.13         38.6031
277.58         38.0145
278.04        37.58736
278.49        37.17712
278.95        36.67986
279.40         36.0228
279.86        35.32307
280.31        34.59075
280.77        33.97581
281.22        33.46252
281.68        33.05218
282.13        32.70321
282.59         32.4198
283.04        32.17214
283.50        32.00275
283.95        31.85393
284.41        31.67464
284.86        31.44263
285.32        31.18481
285.77        30.97355
286.22         30.9945
286.68        31.24193
287.13        31.61492
287.59        31.94206
288.04        31.94639
288.50        31.61666
288.95        31.02946
289.41        30.38436
289.86        29.85523
290.32        29.56837
290.77        29.46284
291.22         29.5364
291.68        29.73889
292.13        30.05557
292.59        30.51434
293.04        31.13515
293.50        31.94661
293.95         32.9181
294.40        33.99273
294.86        35.08912
295.31        36.10103
295.77          37.014
296.22         37.8611
296.68        38.68595
297.13         39.5294
297.58        40.42966
298.04        41.39647
298.49        42.46418
298.95        43.73818
299.40        45.21555
299.85        46.86227
300.31        48.58551
300.76        50.22722
301.21        51.71386
301.67        53.11209
302.12        54.39043
302.58        55.62226
303.03        56.80761
303.48        57.96051
303.94        59.20901
304.39        60.68279
304.84        62.40754
305.30        64.33629
305.75        66.24709
306.20        67.82599
306.66        69.03508
307.11        69.92357
307.57        70.73682
308.02        71.71863
308.47        72.98437
308.93        74.45359
309.38        75.97854
309.83        77.38277
310.29        78.59875
310.74        79.64957
311.19        80.60816
311.65        81.58205
312.10        82.58881
312.55        83.60608
313.00         84.5348
313.46        85.22736
313.91        85.64439
314.36        85.85587
314.82        86.04993
315.27        86.45824
315.72        87.16924
316.18        88.11503
316.63         89.1423
317.08        89.95403
317.53        90.45652
317.99        90.70647
318.44        90.88993
318.89        91.31863
319.35        92.03797
319.80        92.98694
320.25        93.87511
320.70        94.22675
321.16        93.95751
321.61        93.23672
322.06        92.44945
322.51        92.19576
322.97        92.58907
323.42        93.48466
323.87        94.54417
324.32        95.18159
324.78        95.21175
325.23        94.85374
325.68        94.33345
326.13        94.05167
326.59        94.11475
327.04        94.42332
327.49        94.87276
327.94        95.32859
328.39        95.72753
328.85        96.10624
329.30         96.4974
329.75        96.77048
330.20        96.93073
330.66        96.99049
331.11        97.11597
331.56        97.50851
332.01        98.23026
332.46         99.2046
332.92        100.3044
333.37        101.4864
333.82        102.5825
334.27        103.5969
334.72         104.391
335.17         104.759
335.63        104.6878
336.08        104.2989
336.53        103.8238
336.98        103.6849
337.43        104.0062
337.88        104.6825
338.34        105.5833
338.79        106.5732
339.24        107.5208
339.69        108.4785
340.14        109.3114
340.59        109.7843
341.05        109.8713
341.50        109.6165
341.95        109.2715
342.40        109.2494
342.85        109.6461
343.30        110.3586
343.75        111.1872
344.20        111.7658
344.66        111.9916
345.11        111.9573
345.56        111.7962
346.01        111.7061
346.46        111.7549
346.91        111.8796
347.36        112.0325
347.81        112.1512
348.26        112.2208
348.72         112.285
349.17        112.3567
349.62        112.4973
350.07        112.7032
350.52        112.9316
350.97        113.1213
351.42        113.1882
351.87        113.1161
352.32        112.9423
352.77        112.6931
353.22        112.4123
353.67        112.1261
354.13        111.8367
354.58        111.5574
355.03        111.3685
355.48        111.2665
355.93        111.2217
356.38        111.1405
356.83        110.8724
357.28        110.3845
357.73        109.7266
358.18        108.9768
358.63        108.2623
359.08        107.6319
359.53        107.0614
359.98        106.5304
360.43        106.0023
360.88        105.4559
361.33        104.8929
361.78        104.3262
362.23         103.774
362.68        103.2396
363.13        102.7251
363.58        102.1711
364.03        101.4838
364.48        100.6588
364.93        99.72954
365.38        98.81932
365.83        98.12929
366.28        97.68889
366.73        97.41506
367.18        97.17478
367.63        96.75074
368.08        96.09335
368.53        95.30373
368.98        94.43237
369.43        93.54337
369.88         92.6824
370.33        91.82926
370.78         91.0956
371.23        90.67202
371.68        90.58251
372.13        90.77036
372.58        91.04605
373.03        91.07803
373.48        90.77506
373.93        90.23011
374.38        89.58337
374.83        89.05935
375.28        88.71781
375.72        88.46732
376.17        88.27389
376.62        88.06377
377.07        87.79745
377.52        87.49431
377.97        87.13043
378.42        86.66044
378.87         86.0962
379.32        85.47604
379.77        84.82815
380.22        84.18766
380.67        83.56333
381.11        82.94086
381.56         82.3726
382.01        81.94781
382.46         81.6896
382.91        81.59985
383.36        81.53841
383.81         81.2813
384.26         80.7903
384.71        80.10993
385.15        79.44366
385.60        79.17619
386.05        79.30633
386.50        79.70381
386.95         80.0512
387.40        79.82315
387.85        78.97166
388.29        77.72692
388.74        76.53792
389.19        75.71471
389.64        75.31495
390.09         75.1801
390.54        75.27625
390.98        75.54204
391.43        75.89365
391.88        76.31712
392.33        76.60966
392.78        76.40689
393.23        75.71191
393.67        74.80925
394.12        74.03203
394.57        73.24725
395.02        72.71168
395.47        73.17285
395.91        74.41304
396.36        75.11919
396.81        75.08859
397.26        74.92727
397.71         74.7221
398.15        74.26234
398.60        73.69489
399.05        73.21613
399.50        72.82317
399.95        72.03601
400.39        71.34242
400.84        71.12472
401.29        71.41976
401.74        71.70436
402.18        71.82233
402.63        71.64458
403.08        71.33302
403.53        71.35915
403.97          71.752
404.42          72.199
404.87        72.47297
405.32        72.33685
405.76        71.74483
406.21        70.85764
406.66        69.94915
407.11        69.48744
407.55        69.58511
408.00          69.893
408.45        70.27505
408.90        70.89918
409.34        71.41209
409.79         70.8811
410.24        69.64472
410.68         69.0452
411.13        69.20579
411.58        69.41177
412.03        69.56998
412.47        69.83627
412.92         70.1051
413.37        70.36848
413.81        70.54324
414.26        70.53754
414.71        70.32579
415.15        69.93143
415.60        69.47349
416.05        69.16567
416.49        69.07175
416.94        69.15748
417.39        69.28691
417.83         69.2044
418.28        68.87462
418.73        68.39435
419.17        67.95627
419.62        67.87383
420.07        68.16011
420.51        68.69346
420.96        69.26917
421.41        69.46995
421.85        69.17478
422.30         68.8418
422.74         68.4997
423.19        67.79706
423.64        66.99108
424.08        67.21767
424.53        68.30876
424.98        68.87698
425.42        68.75858
425.87        68.94656
426.31        69.41425
426.76        69.17291
427.21        68.51701
427.65        68.85227
428.10        70.01859
428.54        70.81583
428.99        71.14537
429.44        71.14577
429.88        70.95522
430.33        71.61086
430.77        72.48277
431.22        71.51601
431.66        69.15313
432.11        67.55058
432.56        67.12325
433.00        67.86782
433.45        69.66692
433.89        71.57912
434.34        72.26361
434.78        73.97497
435.23        69.75372
435.67        68.09354
436.12        69.85435
436.57        70.93445
437.01        71.60642
437.46        72.04621
437.90        72.50535
438.35        71.26283
438.79        72.45517
439.24        72.29061
439.68        72.02576
440.13         71.5067
440.57        71.13699
441.02        72.03545
441.46        73.72174
441.91        74.55048
442.35        74.28005
442.80        73.27547
443.24        72.02086
443.69         72.5949
444.13        74.56759
444.58        74.55231
445.02        72.77233
445.47        72.46765
445.91        73.56339
446.36        73.88807
446.80        73.38037
447.24        73.16543
447.69        73.32116
448.13        73.53258
448.58        73.81115
449.02        74.14116
449.47        74.44655
449.91        74.83821
450.36        74.93575
450.80        75.02703
451.25        75.00849
451.69        74.84856
452.13        74.59229
452.58        74.29825
453.02        74.05188
453.47        73.99443
453.91        74.11999
454.36        74.38888
454.80        74.70374
455.24        74.73284
455.69        74.42305
456.13        74.19598
456.58        74.10472
457.02        73.29179
457.46         72.3061
457.91        72.73106
458.35        74.22444
458.79        74.78214
459.24        74.29604
459.68        73.80383
460.13        73.46458
460.57        73.06301
461.01        72.71939
461.46        72.33286
461.90        71.88577
462.34        72.23297
462.79        72.04945
463.23         72.2931
463.68         72.5041
464.12        72.83523
464.56        73.15907
465.01        73.13596
465.45        72.72327
465.89        72.56708
466.34        72.54269
466.78        71.56526
467.22        70.16317
467.67         69.7338
468.11        70.99562
468.55        71.74751
468.99        71.85921
469.44        71.53828
469.88        70.98924
470.32        70.95656
470.77         71.3839
471.21          71.415
471.65        71.01444
472.10        70.84389
472.54        70.92278
472.98        70.95123
473.42        70.91209
473.87        71.01128
474.31        71.14692
474.75        70.97004
475.20        70.59183
475.64        70.48945
476.08         70.6587
476.52        70.68727
476.97        70.56918
477.41        70.55459
477.85        70.63475
478.29        70.74519
478.74         70.8997
479.18        70.90957
479.62        69.87818
480.06        70.46014
480.50        70.84731
480.95        71.35883
481.39        71.50439
481.83        70.73315
482.27        70.54363
482.72        70.62908
483.16        68.91798
483.60        69.12556
484.04        70.44381
484.48        70.99979
484.93        71.23393
485.37        71.91254
485.81        72.65688
486.25        71.30781
486.69        97.46476
487.14        79.03811
487.58        49.08303
488.02        59.89779
488.46        68.64201
488.90        68.19527
489.34        69.49821
489.79        68.59473
490.23        70.58011
490.67        71.40607
491.11        70.36898
491.55        70.21059
491.99        70.53013
492.43         70.2845
492.88        69.59101
493.32        69.62344
493.76        69.85713
494.20        70.16415
494.64        70.28712
495.08        70.45284
495.52        70.68385
495.96        70.64183
496.41        70.31143
496.85        70.64684
497.29        71.41719
497.73        70.23768
498.17        68.08158
498.61        68.63873
499.05        71.08527
499.49        71.53861
499.93        71.33144
500.37        70.97832
500.82        70.42475
501.26        70.51173
501.70         70.9762
502.14        71.25692
502.58        71.15356
503.02        71.08186
503.46        71.01596
503.90        70.69745
504.34         70.2584
504.78        70.04414
505.22        70.10367
505.66        70.34521
506.10        70.66574
506.54        70.77841
506.98        70.60128
507.42        70.43104
507.86        70.43714
508.30        69.75028
508.74        70.20415
509.18        70.30717
509.62        70.49863
510.06        70.58923
510.50        70.55409
510.94        70.42619
511.38        70.27162
511.82        70.23631
512.26        70.34737
512.70        70.55916
513.14        70.79545
513.58        70.93598
514.02        70.94223
514.46        70.84461
514.90        70.71059
515.34        70.63712
515.78        70.64103
516.22        70.74375
516.66        70.87626
517.10        70.83096
517.54        70.46961
517.98        70.53574
518.42        70.23161
518.86          70.282
519.30        70.44547
519.74        70.78921
520.18        71.19828
520.62        71.36706
521.06        71.30767
521.50        71.32309
521.93        71.41093
522.37        71.34383
522.81         71.1391
523.25        70.93846
523.69        70.80735
524.13        70.78218
524.57        70.87523
525.01        71.07626
525.45        71.30753
525.89        71.43671
526.32        71.42209
526.76        71.29945
527.20        71.12148
527.64        70.99458
528.08        70.96466
528.52         70.9389
528.96         70.8659
529.40         70.8679
529.83        70.97023
530.27        70.42178
530.71        70.64204
531.15        70.55264
531.59        70.58117
532.03          70.669
532.46         70.8306
532.90        71.05743
533.34        71.31424
533.78        71.59188
534.22        71.82018
534.66        71.90421
535.09        71.81739
535.53        71.61344
535.97        71.34318
536.41        71.11215
536.85        70.96062
537.28        70.87189
537.72        70.82334
538.16         70.7883
538.60        70.75697
539.04        70.68616
539.47        70.59192
539.91        70.68357
540.35        70.88349
540.79        70.88428
541.22        70.69763
541.66        70.63152
542.10        70.68842
542.54        70.68163
542.97        70.63132
543.41        70.68249
543.85        70.82632
544.29         71.0399
544.72        71.20864
545.16        71.17735
545.60         70.9184
546.04        70.50643
546.47         70.1138
546.91         69.9974
547.35        70.23371
547.79        70.80342
548.22        71.43201
548.66        71.74368
549.10        71.56451
549.53        70.73058
549.97        69.64477
550.41        69.14765
550.84        69.35065
551.28        69.95219
551.72        70.72275
552.15        71.10096
552.59        70.90508
553.03        71.33921
553.46        70.64275
553.90        70.53221
554.34         70.5135
554.77        70.51838
555.21        70.50686
555.65        70.50529
556.08        70.82816
556.52        70.34699
556.96        70.77649
557.39        70.69131
557.83          70.618
558.27        70.61866
558.70        70.71531
559.14        70.79155
559.57        70.84223
560.01         71.0676
560.45        71.38183
560.88        71.46709
561.32        71.30756
561.75        71.09573
562.19        70.90167
562.63        70.41743
563.06        69.85411
563.50        69.96559
563.93        70.60617
564.37        70.99787
564.80        70.98334
565.24        70.83315
565.68        70.62946
566.11        70.43002
566.55        70.29823
566.98        70.26244
567.42        70.43062
567.85         70.0929
568.29        70.92062
568.72        71.07692
569.16          71.174
569.60        71.67902
570.03        72.24073
570.47        72.13889
570.90        71.65862
571.34        70.13145
571.77        70.64291
572.21        70.93239
572.64        70.17176
573.08        69.46968
573.51         66.4626
573.95        69.02869
574.38        73.24174
574.82        71.06478
