SpectraSmart Spectrum 2.9.0.0
--------- Device Information -----------
Spectrum Name :  反射率_0
Saving Time :  2024/04/26 01:11:45
Spectro-Module Model Name : SE2030-DUVN
Spectro-Module Serial Number : OS361AC55029948
Wavelength Start : 200
Wavelength End : 1025
Wavelength Unit : Wavelength(nm)
Spectrum Unit : Reflectance(%)
-----------Spectrum Setting ------------
Integration Time : 20ms
Average : 10
Boxcar : 0
Background removal :  enabled
linearity correction :  enabled
SC :  disabled
Intensity correction :  disabled
DWT denoise :  enabled
savitzky-golay :  disabled
FFT :  disabled
Running average :  disabled
Kalman :  disabled
High pass :  disabled
---------------BEGIN--------------------
Wavelength(nm)             Reflectance(%)
200.29               0
200.75        97.24535
201.21        90.03611
201.67        81.48823
202.13        77.11001
202.58        77.61424
203.04        81.66443
203.50        86.95229
203.96        89.52014
204.42        88.52104
204.88        85.68386
205.34        83.04378
205.80        82.65589
206.26         85.3716
206.72        92.78101
207.18        107.9025
207.64        121.5467
208.10        113.2442
208.55        95.34178
209.01        84.01455
209.47        80.25272
209.93        80.86814
210.39        84.27243
210.85        88.12015
211.31        87.67422
211.77        81.69056
212.23        72.07783
212.69        62.87294
213.14        60.25568
213.60        65.05675
214.06        75.51559
214.52        87.31026
214.98        93.77016
215.44        93.23203
215.90        87.86706
216.36        80.77024
216.81        76.20702
217.27        75.43716
217.73        76.94981
218.19        78.48663
218.65         77.1038
219.11        71.71852
219.57        61.71614
220.02        48.83795
220.48        42.15357
220.94        46.40115
221.40        58.78141
221.86        69.89274
222.32        70.21669
222.77        61.19722
223.23        48.49427
223.69          37.728
224.15           34.56
224.61        38.35504
225.06         46.1861
225.52        54.24408
225.98        57.70705
226.44        55.68959
226.90        50.28547
227.36        44.01936
227.81        40.24184
228.27        40.00981
228.73        41.93903
229.19        44.82271
229.65        46.93344
230.10        47.76577
230.56        47.97999
231.02        48.02475
231.48        48.36417
231.93        49.01959
232.39        49.72459
232.85        50.26025
233.31        50.38778
233.77        50.04544
234.22         49.3944
234.68        48.48611
235.14        47.39017
235.60        46.29993
236.05        45.30943
236.51        44.71974
236.97        44.90194
237.43        45.98566
237.88        48.12109
238.34        51.12119
238.80        54.20845
239.26        56.68591
239.71        58.59068
240.17        59.77712
240.63        60.87012
241.08         62.2436
241.54        63.58037
242.00        65.15622
242.46         67.6974
242.91         72.4746
243.37        82.66886
243.83        111.3469
244.28        194.9615
244.74         272.976
245.20        208.3907
245.66        158.8034
246.11        143.4226
246.57        144.8712
247.03        164.4648
247.48         222.563
247.94        172.3052
248.40        104.4055
248.85        86.19212
249.31        82.07473
249.77        83.31367
250.22        88.01256
250.68        96.82639
251.14        109.4295
251.59        117.3206
252.05        112.3091
252.51        98.47416
252.96         83.8835
253.42        76.05791
253.88        74.45058
254.33        76.33401
254.79        80.88219
255.25         86.2858
255.70          91.094
256.16        95.63399
256.62        98.35854
257.07        97.63228
257.53        94.41475
257.99        89.24509
258.44        83.77639
258.90        80.99347
259.35        80.00831
259.81        79.85609
260.27        78.86501
260.72        75.39925
261.18        70.24721
261.63        64.15601
262.09         58.5331
262.55        54.29301
263.00          51.471
263.46         49.7331
263.91        48.43698
264.37        47.19977
264.83        45.76519
265.28        44.12797
265.74        42.57704
266.19        41.27827
266.65        40.41707
267.11        39.84946
267.56        39.27282
268.02        38.31015
268.47        36.85947
268.93        35.04153
269.38        33.15451
269.84         31.9478
270.30        31.60241
270.75        31.92261
271.21        32.41503
271.66         32.3307
272.12        31.49818
272.57        30.15163
273.03        28.75578
273.48        27.93158
273.94        27.83021
274.39        28.18094
274.85        28.61267
275.31        28.57903
275.76        27.95902
276.22        26.98299
276.67         25.9203
277.13        25.24411
277.58        24.99859
278.04        25.04559
278.49        25.11961
278.95        24.91419
279.40        24.35162
279.86        23.61162
280.31        22.83955
280.77        22.35485
281.22         22.1715
281.68        22.18546
282.13        22.26243
282.59         22.2517
283.04        22.10692
283.50        21.92759
283.95        21.69871
284.41        21.40987
284.86        21.08126
285.32        20.72679
285.77        20.47899
286.22        20.60002
286.68        21.08096
287.13         21.7958
287.59        22.48462
288.04        22.75188
288.50        22.54818
288.95        21.99248
289.41          21.319
289.86        20.77901
290.32        20.50894
290.77        20.42272
291.22         20.5083
291.68        20.70621
292.13        20.99985
292.59        21.42719
293.04        21.98675
293.50        22.66255
293.95        23.42999
294.40        24.25274
294.86        25.10949
295.31        25.98794
295.77        26.89444
296.22        27.84415
296.68        28.82326
297.13        29.77689
297.58        30.71486
298.04        31.66133
298.49        32.71082
298.95        34.05811
299.40        35.71664
299.85        37.62014
300.31        39.58365
300.76        41.31086
301.21        42.70644
301.67        43.88348
302.12        44.94034
302.58        46.12094
303.03        47.46223
303.48        48.91586
303.94        50.48907
304.39        52.13399
304.84        53.84006
305.30        55.62589
305.75        57.37825
306.20        58.94419
306.66        60.31236
307.11        61.46432
307.57        62.56491
308.02        63.75748
308.47        65.12698
308.93        66.64172
309.38        68.16454
309.83        69.52523
310.29        70.67443
310.74        71.63216
311.19        72.53622
311.65         73.6002
312.10        74.85175
312.55        76.23222
313.00         77.5327
313.46         78.4181
313.91          78.803
314.36        78.81448
314.82        78.74123
315.27        78.97755
315.72        79.65502
316.18        80.66319
316.63        81.79639
317.08        82.67008
317.53         83.1682
317.99        83.38689
318.44        83.54498
318.89        84.00012
319.35        84.80753
319.80         85.8693
320.25        86.88149
320.70        87.35141
321.16        87.17521
321.61        86.52658
322.06        85.75375
322.51        85.39696
322.97        85.57427
323.42        86.16763
323.87        86.91854
324.32        87.37877
324.78        87.40636
325.23        87.18056
325.68        86.87457
326.13        86.79256
326.59        87.00204
327.04        87.42101
327.49        87.93778
327.94        88.40775
328.39        88.77084
328.85        89.05913
329.30        89.32909
329.75        89.51484
330.20        89.63802
330.66        89.69727
331.11        89.83395
331.56        90.20451
332.01        90.85728
332.46        91.73828
332.92        92.72257
333.37        93.75227
333.82        94.67652
334.27         95.5021
334.72        96.14678
335.17        96.49929
335.63        96.56006
336.08        96.41296
336.53        96.20221
336.98        96.20799
337.43        96.51313
337.88        97.04484
338.34        97.73023
338.79        98.52948
339.24        99.34832
339.69        100.2158
340.14        100.9761
340.59        101.3593
341.05        101.3322
341.50        100.9666
341.95        100.5383
342.40        100.4828
342.85        100.8995
343.30        101.6762
343.75         102.589
344.20        103.2326
344.66        103.4874
345.11         103.448
345.56        103.2771
346.01        103.2203
346.46        103.3514
346.91        103.5948
347.36        103.8512
347.81        103.9788
348.26        103.9541
348.72        103.8533
349.17        103.7665
349.62        103.8809
350.07         104.221
350.52        104.7009
350.97        105.1789
351.42        105.4499
351.87        105.4622
352.32        105.2799
352.77        104.9782
353.22        104.6797
353.67        104.4301
354.13        104.2069
354.58        103.9746
355.03        103.7389
355.48         103.488
355.93        103.2281
356.38        102.9387
356.83        102.5774
357.28        102.1372
357.73        101.6358
358.18        101.0858
358.63        100.5088
359.08        99.92616
359.53        99.34502
359.98        98.79395
360.43        98.31414
360.88        97.90123
361.33        97.52482
361.78        97.15527
362.23        96.74686
362.68        96.28164
363.13         95.7789
363.58        95.20596
364.03        94.51043
364.48        93.70051
364.93        92.80048
365.38        91.91331
365.83        91.20695
366.28        90.71006
366.73        90.36085
367.18        90.06046
367.63        89.64359
368.08        89.06891
368.53        88.40931
368.98         87.6876
369.43        86.92975
369.88        86.16079
370.33        85.36402
370.78        84.63339
371.23        84.13305
371.68        83.88887
372.13        83.85884
372.58        83.89156
373.03        83.72111
373.48        83.28716
373.93        82.68018
374.38        82.03489
374.83        81.55814
375.28        81.29745
375.72        81.15877
376.17        81.09631
376.62         81.0166
377.07        80.86494
377.52        80.65173
377.97        80.34216
378.42        79.87969
378.87        79.28297
379.32        78.60841
379.77        77.89912
380.22        77.21034
380.67        76.56134
381.11        75.93089
381.56        75.39799
382.01        75.09273
382.46        75.03133
382.91        75.19376
383.36        75.36835
383.81        75.21543
384.26        74.67957
384.71        73.85369
385.15        73.01286
385.60        72.64256
386.05        72.77399
386.50        73.24039
386.95        73.72075
387.40        73.67599
387.85        73.02357
388.29        71.98503
388.74        70.94073
389.19        70.13639
389.64        69.62555
390.09        69.26698
390.54        69.09019
390.98        69.15336
391.43        69.42386
391.88         69.8677
392.33        70.22812
392.78        70.10773
393.23         69.4982
393.67        68.54546
394.12        67.65077
394.57          67.123
395.02        67.09324
395.47         67.4306
395.91        68.01967
396.36        68.47745
396.81        68.68926
397.26        68.75076
397.71        68.64637
398.15        68.28015
398.60         67.7717
399.05        67.17298
399.50         66.5966
399.95        65.98887
400.39        65.68542
400.84        65.51102
401.29        65.50645
401.74         65.5375
402.18        65.58389
402.63        65.64181
403.08        65.74869
403.53         65.9333
403.97        66.18166
404.42        66.44676
404.87        66.60751
405.32        66.46711
405.76        66.00181
406.21        65.35864
406.66        64.70161
407.11        64.28101
407.55        64.19457
408.00        64.29407
408.45        64.49809
408.90        64.86846
409.34        65.16535
409.79        64.76758
410.24        63.93163
410.68        63.61829
411.13        63.91348
411.58        64.29256
412.03        64.65092
412.47        65.03182
412.92        65.32212
413.37        65.53819
413.81        65.63016
414.26        65.56522
414.71        65.33867
415.15        64.95755
415.60        64.54469
416.05        64.31683
416.49        64.33151
416.94         64.5594
417.39        64.82762
417.83        64.81832
418.28        64.48312
418.73         63.9306
419.17         63.4153
419.62        63.34494
420.07        63.75951
420.51        64.51394
420.96         65.3319
421.41        65.71306
421.85        65.51194
422.30        65.08858
422.74        64.57903
423.19         64.0451
423.64        63.63969
424.08        63.85232
424.53        64.53954
424.98        64.94814
425.42        64.96927
425.87        65.18317
426.31        65.55683
426.76        65.40121
427.21        64.94704
427.65         65.2398
428.10         66.1982
428.54        67.00356
428.99         67.5808
429.44        67.94055
429.88        68.07896
430.33         68.7718
430.77        69.45723
431.22        68.35291
431.66        65.97837
432.11         64.5812
432.56        64.50926
433.00        65.25988
433.45        66.69872
433.89        68.58036
434.34        69.49966
434.78        70.71494
435.23        67.30313
435.67        65.08834
436.12        67.95079
436.57        69.02952
437.01        69.45046
437.46        69.65751
437.90        69.82935
438.35        69.59265
438.79        69.96956
439.24        69.93008
439.68        69.80437
440.13        69.58148
440.57        69.55038
441.02        70.37175
441.46        71.72043
441.91          72.755
442.35        73.09894
442.80        72.26823
443.24        70.77618
443.69        71.23992
444.13        73.26946
444.58         73.2574
445.02        71.43364
445.47        71.10761
445.91        72.21687
446.36        72.60091
446.80        72.19238
447.24        72.10025
447.69        72.36724
448.13        72.60883
448.58        72.82357
449.02        73.05457
449.47        73.28696
449.91        73.51776
450.36        73.73627
450.80        73.91425
451.25        74.01179
451.69         73.9405
452.13        73.72009
452.58        73.39528
453.02        73.07334
453.47        72.95986
453.91        73.07146
454.36        73.35096
454.80        73.69228
455.24        73.78188
455.69        73.56487
456.13        73.34293
456.58        73.23956
457.02        72.56295
457.46         72.2219
457.91        72.42153
458.35        73.13697
458.79        73.39399
459.24        73.17583
459.68        72.85419
460.13        72.47048
460.57        72.28657
461.01        72.48437
461.46        71.57058
461.90        71.21658
462.34         72.2493
462.79        71.64251
463.23        71.55054
463.68         71.9059
464.12        72.24809
464.56        72.67699
465.01        72.61136
465.45        72.05022
465.89        71.86076
466.34        71.93871
466.78        71.00696
467.22        69.54118
467.67        69.42981
468.11        70.56512
468.55        71.20957
468.99        71.06667
469.44        70.63409
469.88        70.13917
470.32        70.19975
470.77        70.71589
471.21        70.79548
471.65        70.38116
472.10        70.13664
472.54        70.13673
472.98        70.16317
473.42        70.21259
473.87          70.489
474.31        70.80923
474.75        70.63911
475.20        70.06991
475.64        69.79023
476.08        69.92004
476.52         69.8299
476.97        69.46631
477.41        70.13461
477.85        70.51304
478.29        70.09576
478.74        70.30541
479.18        70.29249
479.62        69.27871
480.06        69.82339
480.50        70.05753
480.95         70.4482
481.39         70.5202
481.83          69.754
482.27        69.88717
482.72        69.70115
483.16        68.41505
483.60         68.6674
484.04        70.06973
484.48        70.32921
484.93        69.98115
485.37         71.5574
485.81        72.36843
486.25        71.23336
486.69        96.78109
487.14        78.34624
487.58         48.8414
488.02         59.8371
488.46        67.98782
488.90        67.82185
489.34        68.65408
489.79        67.86974
490.23        70.07978
490.67        70.86819
491.11        69.60497
491.55        69.54508
491.99        70.25928
492.43        70.17471
492.88        69.36882
493.32        69.34421
493.76        69.50625
494.20        69.79935
494.64        69.94886
495.08        70.16093
495.52        70.44815
495.96        70.50027
496.41        70.28857
496.85        70.67034
497.29        71.38239
497.73         70.1642
498.17        68.03317
498.61        68.19955
499.05        70.64253
499.49        71.10859
499.93        71.10535
500.37          70.761
500.82        70.04604
501.26        70.16499
501.70        70.81487
502.14        71.06734
502.58        70.78102
503.02         70.5864
503.46        70.48971
503.90        70.11324
504.34        69.60023
504.78        69.35626
505.22        69.42987
505.66        69.72916
506.10        70.14542
506.54        70.32399
506.98        70.16087
507.42        70.13439
507.86        70.15995
508.30        69.44667
508.74        69.96402
509.18        70.05016
509.62        70.21943
510.06        70.30294
510.50        70.28558
510.94          70.197
511.38        70.07077
511.82        70.00526
512.26        70.02078
512.70        70.08365
513.14        70.18023
513.58        70.29204
514.02        70.39921
514.46        70.50256
514.90        70.58014
515.34        70.58195
515.78        70.49384
516.22        70.39188
516.66        70.30999
517.10        70.13638
517.54        69.88825
517.98        70.17031
518.42        70.10546
518.86        70.28512
519.30        70.43328
519.74        70.62161
520.18        70.80735
520.62        70.91093
521.06        70.92718
521.50        70.87463
521.93        70.78026
522.37        70.69061
522.81        70.63164
523.25        70.59433
523.69        70.59966
524.13        70.67815
524.57        70.82576
525.01        71.02785
525.45        71.23302
525.89        71.35786
526.32        71.37069
526.76        71.28969
527.20        71.14649
527.64        71.01478
528.08         70.9362
528.52        70.83573
528.96         70.6748
529.40         70.6025
529.83        70.64956
530.27        70.03888
530.71        70.20812
531.15        70.14847
531.59        70.28354
532.03        70.51862
532.46        70.82484
532.90        71.12843
533.34        71.37446
533.78        71.57809
534.22         71.6885
534.66        71.64157
535.09        71.43007
535.53        71.10349
535.97        70.74351
536.41         70.5031
536.85        70.42628
537.28        70.48201
537.72        70.59843
538.16         70.6645
538.60        70.64868
539.04        70.53139
539.47        70.36446
539.91        70.41448
540.35        70.62022
540.79        70.65475
541.22        70.51694
541.66        70.49614
542.10        70.58477
542.54        70.60141
542.97        70.56246
543.41        70.60456
543.85        70.72163
544.29        70.89712
544.72        71.01919
545.16         70.9466
545.60        70.65993
546.04        70.20633
546.47        69.77876
546.91         69.7274
547.35        70.09353
547.79        70.70846
548.22        71.30542
548.66        71.61086
549.10        71.47152
549.53        70.73042
549.97        69.74288
550.41        69.23951
550.84        69.33063
551.28        69.75644
551.72        70.33982
552.15        70.66007
552.59        70.57568
553.03        70.95786
553.46        70.52116
553.90        70.48755
554.34        70.50303
554.77        70.47553
555.21        70.38984
555.65        70.47498
556.08        70.77207
556.52        70.36349
556.96        70.85886
557.39        70.78654
557.83        70.67133
558.27        70.65136
558.70        70.74549
559.14        70.74437
559.57         70.6758
560.01        70.86681
560.45        71.22432
560.88        71.36266
561.32        71.26099
561.75        71.05216
562.19        70.83965
562.63        70.53758
563.06        70.24632
563.50        70.31201
563.93        70.64751
564.37        70.76947
564.80        70.60389
565.24        70.57791
565.68        70.73531
566.11         70.2879
566.55        70.55686
566.98        70.46207
567.42        70.42906
567.85        70.65921
568.29         71.1317
568.72        71.25756
569.16         71.1909
569.60         71.6323
570.03        72.23472
570.47        72.16696
570.90        71.73779
571.34        70.32112
571.77        70.95872
572.21         71.2839
572.64        70.67978
573.08        69.59395
573.51        66.66681
573.95        69.25455
574.38        73.68157
574.82        71.57203
