SpectraSmart Spectrum 2.9.0.0
--------- Device Information -----------
Spectrum Name :  反射率_0
Saving Time :  2024/04/26 01:33:12
Spectro-Module Model Name : SE2030-DUVN
Spectro-Module Serial Number : OS361AC55029948
Wavelength Start : 200
Wavelength End : 1025
Wavelength Unit : Wavelength(nm)
Spectrum Unit : Reflectance(%)
-----------Spectrum Setting ------------
Integration Time : 20ms
Average : 10
Boxcar : 0
Background removal :  enabled
linearity correction :  enabled
SC :  disabled
Intensity correction :  disabled
DWT denoise :  enabled
savitzky-golay :  disabled
FFT :  disabled
Running average :  disabled
Kalman :  disabled
High pass :  disabled
---------------BEGIN--------------------
Wavelength(nm)             Reflectance(%)
200.29               0
200.75        92.09452
201.21        85.49377
201.67        77.44282
202.13         72.8017
202.58        72.25347
203.04        74.64571
203.50        78.20026
203.96        79.95776
204.42         79.2396
204.88        77.31605
205.34         75.6352
205.80        75.67464
206.26        78.16675
206.72        84.60507
207.18        97.61668
207.64        109.5768
208.10        102.8608
208.55        87.46152
209.01        77.71642
209.47         74.8838
209.93        76.15376
210.39        80.22276
210.85        84.51491
211.31        83.64226
211.77        76.37931
212.23        65.08685
212.69        54.51506
213.14        51.94373
213.60        58.38134
214.06        71.46221
214.52        86.52518
214.98        96.33768
215.44        98.75481
215.90        96.12217
216.36        90.43823
216.81        84.41344
217.27        79.71217
217.73        75.72135
218.19        72.16495
218.65        68.53555
219.11         64.2397
219.57         58.6689
220.02        52.53858
220.48        50.17425
220.94        53.17017
221.40        60.18977
221.86         65.4524
222.32        63.25549
222.77         54.9024
223.23        44.22663
223.69        35.36285
224.15        32.54974
224.61        35.21252
225.06        41.19981
225.52        47.40302
225.98        49.97901
226.44        48.23703
226.90        43.82024
227.36        38.83897
227.81        36.10502
228.27        36.49042
228.73        38.77999
229.19        41.78439
229.65        43.80267
230.10        44.39259
230.56        44.20697
231.02        43.83844
231.48         43.9027
231.93        44.46749
232.39        45.29993
232.85        46.05905
233.31        46.30827
233.77        45.95202
234.22        45.12395
234.68        44.21991
235.14        43.91879
235.60         44.4338
236.05        45.57859
236.51         46.8877
236.97        47.67296
237.43         47.8533
237.88        47.72948
238.34         47.7131
238.80        48.93787
239.26        51.85412
239.71        56.10218
240.17        60.92021
240.63        65.55048
241.08        69.56207
241.54        72.79157
242.00        75.30408
242.46        77.56603
242.91        80.53454
243.37        85.45683
243.83        98.29958
244.28        137.1959
244.74        176.2267
245.20        148.3768
245.66         126.427
246.11        121.6137
246.57        127.6563
247.03         151.925
247.48         226.396
247.94        198.0451
248.40        120.9029
248.85        95.96295
249.31        88.55537
249.77        88.34731
250.22        92.47948
250.68        101.0616
251.14        114.0133
251.59        123.5177
252.05        121.1562
252.51        110.1948
252.96         97.7169
253.42        90.83987
253.88        89.23556
254.33        90.43829
254.79        93.63158
255.25        97.14214
255.70        99.93145
256.16        102.5484
256.62         104.093
257.07        103.5552
257.53        101.5743
257.99        98.13996
258.44        94.01561
258.90        91.26093
259.35        89.15789
259.81        87.48473
260.27         85.1245
260.72        80.93876
261.18        75.67941
261.63        69.74164
262.09        64.39692
262.55        60.38675
263.00        57.66933
263.46        55.99594
263.91        54.65907
264.37         53.2348
264.83        51.48379
265.28        49.44685
265.74        47.50717
266.19         45.9771
266.65        45.07841
267.11        44.57201
267.56        44.11748
268.02        43.32212
268.47        42.05277
268.93        40.45326
269.38        38.71209
269.84        37.38586
270.30        36.63077
270.75        36.30866
271.21        36.14988
271.66        35.73907
272.12        34.96777
272.57        33.97851
273.03        33.00251
273.48        32.29132
273.94        31.93333
274.39        31.78118
274.85        31.69792
275.31        31.47485
275.76        31.04236
276.22        30.49336
276.67        29.88448
277.13        29.39784
277.58        29.01702
278.04        28.72276
278.49        28.39399
278.95         27.9311
279.40        27.29121
279.86        26.58298
280.31        25.86289
280.77        25.32892
281.22        24.97731
281.68        24.77825
282.13        24.65532
282.59        24.53783
283.04        24.39305
283.50        24.27969
283.95        24.17109
284.41        24.04927
284.86        23.90877
285.32        23.75768
285.77        23.66885
286.22        23.81962
286.68        24.19677
287.13        24.70673
287.59        25.16485
288.04        25.28569
288.50        25.05046
288.95        24.54429
289.41        23.96748
289.86        23.51116
290.32        23.29697
290.77         23.2587
291.22        23.39062
291.68        23.64032
292.13        23.99247
292.59        24.47526
293.04        25.09585
293.50        25.85739
293.95        26.73544
294.40        27.69169
294.86        28.67906
295.31        29.64367
295.77        30.58663
296.22        31.53257
296.68        32.50898
297.13        33.52716
297.58        34.60829
298.04        35.75647
298.49        37.00822
298.95        38.47329
299.40        40.14614
299.85        41.98527
300.31        43.86816
300.76        45.59526
301.21        47.09292
301.67        48.44824
302.12        49.68875
302.58        50.96343
303.03        52.29245
303.48        53.66542
303.94        55.16428
304.39        56.85016
304.84        58.72776
305.30        60.76637
305.75        62.77463
306.20        64.48397
306.66        65.85987
307.11        66.93039
307.57        67.90726
308.02         68.9921
308.47        70.29869
308.93        71.77656
309.38        73.30545
309.83        74.74771
310.29        76.04636
310.74        77.20248
311.19        78.30192
311.65        79.47363
312.10        80.72824
312.55        82.03934
313.00        83.22966
313.46        84.02257
313.91        84.35883
314.36        84.34707
314.82        84.29806
315.27        84.63587
315.72        85.48593
316.18        86.72394
316.63        88.07915
317.08        89.05492
317.53         89.5099
317.99        89.57458
318.44        89.53274
318.89        89.84916
319.35        90.61346
319.80        91.70591
320.25        92.79811
320.70        93.35187
321.16        93.24496
321.61        92.66448
322.06        91.96459
322.51        91.69498
322.97        91.97012
323.42         92.6593
323.87        93.48693
324.32        93.98128
324.78        93.99553
325.23        93.72643
325.68        93.35605
326.13        93.20535
326.59        93.35019
327.04        93.70453
327.49        94.18142
327.94        94.67751
328.39        95.13482
328.85         95.5746
329.30        95.99467
329.75        96.21325
330.20        96.23235
330.66        96.09278
331.11        96.02115
331.56        96.31003
332.01         97.0465
332.46        98.13187
332.92        99.39982
333.37        100.7265
333.82        101.9105
334.27        102.9732
334.72        103.7844
335.17        104.1572
335.63        104.0897
336.08        103.6935
336.53        103.2095
336.98        103.0811
337.43        103.4354
337.88        104.1612
338.34        105.1234
338.79         106.173
339.24        107.1731
339.69         108.185
340.14        109.0552
340.59        109.5183
341.05        109.5498
341.50        109.2065
341.95        108.7941
342.40        108.8037
342.85        109.3468
343.30        110.3031
343.75        111.4104
344.20        112.1903
344.66         112.502
345.11        112.4564
345.56        112.2546
346.01        112.2029
346.46        112.3879
346.91        112.7121
347.36        113.0429
347.81        113.1868
348.26        113.1126
348.72        112.9223
349.17        112.7375
349.62        112.7921
350.07        113.1261
350.52        113.6347
350.97        114.1724
351.42        114.5291
351.87        114.6427
352.32        114.5788
352.77        114.3825
353.22        114.1256
353.67        113.8522
354.13        113.5622
354.58        113.2611
355.03        113.0256
355.48        112.8555
355.93        112.7181
356.38        112.5745
356.83        112.3543
357.28        112.0263
357.73        111.6148
358.18        111.0756
358.63        110.3417
359.08         109.439
359.53        108.4187
359.98        107.4233
360.43        106.6705
360.88        106.1971
361.33        105.9223
361.78        105.7383
362.23        105.4634
362.68        105.0361
363.13        104.5199
363.58        103.8999
364.03        103.1541
364.48         102.304
364.93        101.3478
365.38        100.4176
365.83        99.73643
366.28        99.33582
366.73        99.14267
367.18         98.9841
367.63        98.57024
368.08         97.8382
368.53        96.90257
368.98        95.88426
369.43        94.95866
369.88        94.18911
370.33        93.52429
370.78        92.97723
371.23        92.57519
371.68        92.30585
372.13        92.16213
372.58        92.07751
373.03        91.92774
373.48        91.67783
373.93        91.35892
374.38        90.99304
374.83        90.62358
375.28        90.26443
375.72        89.87724
376.17        89.51456
376.62        89.24289
377.07        89.05669
377.52         88.9229
377.97        88.73753
378.42        88.33266
378.87        87.69638
379.32        86.92197
379.77        86.10505
380.22         85.3735
380.67        84.75768
381.11        84.20591
381.56        83.74206
382.01        83.41232
382.46         83.2159
382.91        83.16476
383.36        83.10798
383.81        82.80147
384.26        82.21552
384.71        81.41579
385.15        80.62975
385.60        80.27657
386.05        80.37079
386.50        80.77528
386.95        81.19662
387.40        81.14175
387.85        80.53535
388.29        79.55719
388.74        78.59297
389.19        77.87827
389.64        77.45779
390.09        77.19349
390.54        77.06794
390.98        77.05888
391.43         77.1246
391.88        77.26723
392.33        77.32088
392.78        76.98405
393.23        76.26727
393.67        75.39229
394.12        74.68196
394.57        74.08011
395.02        73.76801
395.47        74.32706
395.91        75.39313
396.36        76.13399
396.81        76.31097
397.26         76.3246
397.71        76.23904
398.15        75.88194
398.60        75.38474
399.05        74.98112
399.50        74.63176
399.95        73.67895
400.39         72.6693
400.84        72.28181
401.29         72.5731
401.74        72.72938
402.18        72.65109
402.63        72.58141
403.08         72.6109
403.53        72.82098
403.97        73.19451
404.42        73.58084
404.87        73.81643
405.32        73.67079
405.76        73.10909
406.21        72.38886
406.66        71.68172
407.11        71.06898
407.55        70.76261
408.00        71.00528
408.45        71.67319
408.90        72.42609
409.34        72.86645
409.79        72.33094
410.24        71.14371
410.68        70.53387
411.13        70.62379
411.58        70.70242
412.03        70.73888
412.47        71.02069
412.92          71.464
413.37        72.00955
413.81        72.47154
414.26        72.60959
414.71        72.36546
415.15        71.80619
415.60        71.14245
416.05        70.73572
416.49        70.69308
416.94        70.94361
417.39        71.27956
417.83        71.32149
418.28        71.00137
418.73        70.45641
419.17        69.95342
419.62         69.9166
420.07        70.37331
420.51        71.15575
420.96        71.97797
421.41        72.27759
421.85        71.89959
422.30         71.4006
422.74        70.87383
423.19        69.97163
423.64        69.01844
424.08        69.31808
424.53        70.64655
424.98        71.35316
425.42        71.23693
425.87         71.3717
426.31        71.76881
426.76        71.60061
427.21        71.10191
427.65        71.29706
428.10        72.11211
428.54        72.84691
428.99        73.44727
429.44        73.76237
429.88        73.80556
430.33        74.66656
430.77         75.6543
431.22         74.3967
431.66        71.54179
432.11        70.06325
432.56        70.23819
433.00        71.01675
433.45        72.35248
433.89        74.08763
434.34        74.98072
434.78        77.28035
435.23        73.21351
435.67        70.51209
436.12        72.94257
436.57        74.03818
437.01        74.94186
437.46        75.42455
437.90        75.73729
438.35        74.48693
438.79        75.56273
439.24        75.36611
439.68        75.07664
440.13        74.67189
440.57        74.50261
441.02        75.36466
441.46        76.87521
441.91        77.93011
442.35        78.13898
442.80        77.34072
443.24        76.00776
443.69          76.354
444.13        77.98915
444.58        78.14542
445.02         76.0648
445.47        75.84491
445.91        77.08002
446.36        77.51087
446.80        77.03886
447.24        76.91633
447.69        77.19891
448.13        77.32031
448.58        77.35462
449.02        77.67335
449.47        78.19255
449.91         78.5083
450.36        78.58139
450.80        78.60502
451.25        78.58649
451.69        78.41891
452.13        78.14392
452.58        77.81029
453.02        77.51765
453.47        77.46473
453.91        77.65306
454.36         78.0176
454.80        78.43269
455.24        78.54425
455.69        78.29256
456.13        78.03273
456.58        77.87348
457.02        77.12095
457.46         76.4767
457.91        76.74675
458.35        77.74203
458.79        78.18916
459.24        78.06813
459.68        77.70985
460.13        77.06807
460.57        77.40684
461.01        77.11166
461.46        75.84924
461.90        75.27704
462.34        76.32389
462.79        75.72674
463.23        75.52429
463.68        76.05621
464.12        76.61634
464.56         77.3299
465.01        77.27629
465.45        76.54951
465.89        76.16209
466.34        76.01428
466.78        75.21436
467.22        74.31977
467.67        73.13412
468.11        74.97073
468.55        75.62616
468.99         75.7429
469.44        75.33954
469.88        74.65291
470.32        74.51664
470.77        74.85348
471.21        74.78449
471.65        74.27954
472.10        74.03239
472.54        74.09508
472.98        74.18696
473.42        74.28062
473.87        74.60797
474.31        74.98921
474.75        74.84722
475.20        74.32779
475.64        74.19727
476.08        74.46049
476.52        74.44803
476.97        74.12979
477.41        74.04051
477.85        74.28185
478.29        74.07436
478.74        74.31796
479.18        74.84236
479.62        73.55899
480.06        73.78406
480.50        74.56042
480.95        74.97381
481.39        74.89314
481.83        74.12279
482.27        74.21273
482.72        73.83169
483.16        72.44884
483.60        72.70831
484.04        74.36022
484.48        74.72404
484.93        74.19099
485.37         76.3763
485.81        76.86023
486.25        74.95896
486.69        102.8495
487.14        83.26769
487.58        51.49327
488.02          62.916
488.46        71.96912
488.90        71.02617
489.34        72.62371
489.79        71.80143
490.23        73.83194
490.67        74.63144
491.11        73.42465
491.55        73.40736
491.99        74.07824
492.43        73.93651
492.88        73.06911
493.32        72.93835
493.76        73.07249
494.20        73.33572
494.64        73.47053
495.08        73.78673
495.52        74.23653
495.96        74.13883
496.41        73.57394
496.85        74.04877
497.29        75.20039
497.73        74.05024
498.17        71.63622
498.61        71.55615
499.05        73.91396
499.49        74.51184
499.93        74.84464
500.37        74.70538
500.82        73.96934
501.26        73.75067
501.70         73.9089
502.14        74.24403
502.58        74.54491
503.02        74.36913
503.46        74.15022
503.90          73.644
504.34        73.17309
504.78        72.89816
505.22        72.88213
505.66           73.23
506.10        73.80986
506.54        73.95695
506.98        73.51049
507.42        73.68906
507.86        73.47401
508.30        72.56287
508.74        73.31441
509.18        73.52932
509.62        73.84392
510.06        73.96737
510.50        73.87193
510.94        73.60185
511.38        73.26622
511.82        73.10014
512.26        73.15369
512.70        73.35742
513.14        73.61954
513.58        73.79251
514.02        73.82517
514.46        73.75906
514.90        73.65534
515.34        73.59346
515.78         73.5873
516.22        73.66263
516.66        73.76945
517.10        73.68067
517.54        73.38192
517.98        73.45727
518.42         73.2039
518.86        73.26132
519.30        73.41181
519.74        73.67883
520.18        73.98174
520.62        74.18395
521.06        74.25589
521.50        74.23499
521.93         74.1499
522.37        74.04674
522.81        73.95771
523.25        73.87357
523.69        73.82752
524.13        73.87276
524.57        74.01205
525.01         74.2263
525.45         74.4649
525.89        74.64358
526.32        74.72615
526.76        74.72537
527.20        74.65435
527.64        74.57586
528.08        74.52946
528.52        74.39307
528.96        74.14458
529.40        74.08475
529.83        74.20023
530.27        73.41941
530.71        73.31496
531.15        73.14458
531.59        73.37331
532.03        73.73982
532.46        74.16452
532.90        74.55312
533.34        74.82678
533.78        75.00785
534.22        75.07218
534.66        74.99757
535.09        74.78871
535.53        74.48345
535.97        74.15342
536.41        73.93785
536.85        73.87528
537.28        73.93925
537.72        74.06077
538.16        74.13219
538.60        74.12077
539.04         74.0005
539.47        73.81412
539.91        73.82502
540.35        73.96828
540.79        73.91148
541.22         73.6716
541.66        73.57749
542.10        73.63064
542.54        73.63892
542.97        73.61283
543.41        73.68013
543.85        73.83159
544.29        74.05548
544.72         74.2346
545.16         74.2223
545.60        73.98708
546.04        73.56104
546.47        73.14932
546.91        73.10086
547.35        73.45422
547.79        74.12074
548.22         74.7745
548.66        74.88517
549.10        74.38068
549.53        73.50207
549.97        72.63121
550.41        72.21846
550.84        72.36148
551.28        73.00449
551.72        73.90436
552.15         74.3422
552.59        74.12441
553.03        74.52252
553.46        73.75529
553.90        73.62454
554.34        73.63533
554.77        73.66265
555.21        73.64674
555.65        73.76678
556.08        74.05508
556.52        73.58274
556.96        74.04691
557.39        73.92717
557.83        73.79294
558.27        73.75407
558.70        73.84475
559.14         73.9752
559.57        74.10568
560.01        74.28953
560.45        74.46935
560.88        74.54738
561.32        74.49873
561.75          74.295
562.19        74.02197
562.63        73.56381
563.06        73.08563
563.50        73.15353
563.93        73.62874
564.37        73.82243
564.80        73.65258
565.24        73.52814
565.68        73.48853
566.11        73.42911
566.55        73.40855
566.98        73.44353
567.42        73.54663
567.85        73.59682
568.29        73.94759
568.72        73.96404
569.16        73.93904
569.60        74.48491
570.03        74.97312
570.47        75.03385
570.90        74.89594
571.34        73.10686
571.77         73.9604
572.21        74.41235
572.64        73.69456
573.08        72.47365
573.51         69.4645
573.95        72.10744
574.38        76.56572
574.82        74.79639
