SpectraSmart Spectrum 2.9.0.0
--------- Device Information -----------
Spectrum Name :  反射率_0
Saving Time :  2024/04/26 01:41:42
Spectro-Module Model Name : SE2030-DUVN
Spectro-Module Serial Number : OS361AC55029948
Wavelength Start : 200
Wavelength End : 1025
Wavelength Unit : Wavelength(nm)
Spectrum Unit : Reflectance(%)
-----------Spectrum Setting ------------
Integration Time : 20ms
Average : 10
Boxcar : 0
Background removal :  enabled
linearity correction :  enabled
SC :  disabled
Intensity correction :  disabled
DWT denoise :  enabled
savitzky-golay :  disabled
FFT :  disabled
Running average :  disabled
Kalman :  disabled
High pass :  disabled
---------------BEGIN--------------------
Wavelength(nm)             Reflectance(%)
200.29               0
200.75        101.7907
201.21        97.97414
201.67        92.25542
202.13        86.97722
202.58        82.79443
203.04        79.63744
203.50        77.61087
203.96        77.17753
204.42        78.15718
204.88        79.92103
205.34        82.40215
205.80        86.10044
206.26        92.16758
206.72        104.0023
207.18        125.5732
207.64        142.5107
208.10        127.2152
208.55        99.27962
209.01        82.61557
209.47        78.35885
209.93        81.46867
210.39        89.69797
210.85        99.12822
211.31        101.0253
211.77        92.70105
212.23        77.62582
212.69        62.19193
213.14        56.09172
213.60        61.13628
214.06         74.5257
214.52         90.6678
214.98        100.8557
215.44        102.6374
215.90        98.75211
216.36        92.48297
216.81        88.28965
217.27        87.55338
217.73        88.55967
218.19        89.22157
218.65        86.80681
219.11        80.19386
219.57        68.76905
220.02        53.95815
220.48        44.47171
220.94        45.61147
221.40          55.225
221.86        65.12227
222.32        66.56149
222.77        60.19586
223.23        50.75983
223.69        42.50937
224.15        39.74669
224.61        42.03985
225.06        47.16381
225.52         52.3116
225.98        54.14161
226.44        52.05847
226.90        47.62718
227.36        42.64407
227.81        39.41607
228.27        38.79361
228.73        39.80681
229.19        41.74165
229.65        43.55502
230.10        44.82582
230.56        45.84572
231.02        46.75133
231.48        47.68203
231.93        48.66312
232.39        49.62339
232.85        50.47226
233.31        51.15328
233.77        51.65718
234.22        52.03338
234.68        52.37078
235.14        52.74773
235.60        53.20458
236.05        53.74731
236.51        54.37017
236.97        55.07968
237.43        55.98255
237.88        57.27446
238.34        59.09416
238.80        61.71949
239.26        65.03553
239.71        68.96148
240.17        72.76561
240.63        75.93061
241.08        78.36375
241.54        79.90076
242.00        81.29545
242.46        84.09748
242.91         90.1818
243.37        103.5663
243.83        140.1375
244.28        238.1201
244.74         310.473
245.20        222.3911
245.66        164.3109
246.11         147.217
246.57        149.8499
247.03        175.6703
247.48        258.6734
247.94        217.3938
248.40        128.2601
248.85         101.095
249.31        93.60657
249.77        93.92912
250.22         99.0659
250.68        109.2532
251.14        124.6194
251.59        136.6167
252.05        135.3961
252.51        124.3288
252.96         110.917
253.42        102.9589
253.88        100.3489
254.33        100.4548
254.79         103.157
255.25        107.6411
255.70        112.5162
256.16        117.7177
256.62         121.358
257.07        121.4889
257.53        119.0018
257.99        114.3424
258.44        108.8896
258.90        105.5019
259.35        103.3564
259.81         101.961
260.27        99.78566
260.72        95.30636
261.18         89.4346
261.63        82.72709
262.09        76.72755
262.55        72.38946
263.00        69.60382
263.46        67.98801
263.91        66.66475
264.37        65.14362
264.83        63.12447
265.28        60.67959
265.74        58.19162
266.19        55.95203
266.65        54.30312
267.11        53.07565
267.56        51.97981
268.02        50.67611
268.47        49.00024
268.93         47.0815
269.38        45.13284
269.84        43.76073
270.30        43.12146
270.75        43.03704
271.21        43.14972
271.66        42.91473
272.12         42.1842
272.57        41.11112
273.03        39.96779
273.48         39.0695
273.94        38.53629
274.39        38.20911
274.85        37.94116
275.31         37.4969
275.76        36.81235
276.22          36.009
276.67        35.19212
277.13        34.62127
277.58        34.27351
278.04         34.0996
278.49        33.89616
278.95        33.46728
279.40        32.74682
279.86        31.88502
280.31        30.98635
280.77        30.33746
281.22        29.94695
281.68        29.75612
282.13        29.65361
282.59        29.53428
283.04        29.34865
283.50        29.17865
283.95        28.99464
284.41        28.78006
284.86        28.53409
285.32        28.27089
285.77        28.08199
286.22        28.18072
286.68        28.55844
287.13        29.10396
287.59        29.61285
288.04        29.76055
288.50        29.52152
288.95        28.98773
289.41        28.36896
289.86        27.86236
290.32         27.5997
290.77        27.51167
291.22        27.60522
291.68        27.84416
292.13        28.21858
292.59        28.76353
293.04        29.47539
293.50        30.34002
293.95        31.32623
294.40        32.39222
294.86        33.51284
295.31        34.66981
295.77        35.86196
296.22        37.09307
296.68        38.33408
297.13        39.50624
297.58         40.6144
298.04        41.69955
298.49        42.85974
298.95         44.3033
299.40        46.05537
299.85        48.05275
300.31        50.14896
300.76        52.09914
301.21         53.8069
301.67        55.36739
302.12        56.80293
302.58        58.27008
303.03        59.78109
303.48        61.32151
303.94        62.96135
304.39        64.74004
304.84        66.66828
305.30        68.73216
305.75        70.76331
306.20         72.5331
306.66        74.01862
307.11        75.22808
307.57        76.36612
308.02        77.60976
308.47         79.0663
308.93        80.68957
309.38        82.34404
309.83        83.87392
310.29        85.22329
310.74         86.3977
311.19        87.50285
311.65        88.69951
312.10        90.00365
312.55        91.37825
313.00        92.64152
313.46        93.50847
313.91        93.91171
314.36        93.96443
314.82        93.96011
315.27        94.28774
315.72        95.07835
316.18        96.22297
316.63        97.49355
317.08        98.46156
317.53        99.00115
317.99        99.21813
318.44        99.36344
318.89        99.85161
319.35        100.7471
319.80        101.9395
320.25        103.0892
320.70        103.6447
321.16        103.4848
321.61        102.7998
322.06        101.9635
322.51        101.5586
322.97        101.7113
323.42         102.298
323.87        103.0427
324.32        103.4689
324.78        103.4307
325.23        103.1341
325.68        102.7692
326.13        102.6703
326.59        102.9082
327.04          103.39
327.49        104.0015
327.94        104.6005
328.39        105.1161
328.85        105.5724
329.30        105.9886
329.75        106.2076
330.20         106.242
330.66        106.1235
331.11        106.0788
331.56        106.3951
332.01        107.1573
332.46        108.2686
332.92        109.5533
333.37        110.8927
333.82        112.0771
334.27        113.1333
334.72        113.9319
335.17        114.2855
335.63         114.202
336.08        113.8087
336.53        113.3592
336.98        113.3229
337.43        113.8227
337.88        114.7142
338.34        115.8616
338.79         117.124
339.24        118.3481
339.69        119.6031
340.14        120.6281
340.59        120.9813
341.05        120.6337
341.50        119.7125
341.95        118.7499
342.40        118.5667
342.85        119.3248
343.30        120.8008
343.75        122.5147
344.20        123.5994
344.66        123.8089
345.11        123.3916
345.56        122.7094
346.01        122.3149
346.46        122.3708
346.91        122.6871
347.36        123.1147
347.81        123.4421
348.26         123.603
348.72        123.7079
349.17        123.7785
349.62        123.8729
350.07         123.999
350.52        124.0978
350.97        124.1592
351.42        124.1877
351.87        124.1778
352.32        124.1469
352.77        124.0414
353.22        123.7729
353.67        123.3435
354.13        122.7982
354.58        122.2417
355.03        121.9033
355.48        121.8143
355.93        121.8993
356.38        121.9802
356.83        121.7733
357.28        121.2109
357.73        120.3833
358.18        119.4401
358.63        118.6171
359.08         117.992
359.53        117.5105
359.98        117.0825
360.43        116.5682
360.88        115.9216
361.33        115.1675
361.78        114.4049
362.23        113.7896
362.68        113.3459
363.13        113.0291
363.58        112.6488
364.03         111.909
364.48        110.7711
364.93        109.3412
365.38        107.8964
365.83         106.883
366.28        106.3962
366.73        106.2839
367.18        106.2903
367.63        105.9931
368.08        105.2824
368.53        104.3216
368.98        103.2439
369.43        102.2415
369.88        101.3845
370.33        100.5911
370.78        99.90958
371.23        99.43523
371.68         99.1656
372.13        99.09132
372.58        99.05356
373.03        98.76714
373.48        98.18077
373.93        97.39049
374.38        96.58009
374.83        96.03425
375.28        95.81248
375.72        95.79771
376.17        95.88722
376.62        95.89534
377.07        95.73689
377.52        95.44037
377.97        95.00584
378.42        94.43761
378.87        93.77112
379.32        93.04499
379.77        92.27267
380.22        91.46445
380.67        90.63553
381.11        89.78973
381.56        89.04455
382.01        88.59071
382.46        88.46288
382.91        88.62035
383.36        88.82434
383.81        88.69255
384.26        88.14896
384.71         87.2908
385.15        86.39101
385.60        85.94582
386.05        85.98337
386.50        86.33786
386.95        86.68411
387.40        86.48514
387.85        85.67554
388.29        84.48015
388.74        83.32924
389.19         82.4819
389.64        81.98966
390.09        81.70311
390.54        81.61404
390.98        81.71402
391.43         81.9419
391.88        82.27484
392.33        82.50183
392.78        82.23729
393.23        81.48111
393.67        80.54052
394.12         79.7551
394.57        78.95251
395.02        78.40632
395.47        78.92728
395.91        80.29296
396.36        81.11979
396.81        81.18099
397.26        81.09328
397.71        80.95782
398.15         80.5295
398.60        79.95581
399.05        79.56064
399.50        79.25773
399.95        78.19058
400.39        76.99904
400.84        76.60861
401.29        77.08499
401.74        77.50285
402.18        77.64541
402.63         77.4933
403.08        77.19839
403.53        77.24937
403.97        77.65919
404.42        78.01762
404.87        78.16914
405.32        78.00849
405.76        77.49156
406.21        76.88918
406.66        76.30525
407.11        75.59566
407.55        75.01778
408.00        75.14194
408.45        75.85101
408.90        76.51921
409.34        76.76329
409.79        76.13985
410.24        74.99256
410.68        74.45824
411.13         74.6514
411.58        74.89177
412.03        75.09441
412.47        75.43678
412.92        75.80473
413.37        76.17136
413.81        76.40215
414.26        76.34254
414.71        75.96185
415.15        75.30691
415.60        74.58186
416.05        74.13554
416.49        74.06709
416.94        74.31049
417.39        74.64617
417.83        74.67355
418.28        74.31483
418.73        73.70273
419.17        73.11734
419.62        73.00803
420.07        73.41576
420.51        74.17899
420.96        74.98789
421.41        75.27972
421.85        74.90345
422.30        74.30713
422.74        73.65898
423.19        72.97061
423.64        72.44904
424.08        72.80679
424.53        73.82211
424.98        74.38014
425.42         74.3097
425.87        74.37498
426.31        74.60199
426.76        74.26875
427.21        73.66077
427.65        73.94833
428.10        74.96921
428.54        75.72057
428.99         76.1242
429.44        76.14354
429.88        75.90774
430.33        76.73483
430.77        77.88267
431.22        76.70288
431.66        73.83076
432.11        72.32065
432.56        72.46685
433.00        73.44827
433.45        75.09433
433.89        76.75301
434.34        76.85392
434.78        79.34114
435.23        74.58889
435.67        72.62247
436.12        75.15623
436.57        76.32154
437.01        76.92367
437.46        77.12593
437.90        77.13713
438.35        76.87891
438.79        77.20483
439.24        77.12104
439.68        76.89839
440.13        76.52281
440.57        76.38119
441.02        77.25902
441.46        78.76306
441.91         80.0845
442.35          80.741
442.80        79.29338
443.24        77.51476
443.69        77.97273
444.13        80.53678
444.58        80.66592
445.02        78.59103
445.47         78.2666
445.91        79.59677
446.36        80.01534
446.80        79.43692
447.24        79.19048
447.69        79.34659
448.13        79.41543
448.58        79.45684
449.02        79.73348
449.47        80.17653
449.91        80.46265
450.36        80.54478
450.80        80.64098
451.25        80.70876
451.69        80.39323
452.13        79.82525
452.58        79.50502
453.02        79.46959
453.47        79.45514
453.91        79.43938
454.36        79.61076
454.80        79.90217
455.24        79.92908
455.69        79.64537
456.13         79.4665
456.58        79.41406
457.02        78.64523
457.46        77.60124
457.91        77.94387
458.35        79.33038
458.79        79.82908
459.24        79.33762
459.68         78.8521
460.13        78.52132
460.57        78.10344
461.01         77.7197
461.46        77.32305
461.90        76.85779
462.34        77.11877
462.79        76.77142
463.23        76.90981
463.68        77.10087
464.12        77.79341
464.56        78.65219
465.01        78.49155
465.45         77.4639
465.89        77.21605
466.34        77.52962
466.78        76.65297
467.22        75.16508
467.67         74.0564
468.11        75.57789
468.55        76.39979
468.99         76.7616
469.44        76.50352
469.88        75.82983
470.32        75.75838
470.77        76.20216
471.21        76.12569
471.65        75.48952
472.10        75.03925
472.54        74.89093
472.98        74.83417
473.42        74.86497
473.87        75.27454
474.31        75.79891
474.75        75.56388
475.20        74.76549
475.64        74.57204
476.08        75.03152
476.52        75.08406
476.97        74.67893
477.41        74.82564
477.85        75.57859
478.29        74.68874
478.74        75.27266
479.18        75.27978
479.62        74.23753
480.06        74.82447
480.50        75.02307
480.95        75.38298
481.39        75.42849
481.83        74.30227
482.27        74.57266
482.72        74.27627
483.16        72.95724
483.60        73.25887
484.04        74.78127
484.48        75.20476
484.93          75.093
485.37        76.53961
485.81        76.98026
486.25        76.09499
486.69        104.3641
487.14        83.85488
487.58        51.59097
488.02        63.73288
488.46        72.22418
488.90        71.90401
489.34          72.884
489.79        72.65616
490.23        74.33186
490.67        75.19391
491.11        74.00038
491.55        74.09926
491.99        74.95964
492.43        74.90197
492.88        74.01203
493.32         73.8372
493.76        73.91266
494.20        74.10145
494.64        74.15695
495.08        74.35307
495.52        74.66483
495.96          74.542
496.41        74.01128
496.85        74.36979
497.29        75.30968
497.73        74.02527
498.17        71.63146
498.61        71.88301
499.05        74.77155
499.49        75.54568
499.93        75.68005
500.37         75.3858
500.82        74.60336
501.26        74.31683
501.70        74.42904
502.14        74.82748
502.58        75.22859
503.02        75.27751
503.46        74.92085
503.90        74.34599
504.34        73.78693
504.78        73.55026
505.22        73.71629
505.66        74.14958
506.10         74.6632
506.54        75.01495
506.98        75.04386
507.42        74.67251
507.86        74.14357
508.30        73.64801
508.74        73.93617
509.18         74.2188
509.62        74.53818
510.06        74.70585
510.50        74.66409
510.94        74.48091
511.38         74.2535
511.82        74.14088
512.26        74.18549
512.70        74.32858
513.14         74.5202
513.58        74.68574
514.02        74.78752
514.46        74.84383
514.90        74.85667
515.34        74.81294
515.78        74.70956
516.22        74.60329
516.66        74.50597
517.10        74.29547
517.54        73.98495
517.98        74.11349
518.42        73.95367
518.86        74.06381
519.30        74.21223
519.74        74.44521
520.18        74.69644
520.62        74.85028
521.06        74.88759
521.50        74.83642
521.93        74.73431
522.37        74.64545
522.81        74.60098
523.25        74.58414
523.69        74.60929
524.13        74.69767
524.57        74.84586
525.01        75.04819
525.45        75.25896
525.89        75.40317
526.32        75.44994
526.76        75.40681
527.20        75.30904
527.64        75.24299
528.08        75.24592
528.52        75.21964
528.96        75.09119
529.40        75.00119
529.83        74.96352
530.27        74.10802
530.71        74.02467
531.15        73.80628
531.59        73.92727
532.03        74.22749
532.46        74.63026
532.90         74.9957
533.34         75.2438
533.78        75.40948
534.22        75.47649
534.66        75.43135
535.09        75.27856
535.53        75.05299
535.97        74.80006
536.41        74.62157
536.85        74.54832
537.28        74.55737
537.72        74.62365
538.16         74.7122
538.60        74.79951
539.04        74.83473
539.47        74.78982
539.91        74.82457
540.35        74.85744
540.79         74.5916
541.22        74.12782
541.66         73.9245
542.10        74.01641
542.54        74.17613
542.97        74.34306
543.41        74.53307
543.85        74.70028
544.29        74.85912
544.72        74.95428
545.16        74.90537
545.60        74.69292
546.04        74.41239
546.47        74.17863
546.91        73.99171
547.35        73.97955
547.79        74.56021
548.22        75.45464
548.66         75.6202
549.10        75.00214
549.53        74.13699
549.97        73.38831
550.41        73.03831
550.84        73.19411
551.28        73.78172
551.72        74.55038
552.15        75.00784
552.59        75.01463
553.03        74.86282
553.46        74.45508
553.90        74.18445
554.34        74.04451
554.77        74.05695
555.21        73.90389
555.65        73.98618
556.08        74.33192
556.52        73.89964
556.96        74.40601
557.39        74.32883
557.83        74.23751
558.27        74.24012
558.70        74.35629
559.14        74.47246
559.57        74.56774
560.01        74.70303
560.45        74.83304
560.88        74.98022
561.32        75.06953
561.75          74.746
562.19        74.16893
562.63         73.7516
563.06        73.60667
563.50        73.66057
563.93        73.84674
564.37        74.20397
564.80        74.54516
565.24        74.50471
565.68        74.15208
566.11        73.98837
566.55         74.0939
566.98        74.14268
567.42        74.13911
567.85        74.27456
568.29        74.59708
568.72        74.75318
569.16        74.86067
569.60         75.5872
570.03        75.90469
570.47        75.80148
570.90        75.44357
571.34        73.54055
571.77        74.66382
572.21         74.6713
572.64        73.90939
573.08        73.29805
573.51        69.85699
573.95        72.61198
574.38         77.0948
574.82         75.3764
