SpectraSmart Spectrum 2.9.0.0
--------- Device Information -----------
Spectrum Name :  反射率_0
Saving Time :  2024/04/26 01:19:31
Spectro-Module Model Name : SE2030-DUVN
Spectro-Module Serial Number : OS361AC55029948
Wavelength Start : 200
Wavelength End : 1025
Wavelength Unit : Wavelength(nm)
Spectrum Unit : Reflectance(%)
-----------Spectrum Setting ------------
Integration Time : 20ms
Average : 10
Boxcar : 0
Background removal :  enabled
linearity correction :  enabled
SC :  disabled
Intensity correction :  disabled
DWT denoise :  enabled
savitzky-golay :  disabled
FFT :  disabled
Running average :  disabled
Kalman :  disabled
High pass :  disabled
---------------BEGIN--------------------
Wavelength(nm)             Reflectance(%)
200.29               0
200.75        84.95412
201.21        82.80801
201.67        79.71568
202.13        76.89225
202.58        74.49986
203.04        72.66352
203.50        70.94805
203.96        68.87077
204.42        66.64883
204.88        64.64974
205.34        63.15156
205.80        62.21664
206.26        61.78775
206.72        62.11761
207.18        63.79398
207.64        66.90796
208.10        68.65681
208.55        67.82936
209.01        67.34392
209.47        68.98837
209.93        72.42778
210.39        77.46357
210.85        82.24889
211.31        82.40253
211.77        76.73844
212.23        67.13699
212.69        57.39319
213.14        53.29148
213.60         55.7883
214.06        63.56133
214.52        73.24464
214.98        79.47018
215.44        80.69101
215.90        78.38638
216.36         74.7969
216.81        72.96025
217.27        73.71376
217.73        75.85652
218.19        77.39722
218.65        75.73138
219.11         69.8671
219.57        58.99371
220.02        44.63965
220.48        35.94798
220.94        38.10399
221.40        48.73924
221.86         58.9681
222.32        59.41939
222.77        51.19096
223.23        39.58545
223.69        29.62092
224.15        26.31058
224.61        29.11744
225.06        35.43919
225.52        41.96687
225.98        44.67725
226.44        42.84209
226.90        38.29186
227.36        33.14786
227.81        30.18456
228.27        30.32829
228.73        32.39218
229.19        35.41261
229.65        38.00253
230.10        39.63547
230.56        40.69697
231.02        41.47733
231.48        42.26998
231.93        43.14033
232.39        43.98481
232.85        44.61332
233.31        44.81369
233.77        44.55009
234.22        43.88259
234.68        43.13926
235.14        42.86316
235.60        43.23554
236.05        44.16467
236.51        45.21981
236.97        45.73024
237.43        45.61081
237.88        45.08351
238.34        44.65111
238.80        45.71997
239.26        48.82248
239.71        53.50977
240.17        58.65902
240.63        62.82688
241.08         65.4893
241.54        66.88805
242.00        67.33781
242.46        67.34352
242.91        67.34377
243.37        66.74211
243.83        67.44246
244.28        86.92171
244.74        140.8222
245.20        150.9027
245.66        141.7993
246.11        140.9502
246.57        149.1216
247.03        173.7506
247.48        239.1268
247.94        189.3889
248.40        116.0228
248.85        95.39217
249.31        89.87386
249.77        89.44492
250.22        91.75357
250.68        96.95311
251.14        105.0245
251.59        111.0201
252.05        109.7499
252.51        103.2763
252.96        95.58361
253.42        91.19147
253.88        89.81748
254.33        89.80193
254.79        91.51172
255.25        94.82538
255.70        98.72113
256.16        102.9631
256.62        105.6999
257.07        105.0228
257.53        101.8409
257.99        96.79294
258.44        91.44413
258.90        88.68429
259.35        87.62054
259.81        87.39479
260.27        86.36398
260.72         82.9419
261.18        77.92685
261.63         71.9479
262.09        66.45355
262.55        62.34409
263.00        59.61162
263.46        57.96547
263.91        56.64762
264.37        55.20963
264.83          53.399
265.28        51.25042
265.74        49.20615
266.19        47.65547
266.65        46.81505
267.11        46.41121
267.56         45.9806
268.02        44.98179
268.47        43.27985
268.93        41.07786
269.38        38.71981
269.84        37.05717
270.30        36.33533
270.75         36.3189
271.21        36.57911
271.66        36.45664
272.12         35.7656
272.57        34.71033
273.03        33.58363
273.48        32.72924
273.94        32.27395
274.39         32.0517
274.85        31.89905
275.31        31.57513
275.76        31.01607
276.22        30.33524
276.67        29.66496
277.13        29.28853
277.58        29.18058
278.04        29.26268
278.49        29.28675
278.95        28.98257
279.40        28.28447
279.86        27.36476
280.31        26.38264
280.77        25.69569
281.22        25.33436
281.68        25.21233
282.13        25.19202
282.59        25.11558
283.04        24.93302
283.50        24.74745
283.95        24.55294
284.41        24.35916
284.86        24.17264
285.32        23.98278
285.77        23.88315
286.22        24.08661
286.68        24.57445
287.13        25.23925
287.59        25.83496
288.04        25.98174
288.50         25.6519
288.95        24.96558
289.41        24.19609
289.86        23.64455
290.32        23.45254
290.77        23.51344
291.22        23.77068
291.68        24.09204
292.13        24.44526
292.59        24.89694
293.04        25.47072
293.50        26.19491
293.95        27.05706
294.40          27.998
294.86        29.00333
295.31        30.07423
295.77        31.20835
296.22        32.41288
296.68        33.62405
297.13        34.70262
297.58        35.64671
298.04        36.51553
298.49        37.46175
298.95         38.7772
299.40        40.49921
299.85         42.5268
300.31        44.65945
300.76         46.5694
301.21        48.13966
301.67        49.49874
302.12         50.6968
302.58        51.91595
303.03        53.19305
303.48        54.50782
303.94        55.95431
304.39        57.61579
304.84         59.5023
305.30         61.5812
305.75        63.65081
306.20        65.42371
306.66        66.85297
307.11        67.95879
307.57         68.9511
308.02        70.03008
308.47        71.30769
308.93        72.73604
309.38        74.18043
309.83        75.48185
310.29        76.59348
310.74        77.53786
311.19        78.44309
311.65        79.50051
312.10        80.72894
312.55        82.07191
313.00        83.32734
313.46        84.17466
313.91         84.5329
314.36        84.52693
314.82        84.43312
315.27        84.62386
315.72        85.22796
316.18        86.13495
316.63        87.16685
317.08        87.98442
317.53        88.47673
317.99        88.72609
318.44        88.90077
318.89        89.27656
319.35        89.89651
319.80        90.69837
320.25        91.44106
320.70        91.74075
321.16        91.52657
321.61         90.9344
322.06        90.27705
322.51        90.03899
322.97        90.31171
323.42        90.99551
323.87         91.8046
324.32        92.24579
324.78        92.17213
325.23        91.76934
325.68        91.27161
326.13        91.09084
326.59        91.31742
327.04        91.84538
327.49        92.49164
327.94        92.98798
328.39         93.2405
328.85        93.31683
329.30        93.34226
329.75        93.36176
330.20         93.4395
330.66        93.54955
331.11        93.78742
331.56        94.23454
332.01        94.91374
332.46        95.78105
332.92        96.75758
333.37        97.87456
333.82        98.99282
334.27         100.091
334.72        100.9739
335.17        101.3468
335.63        101.1752
336.08        100.6057
336.53        99.94666
336.98        99.73926
337.43        100.1291
337.88        100.9705
338.34        102.0435
338.79        103.0625
339.24        103.8594
339.69         104.537
340.14        105.0434
340.59        105.2904
341.05         105.303
341.50        105.0817
341.95        104.8331
342.40        104.9041
342.85        105.3611
343.30        106.1151
343.75        106.9625
344.20        107.5255
344.66        107.7031
345.11        107.5967
345.56         107.339
346.01        107.1314
346.46        107.0533
346.91        107.0459
347.36        107.1123
347.81        107.2648
348.26        107.4953
348.72        107.8251
349.17        108.1778
349.62        108.4677
350.07        108.6551
350.52        108.7346
350.97        108.7374
351.42        108.7283
351.87        108.7198
352.32        108.6963
352.77        108.6041
353.22        108.3602
353.67        107.9644
354.13        107.4759
354.58        106.9654
355.03        106.5988
355.48         106.404
355.93        106.3225
356.38        106.2623
356.83        106.0749
357.28        105.7155
357.73        105.2345
358.18        104.6601
358.63        104.0388
359.08         103.402
359.53        102.7381
359.98        102.0893
360.43        101.5234
360.88        101.0397
361.33        100.6107
361.78        100.1759
362.23        99.63441
362.68        98.96621
363.13        98.21542
363.58        97.40813
364.03         96.5801
364.48        95.75935
364.93        94.94594
365.38        94.18827
365.83        93.56487
366.28        93.07819
366.73        92.68702
367.18         92.3358
367.63        91.93217
368.08        91.44845
368.53        90.92683
368.98        90.34073
369.43        89.64378
369.88        88.84718
370.33        87.96241
370.78        87.12484
371.23        86.56595
371.68        86.33083
372.13        86.35101
372.58        86.45264
373.03        86.33372
373.48         85.9138
373.93        85.29236
374.38          84.594
374.83        84.00691
375.28        83.58542
375.72         83.2529
376.17        82.99232
376.62        82.75776
377.07        82.51649
377.52        82.27144
377.97        81.99732
378.42        81.64706
378.87        81.22122
379.32        80.75304
379.77        80.23781
380.22        79.66652
380.67        79.04303
381.11        78.36151
381.56         77.7187
382.01        77.27955
382.46        77.08218
382.91        77.10693
383.36        77.15925
383.81         76.9249
384.26        76.35247
384.71        75.52847
385.15        74.71494
385.60        74.37419
386.05         74.5275
386.50        75.01629
386.95        75.50301
387.40        75.42389
387.85        74.70166
388.29        73.56973
388.74         72.4548
389.19        71.65676
389.64        71.23395
390.09        71.02795
390.54        71.02028
390.98        71.18268
391.43        71.44974
391.88        71.81007
392.33        72.05334
392.78        71.81461
393.23        71.09834
393.67        70.15106
394.12        69.32127
394.57        68.60799
395.02        68.21803
395.47        68.66302
395.91        69.74446
396.36        70.39865
396.81        70.44808
397.26        70.36563
397.71         70.2009
398.15        69.78926
398.60        69.26816
399.05        68.71546
399.50        68.20184
399.95        67.57441
400.39         67.1853
400.84        66.95556
401.29        66.93935
401.74        66.94488
402.18        66.95823
402.63        67.01852
403.08        67.15855
403.53        67.37292
403.97        67.63756
404.42        67.91666
404.87        68.08989
405.32        67.91788
405.76        67.36488
406.21        66.70533
406.66        66.09315
407.11        65.46283
407.55        65.03249
408.00        65.37353
408.45        66.27821
408.90         66.7266
409.34        66.48592
409.79        65.89914
410.24        65.22829
410.68        64.84796
411.13        64.85436
411.58        65.02431
412.03        65.29448
412.47        65.64715
412.92        65.97804
413.37        66.31323
413.81        66.56071
414.26        66.62489
414.71        66.47871
415.15        66.13259
415.60        65.71699
416.05        65.47084
416.49        65.46133
416.94        65.65192
417.39         65.8727
417.83        65.81716
418.28        65.43897
418.73        64.84169
419.17          64.291
419.62         64.2076
420.07         64.6338
420.51        65.42826
420.96         66.2736
421.41        66.62324
421.85        66.33379
422.30        65.72784
422.74        65.02925
423.19        64.56236
423.64        64.42812
424.08         64.7637
424.53        65.40481
424.98        65.86758
425.42        66.03679
425.87         66.2773
426.31        66.56408
426.76        66.37663
427.21        65.93721
427.65        66.13739
428.10        66.90253
428.54         67.5962
428.99        68.17171
429.44        68.42239
429.88        68.39801
430.33        69.32445
430.77        70.47942
431.22        69.28236
431.66        66.38321
432.11        64.94775
432.56        65.27473
433.00        66.00977
433.45        67.04836
433.89        68.91815
434.34        70.16468
434.78        71.71526
435.23        68.05753
435.67        65.72131
436.12        67.74758
436.57        68.91003
437.01        70.01237
437.46        70.51584
437.90        70.54399
438.35        70.23373
438.79        70.82623
439.24        70.79459
439.68        70.53188
440.13        70.07701
440.57        69.79138
441.02        70.51535
441.46        71.91536
441.91        72.95511
442.35        73.22993
442.80        72.35972
443.24        70.84383
443.69        71.21326
444.13        73.13586
444.58        73.15283
445.02        71.50207
445.47        71.43351
445.91        72.79932
446.36        73.29012
446.80        72.80305
447.24        72.50192
447.69        72.51705
448.13        72.60013
448.58        72.78692
449.02         73.0816
449.47        73.40544
449.91        73.65067
450.36        73.78207
450.80        73.81353
451.25        73.76057
451.69        73.61531
452.13        73.41791
452.58        73.18327
453.02        72.97787
453.47        72.94981
453.91        73.09809
454.36        73.37572
454.80        73.69226
455.24        73.79819
455.69        73.65317
456.13        73.47585
456.58        73.33663
457.02        72.83979
457.46          72.246
457.91         72.4008
458.35        73.10767
458.79        73.34689
459.24        73.07523
459.68        72.80423
460.13         72.6068
460.57        72.35471
461.01        72.13302
461.46        71.79853
461.90        71.33129
462.34         71.7188
462.79         71.3931
463.23        71.54925
463.68        71.68916
464.12         71.9136
464.56        72.15182
465.01        72.32696
465.45        72.27704
465.89        72.17403
466.34        71.94978
466.78         70.9498
467.22        69.67723
467.67        69.37695
468.11        70.46156
468.55         71.0624
468.99        71.02108
469.44        70.61858
469.88         70.0707
470.32        70.07975
470.77        70.54434
471.21        70.55488
471.65        70.06375
472.10          69.743
472.54        69.67711
472.98        69.67687
473.42        69.74387
473.87        70.04303
474.31        70.39913
474.75          70.349
475.20        69.96999
475.64        69.78207
476.08        69.86625
476.52        69.80923
476.97        69.60548
477.41        69.74513
477.85        70.22547
478.29        69.71658
478.74        70.19047
479.18        70.03818
479.62        69.32418
480.06        69.87706
480.50        70.04741
480.95          70.336
481.39        70.32912
481.83        69.34798
482.27        69.64109
482.72        69.36551
483.16        68.25719
483.60        68.54824
484.04        69.97374
484.48        70.35072
484.93        70.13503
485.37        71.58552
485.81        72.48065
486.25        70.99323
486.69        97.30309
487.14        79.09933
487.58        48.84499
488.02         59.8701
488.46        68.11919
488.90         67.2747
489.34        69.02355
489.79        68.05313
490.23        69.90543
490.67        70.65064
491.11        69.68714
491.55        69.67018
491.99        70.15558
492.43        69.99629
492.88        69.29131
493.32        69.30527
493.76        69.51437
494.20        69.76779
494.64        69.81801
495.08         69.8323
495.52        69.91502
495.96        69.97568
496.41        69.94405
496.85         70.4741
497.29        71.24918
497.73        69.92426
498.17        67.60513
498.61        67.89881
499.05        70.72999
499.49        71.25517
499.93        70.97724
500.37        70.54561
500.82        69.94563
501.26        70.03651
501.70        70.54875
502.14        70.83838
502.58        70.72512
503.02        70.59512
503.46         70.4361
503.90        69.97167
504.34        69.39359
504.78        69.15169
505.22        69.31187
505.66        69.75169
506.10        70.28171
506.54        70.50138
506.98        70.30168
507.42        69.95908
507.86        69.69706
508.30         69.1048
508.74        69.48843
509.18        69.75567
509.62        70.12493
510.06        70.32941
510.50        70.31053
510.94        70.13958
511.38        69.90816
511.82        69.78585
512.26        69.81815
512.70        69.94384
513.14        70.08775
513.58        70.20149
514.02         70.2634
514.46        70.17387
514.90        69.94574
515.34        70.21887
515.78        69.97619
516.22        70.08179
516.66        70.19186
517.10        70.09789
517.54        69.78258
517.98         69.9073
518.42        69.66985
518.86         69.7629
519.30        69.93673
519.74        70.22646
520.18        70.55003
520.62        70.76823
521.06        70.85072
521.50        70.83162
521.93         70.7394
522.37        70.62083
522.81        70.50945
523.25        70.40056
523.69        70.32352
524.13        70.32431
524.57        70.40667
525.01        70.55352
525.45        70.73325
525.89        70.88998
526.32        70.99004
526.76        71.04055
527.20        71.02311
527.64        70.93175
528.08        70.79339
528.52        70.56097
528.96        70.25233
529.40        70.09437
529.83        70.14421
530.27        69.62889
530.71        69.92442
531.15        69.92101
531.59        70.02275
532.03         70.1834
532.46        70.40947
532.90        70.67823
533.34        70.94832
533.78        71.20341
534.22        71.38416
534.66         71.4175
535.09        71.28416
535.53        71.04063
535.97        70.72536
536.41          70.421
536.85        70.17026
537.28        69.96966
537.72        69.83443
538.16        69.79528
538.60        69.85018
539.04        69.93253
539.47        70.00963
539.91        70.21836
540.35         70.4629
540.79        70.45394
541.22         70.2312
541.66        70.14826
542.10        70.22039
542.54        70.24742
542.97        70.23103
543.41        70.28668
543.85        70.40455
544.29        70.58048
544.72         70.7173
545.16        70.69195
545.60        70.48027
546.04        70.11298
546.47        69.76247
546.91        69.73133
547.35        70.05172
547.79        70.62643
548.22        71.18752
548.66        71.34067
549.10        71.00275
549.53        70.28019
549.97        69.49637
550.41        69.11536
550.84        69.24531
551.28        69.72507
551.72        70.34447
552.15        70.74352
552.59        70.80937
553.03        70.69231
553.46        70.49144
553.90        70.34231
554.34        70.27146
554.77        70.45889
555.21        70.30444
555.65        70.44234
556.08        70.70992
556.52        70.33802
556.96        70.87756
557.39        70.56364
557.83        70.05479
558.27        69.98242
558.70        70.33978
559.14         70.5669
559.57        70.61118
560.01        70.72872
560.45        70.91151
560.88        71.17142
561.32        71.40076
561.75        71.22591
562.19        70.75915
562.63        70.22618
563.06        69.80671
563.50        69.87395
563.93        70.29752
564.37        70.48141
564.80        70.35497
565.24        70.31455
565.68        70.36703
566.11        70.37923
566.55        70.40443
566.98        70.39481
567.42        70.39005
567.85        70.60153
568.29         70.9986
568.72        71.01897
569.16        70.89544
569.60        71.29186
570.03         71.8634
570.47         71.9846
570.90        71.91457
571.34        70.02189
571.77        71.33016
572.21        71.25783
572.64        70.76215
573.08        69.79893
573.51        66.65805
573.95        69.29948
574.38        73.70051
574.82        72.05558
