SpectraSmart Spectrum 2.9.0.0
--------- Device Information -----------
Spectrum Name :  反射率_0
Saving Time :  2024/04/26 01:52:56
Spectro-Module Model Name : SE2030-DUVN
Spectro-Module Serial Number : OS361AC55029948
Wavelength Start : 200
Wavelength End : 1025
Wavelength Unit : Wavelength(nm)
Spectrum Unit : Reflectance(%)
-----------Spectrum Setting ------------
Integration Time : 20ms
Average : 10
Boxcar : 0
Background removal :  enabled
linearity correction :  enabled
SC :  disabled
Intensity correction :  disabled
DWT denoise :  enabled
savitzky-golay :  disabled
FFT :  disabled
Running average :  disabled
Kalman :  disabled
High pass :  disabled
---------------BEGIN--------------------
Wavelength(nm)             Reflectance(%)
200.29               0
200.75        89.25177
201.21        80.96535
201.67         71.2674
202.13        65.20339
202.58        63.43409
203.04        65.00321
203.50        68.09079
203.96        69.57041
204.42        68.71817
204.88        66.70082
205.34        65.07447
205.80        65.55267
206.26        69.04049
206.72          77.576
207.18        94.35917
207.64         108.561
208.10        97.99844
208.55        77.51366
209.01        65.03835
209.47        61.76607
209.93        64.05897
210.39        70.17991
210.85        77.35213
211.31        79.42041
211.77        74.40256
212.23        64.67358
212.69         54.9253
213.14        52.35002
213.60        58.07639
214.06        69.93053
214.52        83.16576
214.98        90.55032
215.44        90.25526
215.90         84.6832
216.36        77.12296
216.81        72.10516
217.27        70.90969
217.73        71.86906
218.19        72.65702
218.65        70.12554
219.11        63.04031
219.57        50.81599
220.02        34.85094
220.48        24.41089
220.94        25.26627
221.40         35.2422
221.86        46.16801
222.32         49.2733
222.77        44.92192
223.23        37.46148
223.69        30.91148
224.15        29.32164
224.61        32.35898
225.06        38.05752
225.52        43.67449
225.98        45.95538
226.44        44.35255
226.90        40.35636
227.36        35.95827
227.81        33.77818
228.27        34.60142
228.73        37.26968
229.19        40.52917
229.65        42.56167
230.10          42.967
230.56        42.49424
231.02        41.81655
231.48         41.6463
231.93        42.06252
232.39        42.76241
232.85        43.48093
233.31          43.896
233.77         43.9083
234.22        43.64981
234.68        43.25108
235.14        42.87518
235.60        42.64123
236.05        42.54333
236.51         42.5741
236.97        42.69284
237.43        42.94308
237.88         43.4714
238.34        44.42475
238.80        46.09423
239.26        48.45234
239.71        51.38474
240.17        54.34345
240.63        56.98471
241.08        59.21275
241.54        60.88358
242.00        62.27351
242.46        64.06179
242.91        67.19422
243.37        73.43827
243.83        90.85795
244.28        143.2791
244.74        195.4754
245.20         157.689
245.66        126.9328
246.11        117.2125
246.57        118.0651
247.03        130.6316
247.48        167.8981
247.94        136.2014
248.40        92.56641
248.85        80.37365
249.31        77.76223
249.77        79.28018
250.22        83.72516
250.68        91.97055
251.14        103.1345
251.59        107.8758
252.05        98.74935
252.51        80.90161
252.96        64.52564
253.42        58.36956
253.88        61.27401
254.33        69.76241
254.79        80.32037
255.25        87.42358
255.70        89.85095
256.16        90.14664
256.62        89.12672
257.07         87.4282
257.53        85.67329
257.99        83.08336
258.44        80.27525
258.90        79.04076
259.35        78.48855
259.81        78.35069
260.27        77.15939
260.72        73.42909
261.18        68.05077
261.63        61.69974
262.09        56.07043
262.55        52.43906
263.00        50.67013
263.46         50.1541
263.91         49.8372
264.37        48.91408
264.83        47.17669
265.28        44.83572
265.74        42.49044
266.19        40.79281
266.65        40.00745
267.11        39.77269
267.56        39.57481
268.02        38.80366
268.47        37.32692
268.93         35.3679
269.38        33.27433
269.84        31.87612
270.30        31.39866
270.75        31.60552
271.21        32.03651
271.66        32.00273
272.12         31.3216
272.57        30.20477
273.03        29.01799
273.48        28.22703
273.94        27.96038
274.39        28.00454
274.85        28.08804
275.31        27.81265
275.76        27.10021
276.22        26.14346
276.67        25.16186
277.13        24.55173
277.58        24.33626
278.04        24.39408
278.49         24.4934
278.95        24.37349
279.40        23.95136
279.86         23.3735
280.31        22.72781
280.77        22.25028
281.22        21.95337
281.68        21.78524
282.13        21.66788
282.59        21.52586
283.04         21.3356
283.50        21.16699
283.95         21.0117
284.41        20.86808
284.86        20.73616
285.32         20.6136
285.77        20.56552
286.22        20.75246
286.68        21.15331
287.13        21.68006
287.59        22.13869
288.04        22.23765
288.50        21.95544
288.95        21.37944
289.41        20.72498
289.86        20.21278
290.32        19.96589
290.77        19.91556
291.22        20.02878
291.68        20.21071
292.13        20.44321
292.59        20.76833
293.04        21.23052
293.50        21.89043
293.95        22.73298
294.40        23.69222
294.86        24.67982
295.31        25.58261
295.77        26.37916
296.22        27.10626
296.68        27.80584
297.13        28.51625
297.58         29.2761
298.04        30.09268
298.49        31.00315
298.95        32.10883
299.40        33.41269
299.85        34.88649
300.31        36.44058
300.76        37.92819
301.21         39.2785
301.67        40.54348
302.12        41.71542
302.58        42.87596
303.03        44.03292
303.48        45.19568
303.94        46.44308
304.39        47.84014
304.84        49.40981
305.30        51.13525
305.75        52.88918
306.20         54.4916
306.66        55.92056
307.11        57.18055
307.57        58.41779
308.02        59.75221
308.47        61.26157
308.93        62.90471
309.38        64.58249
309.83        66.18531
310.29        67.66289
310.74        69.01314
311.19        70.29136
311.65        71.58885
312.10        72.91764
312.55        74.25952
313.00        75.50816
313.46        76.49537
313.91        77.17226
314.36         77.6087
314.82        77.99425
315.27        78.57613
315.72        79.44971
316.18        80.54959
316.63        81.73103
317.08         82.7078
317.53        83.38888
317.99        83.83112
318.44        84.21116
318.89        84.82563
319.35        85.71622
319.80        86.81654
320.25        87.84553
320.70        88.34275
321.16        88.21973
321.61        87.63756
322.06         86.9546
322.51        86.73042
322.97        87.08054
323.42        87.88142
323.87        88.83849
324.32        89.43767
324.78        89.51839
325.23        89.27797
325.68        88.92349
326.13        88.81934
326.59        89.05409
327.04        89.53248
327.49        90.13161
327.94        90.68745
328.39        91.12971
328.85        91.49539
329.30        91.84081
329.75        92.09143
330.20        92.26729
330.66        92.36916
331.11        92.53303
331.56        92.91064
332.01         93.5514
332.46        94.39674
332.92        95.35287
333.37        96.42094
333.82        97.46278
334.27        98.48307
334.72        99.32439
335.17         99.7456
335.63        99.72013
336.08        99.36331
336.53         98.9457
336.98        98.95309
337.43        99.50718
337.88        100.4732
338.34         101.619
338.79        102.6431
339.24        103.3835
339.69        103.9482
340.14        104.3351
340.59        104.5423
341.05        104.6191
341.50        104.5485
341.95        104.4847
342.40         104.694
342.85        105.2251
343.30        106.0092
343.75        106.8797
344.20        107.5201
344.66        107.8396
345.11        107.9106
345.56        107.8188
346.01        107.7007
346.46        107.6235
346.91        107.5506
347.36        107.5287
347.81        107.6356
348.26         107.882
348.72        108.2743
349.17         108.701
349.62        109.0181
350.07        109.1724
350.52        109.1765
350.97        109.1065
351.42        109.0923
351.87        109.1593
352.32        109.2739
352.77        109.3274
353.22        109.1504
353.67        108.7276
354.13         108.146
354.58        107.5473
355.03        107.2084
355.48        107.1784
355.93        107.3596
356.38        107.5793
356.83        107.5639
357.28        107.2345
357.73        106.6732
358.18        105.9756
358.63        105.2963
359.08        104.6932
359.53        104.1248
359.98        103.5692
360.43        102.9937
360.88        102.3857
361.33        101.7657
361.78        101.1547
362.23        100.5766
362.68        100.0413
363.13        99.54755
363.58        99.05493
364.03        98.50066
364.48        97.87261
364.93        97.18248
365.38        96.49893
365.83        95.93652
366.28        95.50769
366.73        95.16384
367.18        94.81218
367.63        94.30518
368.08        93.62213
368.53        92.84085
368.98        92.02824
369.43        91.27486
369.88        90.61313
370.33        90.00644
370.78        89.49303
371.23        89.13976
371.68        88.94095
372.13        88.87671
372.58          88.825
373.03        88.57593
373.48        88.09325
373.93        87.45409
374.38        86.79066
374.83        86.30634
375.28         86.0464
375.72         85.9226
376.17        85.89053
376.62        85.85355
377.07        85.75388
377.52        85.60053
377.97        85.34328
378.42        84.90433
378.87        84.29861
379.32        83.58532
379.77        82.83234
380.22        82.13374
380.67         81.5115
381.11        80.93002
381.56        80.43479
382.01        80.10007
382.46         79.9335
382.91        79.94182
383.36        79.94575
383.81        79.65775
384.26          79.041
384.71        78.17239
385.15        77.32631
385.60        76.98956
386.05          77.185
386.50        77.75095
386.95        78.33179
387.40        78.32583
387.85        77.64354
388.29        76.52451
388.74         75.4128
389.19        74.62703
389.64        74.22718
390.09        74.03952
390.54        74.04658
390.98        74.22311
391.43        74.50689
391.88        74.89441
392.33        75.14737
392.78        74.88444
393.23        74.11805
393.67        73.03248
394.12        72.05512
394.57        71.44777
395.02        71.35365
395.47        71.89184
395.91        72.86366
396.36        73.55307
396.81         73.7761
397.26        73.75597
397.71        73.58604
398.15        73.21056
398.60        72.75987
399.05        72.46057
399.50        72.22878
399.95        71.28991
400.39        70.21117
400.84        69.84113
401.29        70.23019
401.74        70.47024
402.18        70.41821
402.63        70.24958
403.08         70.1127
403.53        70.27805
403.97        70.74899
404.42        71.27829
404.87        71.64002
405.32        71.54337
405.76        70.92651
406.21        70.06325
406.66          69.204
407.11        68.50509
407.55        68.19191
408.00        68.60631
408.45        69.53931
408.90        70.19685
409.34        70.27844
409.79        69.81989
410.24        69.08945
410.68        68.68875
411.13        68.72295
411.58        68.84399
412.03        68.99191
412.47        69.22382
412.92        69.45225
413.37        69.69704
413.81        69.88174
414.26        69.92775
414.71        69.80599
415.15        69.52273
415.60        69.18359
416.05        68.98444
416.49        68.97822
416.94        69.13498
417.39          69.299
417.83        69.18524
418.28        68.76463
418.73        68.15207
419.17        67.59669
419.62        67.49456
420.07        67.87097
420.51        68.57536
420.96        69.35457
421.41         69.6987
421.85        69.45431
422.30        69.12154
422.74        68.74537
423.19        67.96631
423.64        67.07178
424.08        67.26316
424.53        68.37514
424.98        68.97045
425.42        68.89002
425.87        69.13059
426.31        69.65064
426.76        69.53522
427.21        69.01017
427.65         69.1991
428.10        70.05351
428.54        70.79374
428.99        71.36446
429.44        71.76003
429.88        71.93279
430.33        72.64525
430.77        73.32569
431.22        72.08969
431.66        69.52909
432.11        68.24544
432.56        68.48571
433.00        69.23777
433.45        70.44068
433.89        72.37041
434.34        73.40708
434.78        75.62369
435.23        70.86761
435.67        68.79242
436.12        71.11047
436.57        72.42081
437.01        73.31741
437.46        73.72958
437.90        73.82957
438.35        73.33589
438.79        73.87322
439.24        73.76111
439.68        73.50581
440.13        73.10195
440.57        72.89944
441.02        73.71217
441.46         75.1703
441.91        76.25538
442.35        76.55801
442.80        75.59682
443.24        73.94865
443.69        74.47843
444.13        76.76627
444.58        76.86359
445.02        74.99525
445.47        74.74026
445.91        76.00616
446.36        76.42338
446.80        75.91617
447.24        75.68324
447.69        75.82784
448.13        76.03997
448.58        76.33535
449.02        76.72665
449.47        77.13653
449.91         77.4598
450.36        77.66096
450.80        77.74883
451.25        77.72227
451.69        77.55491
452.13        77.28625
452.58        76.93233
453.02        76.60778
453.47        76.53535
453.91        76.72732
454.36        77.12726
454.80        77.55949
455.24        77.64088
455.69         77.3166
456.13        76.81936
456.58        76.36243
457.02        75.83993
457.46        75.49779
457.91        75.91479
458.35        76.80505
458.79        77.17268
459.24        76.93931
459.68        76.56532
460.13        76.17178
460.57        75.75687
461.01        75.43778
461.46        75.01298
461.90        74.46643
462.34        74.89467
462.79        74.56127
463.23        74.81985
463.68        75.07814
464.12        75.33188
464.56        75.50183
465.01        75.58502
465.45        75.48442
465.89        75.35866
466.34        75.08575
466.78        74.13589
467.22        73.04717
467.67        72.08862
468.11        73.27298
468.55        74.00645
468.99        74.46662
469.44         74.2235
469.88          73.471
470.32        73.30293
470.77        73.69156
471.21        73.69326
471.65        73.27817
472.10        73.13378
472.54         73.2812
472.98        73.38202
473.42         73.3968
473.87        73.63254
474.31        73.92773
474.75        73.59895
475.20        72.87534
475.64        72.82503
476.08        73.39103
476.52        73.49284
476.97        73.05415
477.41        72.90375
477.85        73.23716
478.29        72.70185
478.74        73.32498
479.18        73.88008
479.62        72.17928
480.06        72.45698
480.50        73.11422
480.95        73.58728
481.39        73.11745
481.83        72.82308
482.27        72.55138
482.72         72.4104
483.16        71.14479
483.60        71.43068
484.04        72.99014
484.48        73.55974
484.93        73.68547
485.37        74.85588
485.81         75.4017
486.25        74.16724
486.69        100.3667
487.14        81.07541
487.58        50.78622
488.02        62.20603
488.46        70.68972
488.90        69.84493
489.34        72.15957
489.79        71.14746
490.23        73.56062
490.67        74.10951
491.11        72.61784
491.55        72.57941
491.99        73.48431
492.43        73.39455
492.88        72.35565
493.32        72.12106
493.76        72.24458
494.20        72.46119
494.64        72.51791
495.08        72.82258
495.52        73.30743
495.96        73.12539
496.41        72.40301
496.85        72.94077
497.29        74.36118
497.73        73.33221
498.17        70.90184
498.61        71.05793
499.05        73.80158
499.49        74.37226
499.93        74.31082
500.37        73.85248
500.82        73.00273
501.26        73.00607
501.70         73.6138
502.14        74.04046
502.58        74.05592
503.02        74.00056
503.46        73.84379
503.90        73.34731
504.34        72.72273
504.78        72.41723
505.22        72.48193
505.66        72.87598
506.10         73.4353
506.54        73.56747
506.98        73.11468
507.42        73.42899
507.86        72.59843
508.30        72.44442
508.74        72.59703
509.18        72.87173
509.62        73.19153
510.06        73.38742
510.50        73.42693
510.94        73.35007
511.38        73.23382
511.82        73.19282
512.26        73.25721
512.70        73.38245
513.14        73.52239
513.58        73.61098
514.02        73.62258
514.46        73.57758
514.90        73.50565
515.34        73.43544
515.78        73.37015
516.22        73.35889
516.66        73.38197
517.10        73.25459
517.54        72.97414
517.98        73.11528
518.42        72.93935
518.86        73.05688
519.30        73.23495
519.74        73.50497
520.18        73.79716
520.62        73.99259
521.06        74.06669
521.50         74.0513
521.93        73.96283
522.37        73.82971
522.81        73.68288
523.25        73.52197
523.69        73.40302
524.13        73.41074
524.57        73.55476
525.01        73.80999
525.45        74.09952
525.89        74.29417
526.32        74.34724
526.76        74.28722
527.20        74.16124
527.64        74.06805
528.08        74.05244
528.52        74.02628
528.96        73.92916
529.40        73.87749
529.83        73.90297
530.27        73.23138
530.71        73.37245
531.15        73.25533
531.59        73.32937
532.03        73.51376
532.46        73.78305
532.90        74.05904
533.34        74.28825
533.78        74.48889
534.22        74.61215
534.66        74.59528
535.09        74.42783
535.53        74.15647
535.97        73.85045
536.41        73.64574
536.85        73.58207
537.28        73.63097
537.72        73.73141
538.16        73.79259
538.60         73.7867
539.04        73.68406
539.47        73.52555
539.91        73.56979
540.35        73.74892
540.79        73.73146
541.22        73.52681
541.66        73.45062
542.10        73.50282
542.54         73.4957
542.97        73.44592
543.41        73.49217
543.85        73.62609
544.29        73.83028
544.72        73.99142
545.16        73.95712
545.60        73.69582
546.04         73.2781
546.47        72.88876
546.91        72.77569
547.35        73.01253
547.79         73.6639
548.22        74.40633
548.66         74.6088
549.10        74.17155
549.53        73.33443
549.97        72.47363
550.41         72.0454
550.84        72.16225
551.28        72.73254
551.72        73.53708
552.15         73.8295
552.59        73.98395
553.03        73.93132
553.46        73.57095
553.90        73.40189
554.34        73.37711
554.77        73.36149
555.21        73.31573
555.65         73.3447
556.08        73.62479
556.52        73.10696
556.96        73.52744
557.39        73.40614
557.83        73.29014
558.27        73.23338
558.70        73.28875
559.14        73.35323
559.57        73.58369
560.01        73.85396
560.45        74.12106
560.88        74.32616
561.32        74.39231
561.75        74.02811
562.19        73.43196
562.63        73.02234
563.06        72.89583
563.50        73.03358
563.93        73.32182
564.37         73.5104
564.80        73.52396
565.24         73.5769
565.68        73.64574
566.11        73.55989
566.55        73.41992
566.98        73.39023
567.42        73.49496
567.85        73.69227
568.29         73.9729
568.72        73.99416
569.16        73.94834
569.60        74.35155
570.03         74.8326
570.47        74.75271
570.90        74.47634
571.34        72.66611
571.77        73.55157
572.21          73.937
572.64        73.43027
573.08        72.11799
573.51        69.12526
573.95        71.76889
574.38        76.29176
574.82        74.38653
