SpectraSmart Spectrum 2.9.0.0
--------- Device Information -----------
Spectrum Name :  反射率_0
Saving Time :  2024/04/26 01:38:32
Spectro-Module Model Name : SE2030-DUVN
Spectro-Module Serial Number : OS361AC55029948
Wavelength Start : 200
Wavelength End : 1025
Wavelength Unit : Wavelength(nm)
Spectrum Unit : Reflectance(%)
-----------Spectrum Setting ------------
Integration Time : 20ms
Average : 10
Boxcar : 0
Background removal :  enabled
linearity correction :  enabled
SC :  disabled
Intensity correction :  disabled
DWT denoise :  enabled
savitzky-golay :  disabled
FFT :  disabled
Running average :  disabled
Kalman :  disabled
High pass :  disabled
---------------BEGIN--------------------
Wavelength(nm)             Reflectance(%)
200.29               0
200.75        94.65105
201.21        82.82972
201.67        69.45393
202.13        61.05495
202.58        58.38898
203.04        59.82385
203.50        63.62308
203.96         66.6547
204.42        67.71561
204.88        67.86962
205.34        67.67356
205.80        67.63162
206.26        68.04758
206.72        68.93938
207.18        70.48819
207.64         72.0061
208.10        71.19312
208.55        68.72137
209.01        67.46005
209.47         68.1639
209.93        70.28442
210.39        73.97509
210.85        77.10928
211.31        75.08147
211.77        67.11054
212.23        55.10357
212.69        44.18265
213.14        42.24318
213.60        50.35205
214.06        66.25032
214.52        83.99336
214.98        94.29147
215.44        94.81081
215.90        88.53966
216.36         79.4455
216.81         73.1385
217.27        71.26199
217.73        71.81076
218.19        72.43769
218.65        70.01003
219.11         63.2494
219.57        51.69702
220.02        36.61128
220.48        26.49161
220.94        26.76126
221.40        35.67357
221.86        45.47819
222.32         47.8138
222.77        43.11107
223.23        35.46275
223.69        29.09217
224.15        28.33548
224.61        32.65965
225.06        39.84769
225.52        46.60876
225.98        48.83683
226.44        45.91904
226.90        39.79863
227.36        32.99314
227.81        28.83504
228.27        28.39729
228.73        30.41864
229.19        33.72781
229.65        36.57244
230.10        38.31621
230.56        39.39809
231.02        40.21743
231.48        41.21827
231.93        42.42279
232.39        43.59744
232.85        44.37524
233.31        44.27147
233.77          43.208
234.22        41.37864
234.68        39.22138
235.14        37.56697
235.60        36.80454
236.05        36.79412
236.51        37.25354
236.97        37.66926
237.43        37.92204
237.88        38.27324
238.34        38.80273
238.80        39.68919
239.26        40.93615
239.71        42.34662
240.17         43.8192
240.63        45.78931
241.08        48.30891
241.54        51.09354
242.00        53.67049
242.46        55.54303
242.91        56.88851
243.37        57.82792
243.83        60.23064
244.28        76.25185
244.74        111.0694
245.20        112.3965
245.66        103.6123
246.11         100.661
246.57        102.0953
247.03        109.5166
247.48        129.7567
247.94        110.8411
248.40        87.11465
248.85        80.73447
249.31        79.89114
249.77        81.78156
250.22        85.89548
250.68        92.85843
251.14        102.3085
251.59        107.3288
252.05        101.6936
252.51        89.16939
252.96        76.02679
253.42        67.73816
253.88        63.75446
254.33        62.28707
254.79        63.59394
255.25        67.35471
255.70        72.29869
256.16        77.80588
256.62        81.66019
257.07        81.67706
257.53        78.69122
257.99        73.51881
258.44        68.11413
258.90        65.62615
259.35        65.24761
259.81        65.83834
260.27        65.52216
260.72        62.49237
261.18        57.53398
261.63        51.54568
262.09        46.17869
262.55         42.6957
263.00         41.0256
263.46        40.54921
263.91        40.32399
264.37        39.60116
264.83        38.19702
265.28        36.28437
265.74        34.41525
266.19        33.17821
266.65        32.76118
267.11        32.82228
267.56        32.84468
268.02        32.19549
268.47        30.77927
268.93        28.82515
269.38        26.72941
269.84        25.40692
270.30        25.09642
270.75        25.53294
271.21        26.20447
271.66        26.34597
272.12        25.75282
272.57        24.66663
273.03        23.46724
273.48        22.65078
273.94        22.35839
274.39        22.37562
274.85        22.44438
275.31        22.19842
275.76        21.55876
276.22        20.69542
276.67        19.80606
277.13        19.23919
277.58        19.01486
278.04        19.02323
278.49        19.04445
278.95        18.81513
279.40        18.27249
279.86        17.56492
280.31        16.81665
280.77        16.30316
281.22        16.04726
281.68        15.96938
282.13        15.96599
282.59        15.91081
283.04          15.767
283.50        15.59936
283.95        15.40723
284.41        15.19365
284.86        14.96621
285.32        14.72243
285.77        14.52217
286.22        14.50924
286.68        14.67371
287.13        14.95666
287.59        15.20669
288.04        15.20208
288.50        14.92521
288.95        14.44248
289.41        13.92097
289.86        13.52483
290.32        13.34469
290.77        13.31745
291.22        13.41029
291.68        13.53667
292.13        13.67803
292.59        13.86056
293.04        14.11222
293.50        14.47151
293.95        14.92722
294.40        15.42867
294.86         15.9167
295.31        16.31925
295.77        16.62614
296.22        16.87264
296.68        17.08512
297.13        17.27799
297.58        17.48927
298.04        17.73237
298.49        18.07349
298.95        18.64373
299.40        19.44867
299.85        20.44706
300.31        21.50767
300.76        22.42972
301.21        23.14533
301.67        23.72997
302.12        24.24901
302.58        24.85094
303.03        25.56726
303.48        26.37008
303.94          27.281
304.39        28.29821
304.84        29.41951
305.30        30.64558
305.75        31.90143
306.20        33.07237
306.66        34.15112
307.11        35.14524
307.57        36.14772
308.02        37.23295
308.47        38.46315
308.93        39.82005
309.38        41.27584
309.83        42.81096
310.29        44.38913
310.74        45.98645
311.19        47.58173
311.65        49.15627
312.10         50.7034
312.55        52.23077
313.00        53.69562
313.46         55.0276
313.91        56.19043
314.36        57.20353
314.82        58.17927
315.27        59.27756
315.72        60.56427
316.18        62.00141
316.63        63.48246
317.08        64.78313
317.53        65.83025
317.99        66.66463
318.44        67.42877
318.89        68.36938
319.35        69.52533
319.80        70.84119
320.25         72.0928
320.70        72.90285
321.16        73.19175
321.61        73.09095
322.06        72.87144
322.51        72.96555
322.97        73.46793
323.42        74.27879
323.87        75.20544
324.32        75.90628
324.78        76.26111
325.23        76.41315
325.68        76.44052
326.13        76.49208
326.59        76.61496
327.04        76.78278
327.49        77.02409
327.94        77.42004
328.39        77.97429
328.85        78.66024
329.30         79.4099
329.75        79.95314
330.20        80.23277
330.66        80.29652
331.11        80.34573
331.56        80.64391
332.01        81.27599
332.46        82.15681
332.92        83.13293
333.37        84.08006
333.82        84.84632
334.27        85.47552
334.72         85.9519
335.17        86.26176
335.63        86.42817
336.08        86.49329
336.53        86.53429
336.98        86.72334
337.43        87.10798
337.88        87.64294
338.34        88.28342
338.79        89.03079
339.24        89.81777
339.69         90.6677
340.14        91.43452
340.59         91.8661
341.05        91.92571
341.50         91.6725
341.95        91.38387
342.40        91.49759
342.85        92.10275
343.30        93.08509
343.75        94.15924
344.20        94.81489
344.66        94.92143
345.11        94.62122
345.56        94.18442
346.01        94.01949
346.46        94.23221
346.91        94.68906
347.36        95.21837
347.81        95.56203
348.26        95.65619
348.72         95.6143
349.17        95.52546
349.62        95.57799
350.07        95.81371
350.52        96.14763
350.97        96.49134
351.42        96.72543
351.87        96.81363
352.32        96.79994
352.77        96.70627
353.22        96.56393
353.67         96.3931
354.13        96.19532
354.58        95.96989
355.03        95.77615
355.48        95.61825
355.93        95.48264
356.38        95.32754
356.83        95.08041
357.28        94.72499
357.73        94.28814
358.18        93.79823
358.63        93.30093
359.08        92.81909
359.53        92.34629
359.98        91.88927
360.43        91.45753
360.88        91.04209
361.33        90.62926
361.78        90.20959
362.23        89.76657
362.68        89.29907
363.13        88.82764
363.58        88.32164
364.03        87.73072
364.48        87.05917
364.93        86.32208
365.38        85.62415
365.83        85.13502
366.28        84.87411
366.73        84.77451
367.18        84.69066
367.63        84.38544
368.08        83.80799
368.53         83.0526
368.98         82.2205
369.43        81.46101
369.88        80.82603
370.33        80.26752
370.78        79.80301
371.23        79.46378
371.68        79.24158
372.13        79.13656
372.58         79.0647
373.03        78.87531
373.48        78.53677
373.93        78.08959
374.38        77.62341
374.83         77.2809
375.28        77.08929
375.72        76.98492
376.17         76.9188
376.62        76.78589
377.07        76.54663
377.52        76.22221
377.97        75.83379
378.42        75.41601
378.87        74.99461
379.32        74.58135
379.77        74.16077
380.22        73.70329
380.67        73.20571
381.11        72.67785
381.56        72.19279
382.01        71.87241
382.46        71.74653
382.91        71.79646
383.36        71.88033
383.81        71.77279
384.26        71.42989
384.71        70.90152
385.15        70.36677
385.60        70.16505
386.05        70.30059
386.50        70.65691
386.95        70.97211
387.40        70.81255
387.85        70.13554
388.29        69.12975
388.74        68.16077
389.19        67.46768
389.64        67.09653
390.09         66.9167
390.54        66.92304
390.98        67.10392
391.43        67.40427
391.88        67.80901
392.33        68.12198
392.78        67.97579
393.23        67.36597
393.67        66.56055
394.12        65.91746
394.57        65.18629
395.02        65.14983
395.47        65.56882
395.91        66.46442
396.36        67.05985
396.81        67.20831
397.26        67.20184
397.71        67.07424
398.15        66.72574
398.60        66.28433
399.05        65.82399
399.50        65.38521
399.95        64.78381
400.39        64.37483
400.84        64.06837
401.29        63.95813
401.74        64.08448
402.18        64.35831
402.63        64.36966
403.08        64.21419
403.53        64.37938
403.97         64.8611
404.42        65.34011
404.87        65.64578
405.32        65.56446
405.76        65.04079
406.21        64.39904
406.66        63.79337
407.11        63.05778
407.55         62.4756
408.00        62.84165
408.45        63.96417
408.90        64.66358
409.34        64.64737
409.79        64.24828
410.24         63.7076
410.68        63.42906
411.13        63.50479
411.58        63.65505
412.03        63.83854
412.47        64.12128
412.92        64.42219
413.37        64.75279
413.81        64.99814
414.26        65.02325
414.71        64.79906
415.15        64.35631
415.60        63.87155
416.05        63.65311
416.49        63.77812
416.94         64.1838
417.39        64.64465
417.83         64.7551
418.28        64.44524
418.73        63.85972
419.17        63.29427
419.62        63.21608
420.07        63.67599
420.51        64.50326
420.96        65.41846
421.41        65.87777
421.85        65.71891
422.30        65.42147
422.74        65.07201
423.19        64.43627
423.64        63.77716
424.08        64.11186
424.53        65.26976
424.98        65.95314
425.42        65.99849
425.87        66.31126
426.31        66.85635
426.76        66.76482
427.21        66.27983
427.65        66.55377
428.10        67.50887
428.54        68.27983
428.99        68.80519
429.44        69.11449
429.88        69.20997
430.33        69.92969
430.77        70.68719
431.22        69.54032
431.66        67.06754
432.11          65.781
432.56        65.97192
433.00         66.9305
433.45        68.52058
433.89        70.46837
434.34        71.22147
434.78        73.31906
435.23        68.79134
435.67        67.01263
436.12        69.53781
436.57         70.8007
437.01        71.35781
437.46        71.69601
437.90        72.05408
438.35        71.03426
438.79        71.76967
439.24        71.59662
439.68        71.46406
440.13        71.29008
440.57        71.35241
441.02        72.28415
441.46        73.70496
441.91        74.74231
442.35        75.02606
442.80        74.10452
443.24        72.52673
443.69        73.00108
444.13        75.13259
444.58        75.18384
445.02        73.38304
445.47        73.15799
445.91        74.41377
446.36        74.85658
446.80         74.4096
447.24        74.23564
447.69        74.42509
448.13        74.68024
448.58        75.02055
449.02        75.39426
449.47        75.74384
449.91        76.16298
450.36        76.54194
450.80        76.50509
451.25         76.1465
451.69        75.91177
452.13        75.86611
452.58        75.78252
453.02        75.67264
453.47        75.68005
453.91        75.76261
454.36        75.96401
454.80        76.25137
455.24        76.16055
455.69         75.5987
456.13         75.8972
456.58        75.58747
457.02         74.9313
457.46        74.47971
457.91        75.33798
458.35        75.91007
458.79        76.35796
459.24        76.16659
459.68        75.88255
460.13        75.57154
460.57        75.13956
461.01        74.71113
461.46        74.14383
461.90        73.48547
462.34        73.79084
462.79        73.58718
463.23        73.94638
463.68        74.32648
464.12        74.79705
464.56        75.20145
465.01        75.28519
465.45        74.98429
465.89        74.79372
466.34        74.62202
466.78        73.60741
467.22        72.31626
467.67        71.73398
468.11        73.18362
468.55        73.94576
468.99        74.05914
469.44        73.71651
469.88        73.12958
470.32        73.04733
470.77        73.40932
471.21         73.3644
471.65        72.88636
472.10         72.6496
472.54        72.68926
472.98        72.72594
473.42        72.74802
473.87        72.93505
474.31        73.15659
474.75         73.0635
475.20        72.76626
475.64        72.54778
476.08        73.00742
476.52        72.95046
476.97        72.48895
477.41        72.85287
477.85         72.9081
478.29        72.33958
478.74        73.50999
479.18        73.12021
479.62        72.21212
480.06        72.65083
480.50        72.93055
480.95        73.30193
481.39        73.35626
481.83        72.28017
482.27        72.16353
482.72        72.63966
483.16        71.15739
483.60        71.23248
484.04        73.06573
484.48         73.4462
484.93        73.18573
485.37        74.73338
485.81        75.31049
486.25        74.16035
486.69        100.9923
487.14        82.11663
487.58        50.68355
488.02        62.21777
488.46        70.71457
488.90        70.37496
489.34        72.08316
489.79        70.86971
490.23        72.91113
490.67        73.85962
491.11        73.19128
491.55        73.12873
491.99        73.26366
492.43        72.93498
492.88        72.26879
493.32        72.24699
493.76        72.35702
494.20        72.60426
494.64          72.729
495.08        73.01653
495.52        73.41931
495.96        73.27285
496.41        72.66606
496.85        73.04638
497.29        74.10655
497.73        73.08138
498.17        70.93622
498.61         70.9853
499.05        73.29793
499.49        73.82069
499.93        74.08486
500.37        73.89979
500.82        73.16669
501.26        73.05894
501.70        73.39915
502.14        73.76826
502.58        73.93376
503.02        73.88146
503.46        73.58257
503.90        73.03828
504.34        72.47501
504.78        72.24202
505.22        72.39159
505.66        72.88709
506.10        73.54136
506.54        73.78023
506.98         73.4455
507.42        73.60017
507.86        72.90883
508.30        72.57813
508.74        72.71626
509.18        72.88475
509.62        73.11304
510.06        73.22194
510.50        73.21236
510.94        73.10241
511.38        72.97044
511.82        72.92244
512.26        72.98518
512.70        73.11929
513.14        73.27219
513.58        73.36816
514.02        73.37988
514.46        73.32518
514.90         73.2514
515.34        73.21759
515.78        73.22832
516.22        73.32059
516.66        73.43961
517.10         73.3439
517.54        73.01931
517.98        73.06172
518.42        72.76895
518.86        72.80849
519.30        72.96449
519.74        73.25536
520.18        73.59649
520.62        73.84475
521.06        73.96347
521.50        73.98627
521.93        73.93302
522.37        73.83611
522.81        73.72547
523.25        73.59972
523.69        73.49487
524.13        73.46773
524.57        73.52956
525.01        73.66705
525.45        73.85098
525.89         74.0284
526.32        74.16593
526.76        74.26448
527.20        74.31187
527.64        74.31811
528.08         74.3054
528.52        74.19728
528.96         73.9754
529.40        73.86146
529.83        73.88984
530.27        73.18343
530.71        73.25758
531.15        73.12585
531.59         73.2368
532.03        73.46252
532.46        73.76927
532.90        74.08432
533.34        74.34691
533.78         74.5695
534.22        74.69717
534.66        74.66113
535.09        74.45253
535.53         74.1224
535.97        73.75488
536.41         73.5085
536.85        73.43037
537.28        73.48973
537.72         73.6143
538.16        73.69373
538.60        73.69502
539.04        73.58916
539.47        73.42286
539.91        73.49364
540.35        73.74101
540.79        73.76824
541.22          73.548
541.66         73.6315
542.10        73.54974
542.54        73.49437
542.97        73.37704
543.41        73.39919
543.85        73.56082
544.29        73.83408
544.72        74.07457
545.16        74.07836
545.60        73.81032
546.04        73.33315
546.47        72.86806
546.91        72.80694
547.35        73.20045
547.79        73.88074
548.22        74.55288
548.66        74.86408
549.10        74.67132
549.53        73.91549
549.97        72.95512
550.41        72.46045
550.84        72.56204
551.28         72.9865
551.72        73.53576
552.15         73.9202
552.59        74.01967
553.03        73.97811
553.46        73.87525
553.90        73.75092
554.34        73.61518
554.77        73.94558
555.21        73.65392
555.65        73.77557
556.08        74.03054
556.52         73.5217
556.96        73.94775
557.39        73.80737
557.83        73.67474
558.27         73.6748
558.70        73.82892
559.14        73.92937
559.57        73.96976
560.01        74.23563
560.45        74.61012
560.88        74.67594
561.32        74.44418
561.75        74.14762
562.19         73.8951
562.63        73.53723
563.06         73.2029
563.50        73.25267
563.93        73.59704
564.37        73.94518
564.80        74.13389
565.24        74.04114
565.68        73.74495
566.11         73.6284
566.55        73.77198
566.98        73.87608
567.42        73.93011
567.85        74.14478
568.29         74.5154
568.72        74.54472
569.16        74.42845
569.60        74.97412
570.03        75.38109
570.47        75.37125
570.90         75.1763
571.34        73.37469
571.77        74.13537
572.21        74.79768
572.64        73.99374
573.08        72.86835
573.51        69.74062
573.95        72.44984
574.38         77.1611
574.82        74.83333
