SpectraSmart Spectrum 2.9.0.0
--------- Device Information -----------
Spectrum Name :  反射率_0
Saving Time :  2024/04/26 01:06:18
Spectro-Module Model Name : SE2030-DUVN
Spectro-Module Serial Number : OS361AC55029948
Wavelength Start : 200
Wavelength End : 1025
Wavelength Unit : Wavelength(nm)
Spectrum Unit : Reflectance(%)
-----------Spectrum Setting ------------
Integration Time : 20ms
Average : 10
Boxcar : 0
Background removal :  enabled
linearity correction :  enabled
SC :  disabled
Intensity correction :  disabled
DWT denoise :  enabled
savitzky-golay :  disabled
FFT :  disabled
Running average :  disabled
Kalman :  disabled
High pass :  disabled
---------------BEGIN--------------------
Wavelength(nm)             Reflectance(%)
200.29               0
200.75        91.79971
201.21        86.71633
201.67        80.29427
202.13        75.84317
202.58        73.91847
203.04        74.05474
203.50        75.26472
203.96         75.9594
204.42        75.74124
204.88          75.106
205.34        74.98037
205.80        76.61819
206.26        80.96379
206.72        90.33239
207.18        108.2219
207.64        123.5733
208.10         112.827
208.55        91.15207
209.01        77.30187
209.47        72.10512
209.93        71.76591
210.39          74.495
210.85        78.14069
211.31        78.39088
211.77        74.10046
212.23        67.01608
212.69        60.69344
213.14        60.66623
213.60        67.51379
214.06        79.27856
214.52        91.92601
214.98        99.39114
215.44        100.0815
215.90        96.12022
216.36        89.74319
216.81         84.0076
217.27        80.37624
217.73        77.94707
218.19        75.93305
218.65        73.18451
219.11        68.93428
219.57        62.59695
220.02        54.61765
220.48         49.3201
220.94        49.08786
221.40         53.3553
221.86        57.16598
222.32        55.16708
222.77         48.2112
223.23        39.50943
223.69        32.70597
224.15        31.62134
224.61        35.55964
225.06        42.41452
225.52        48.99973
225.98        51.31087
226.44        48.69933
226.90        42.99677
227.36        36.40265
227.81           31.85
228.27        30.36911
228.73        30.81882
229.19        32.53518
229.65         34.5154
230.10        36.22104
230.56        37.82738
231.02        39.16153
231.48        39.97433
231.93         40.2855
232.39        40.12715
232.85        39.66764
233.31        39.25338
233.77        38.96595
234.22        38.72214
234.68        38.44819
235.14         37.9302
235.60        37.18686
236.05        36.43026
236.51        35.81313
236.97        35.43596
237.43        35.38938
237.88         35.7608
238.34        36.74955
238.80        38.70603
239.26        41.58878
239.71         45.1962
240.17        48.95231
240.63        52.42885
241.08        55.45363
241.54        57.87287
242.00        59.78259
242.46        61.65776
242.91        64.32915
243.37        69.06959
243.83        82.86417
244.28        131.0762
244.74        193.2408
245.20        168.0539
245.66        140.5769
246.11         132.766
246.57        136.8876
247.03        157.2339
247.48        215.3569
247.94        172.0501
248.40         106.404
248.85        87.73861
249.31        83.21883
249.77        84.40885
250.22        89.28741
250.68        98.48845
251.14        111.3925
251.59        118.3836
252.05        110.8845
252.51        93.99747
252.96        76.90458
253.42        67.59219
253.88        65.26401
254.33        66.90456
254.79        71.57111
255.25        77.28372
255.70        82.41651
256.16        87.22834
256.62        89.81001
257.07        88.18978
257.53        83.44732
257.99        76.41055
258.44        69.42487
258.90        66.12881
259.35        65.61758
259.81         66.4663
260.27        66.40849
260.72        63.26353
261.18        57.85648
261.63        51.25447
262.09        45.31796
262.55        41.55306
263.00        39.86874
263.46        39.50361
263.91        39.36461
264.37        38.53255
264.83         36.8357
265.28        34.53995
265.74        32.30941
266.19        30.91783
266.65        30.57132
267.11        30.82609
267.56        31.09459
268.02        30.67236
268.47        29.44814
268.93         27.6725
269.38        25.70722
269.84        24.39763
270.30        23.97516
270.75        24.20408
271.21        24.64594
271.66        24.64924
272.12        24.04428
272.57        23.05403
273.03        22.02765
273.48        21.40985
273.94        21.31561
274.39        21.53224
274.85        21.80331
275.31        21.76787
275.76        21.33743
276.22        20.66793
276.67        19.91984
277.13        19.39405
277.58        19.11525
278.04         19.0035
278.49        18.90092
278.95        18.62754
279.40        18.13662
279.86        17.55257
280.31        16.95533
280.77        16.55148
281.22        16.34595
281.68        16.27851
282.13        16.27799
282.59        16.26547
283.04        16.21086
283.50        16.16229
283.95        16.08496
284.41        15.93143
284.86        15.70581
285.32         15.4335
285.77        15.21498
286.22        15.25433
286.68        15.55149
287.13        16.01703
287.59         16.4752
288.04        16.66744
288.50        16.55977
288.95        16.22632
289.41        15.82062
289.86         15.4835
290.32        15.31317
290.77        15.25819
291.22        15.32704
291.68        15.49561
292.13        15.76103
292.59        16.13948
293.04        16.63136
293.50        17.22649
293.95          17.901
294.40        18.62133
294.86        19.35192
295.31        20.05716
295.77        20.73701
296.22        21.41189
296.68        22.09019
297.13        22.75479
297.58        23.43048
298.04        24.14005
298.49        24.95398
298.95        26.01974
299.40        27.34697
299.85        28.88451
300.31        30.50013
300.76         31.9845
301.21        33.25575
301.67        34.38949
302.12        35.42035
302.58        36.47967
303.03         37.5901
303.48        38.73202
303.94        39.96401
304.39        41.32955
304.84        42.83306
305.30        44.45742
305.75        46.06275
306.20        47.44573
306.66        48.58479
307.11        49.50398
307.57        50.36749
308.02        51.33212
308.47        52.48466
308.93        53.77999
309.38        55.12832
309.83        56.42696
310.29        57.62469
310.74        58.72177
311.19        59.75736
311.65        60.79543
312.10        61.84124
312.55        62.87959
313.00        63.81524
313.46        64.50189
313.91        64.90448
314.36        65.09306
314.82        65.25108
315.27        65.62213
315.72        66.29088
316.18         67.1894
316.63        68.17934
317.08        68.98856
317.53        69.52954
317.99        69.86027
318.44        70.12621
318.89        70.57211
319.35        71.23615
319.80        72.06001
320.25        72.83339
320.70        73.21445
321.16        73.13767
321.61        72.72706
322.06        72.24199
322.51        72.08684
322.97         72.3425
323.42        72.91747
323.87        73.60612
324.32        74.05122
324.78        74.13686
325.23        74.00528
325.68        73.77841
326.13        73.67635
326.59        73.75642
327.04         73.9716
327.49        74.27805
327.94        74.63329
328.39        75.00887
328.85        75.41033
329.30        75.84794
329.75        76.19559
330.20        76.44236
330.66        76.60159
331.11        76.79765
331.56        77.17203
332.01        77.77031
332.46        78.52998
332.92        79.36987
333.37        80.28551
333.82        81.16206
334.27        82.01097
334.72        82.69951
335.17        83.02113
335.63        82.95792
336.08        82.61013
336.53        82.22427
336.98        82.23663
337.43        82.75319
337.88        83.65253
338.34        84.71238
338.79        85.63583
339.24        86.27539
339.69        86.73797
340.14        87.04493
340.59        87.23713
341.05        87.36118
341.50        87.37824
341.95        87.41498
342.40        87.69286
342.85        88.24901
343.30        89.04013
343.75        89.87589
344.20        90.40441
344.66        90.53835
345.11        90.35586
345.56         90.0509
346.01        89.92319
346.46        90.05271
346.91         90.3541
347.36        90.69497
347.81        90.87168
348.26        90.84257
348.72        90.70123
349.17        90.54243
349.62         90.5695
350.07        90.81779
350.52         91.1955
350.97        91.58229
351.42        91.80478
351.87        91.81897
352.32        91.69218
352.77        91.46737
353.22        91.21152
353.67        90.96213
354.13        90.70876
354.58        90.47293
355.03         90.3476
355.48        90.32925
355.93        90.38416
356.38        90.41013
356.83         90.2387
357.28        89.83289
357.73        89.25132
358.18        88.56892
358.63        87.90801
359.08        87.32196
359.53        86.78835
359.98        86.31297
360.43        85.90153
360.88         85.5363
361.33        85.20329
361.78        84.87502
362.23        84.50182
362.68        84.07057
363.13        83.60559
363.58        83.07764
364.03        82.44376
364.48        81.71568
364.93        80.90938
365.38        80.14594
365.83        79.62218
366.28        79.36237
366.73        79.29249
367.18        79.25332
367.63        78.98007
368.08        78.41588
368.53        77.67014
368.98        76.84204
369.43        76.07889
369.88        75.43586
370.33        74.85682
370.78        74.39232
371.23        74.13098
371.68        74.06658
372.13        74.17864
372.58        74.30502
373.03        74.16328
373.48        73.69719
373.93         72.9972
374.38        72.24292
374.83        71.71495
375.28         71.4772
375.72        71.42412
376.17         71.4695
376.62          71.442
377.07        71.27542
377.52        71.01569
377.97        70.67115
378.42        70.25455
378.87        69.79239
379.32         69.2925
379.77         68.7823
380.22        68.30136
380.67        67.85358
381.11        67.42914
381.56        67.03916
382.01        66.70247
382.46        66.42667
382.91        66.22524
383.36        66.02995
383.81        65.73402
384.26        65.32459
384.71        64.82084
385.15        64.33805
385.60         64.1094
386.05         64.1237
386.50        64.30453
386.95         64.4547
387.40        64.24955
387.85        63.66503
388.29        62.83554
388.74        62.05943
389.19        61.52103
389.64        61.24969
390.09        61.13439
390.54        61.16039
390.98        61.30109
391.43        61.51281
391.88        61.78571
392.33        61.95457
392.78        61.76346
393.23         61.2238
393.67         60.4434
394.12         59.7328
394.57        59.29274
395.02        59.20586
395.47        59.48531
395.91        60.02269
396.36        60.42138
396.81        60.58201
397.26        60.61648
397.71        60.53257
398.15        60.26374
398.60        59.91067
399.05        59.49988
399.50        59.07683
399.95        58.53892
400.39        58.16609
400.84         57.7764
401.29        57.48708
401.74        57.38078
402.18        57.48727
402.63        57.72472
403.08        58.04766
403.53        58.36864
403.97        58.64089
404.42         58.8662
404.87        58.96265
405.32           58.79
405.76        58.34087
406.21        57.74623
406.66        57.17904
407.11        56.82082
407.55         56.7784
408.00         57.1448
408.45        57.73859
408.90        58.03267
409.34        57.87102
409.79        57.38969
410.24        56.82282
410.68         56.5453
411.13        56.63953
411.58        56.92642
412.03        57.30393
412.47        57.64444
412.92        57.83527
413.37        57.94277
413.81        57.95074
414.26        57.86975
414.71        57.70337
415.15        57.43803
415.60        57.15188
416.05        56.99689
416.49        57.01128
416.94        57.17916
417.39         57.3712
417.83        57.34839
418.28        57.07726
418.73        56.63523
419.17        56.22293
419.62        56.16413
420.07        56.48767
420.51        57.07885
420.96        57.70881
421.41        57.96629
421.85        57.73505
422.30        57.31454
422.74        56.82713
423.19        56.35368
423.64        56.02046
424.08        56.21096
424.53        56.79631
424.98         57.1848
425.42        57.28468
425.87        57.48827
426.31        57.79701
426.76        57.83375
427.21        57.73628
427.65        58.04767
428.10        58.68565
428.54        59.27868
428.99        59.79964
429.44        59.97133
429.88        59.84928
430.33          60.591
430.77        61.59414
431.22        60.53244
431.66        58.01093
432.11        57.00508
432.56        57.73627
433.00        58.52539
433.45        59.16365
433.89        60.76099
434.34        62.28502
434.78        62.47425
435.23        60.11387
435.67        58.20987
436.12        60.50636
436.57        61.40696
437.01        61.74796
437.46        61.96585
437.90        62.22402
438.35        61.69691
438.79        62.27848
439.24        62.21236
439.68        62.10609
440.13        61.79272
440.57        61.59462
441.02        62.56799
441.46        64.27444
441.91        65.00906
442.35        64.63464
442.80         63.9024
443.24        63.15091
443.69        63.65534
444.13         65.0769
444.58        64.96104
445.02        63.52429
445.47        63.33556
445.91        64.33523
446.36        64.63262
446.80        64.14704
447.24        64.05916
447.69        64.48872
448.13        64.18478
448.58        64.77531
449.02        65.05841
449.47        65.44253
449.91        65.73385
450.36        65.91186
450.80        66.00581
451.25        66.00636
451.69         65.9018
452.13        65.72695
452.58         65.4975
453.02        65.30512
453.47        65.32768
453.91        65.57012
454.36        65.97872
454.80        66.41428
455.24        66.55897
455.69        66.36107
456.13        66.04118
456.58        65.74165
457.02        65.24831
457.46        64.80369
457.91        65.07137
458.35        65.82836
458.79        66.12875
459.24        65.91398
459.68        65.64205
460.13        65.39028
460.57        65.10358
461.01        64.88009
461.46        64.51468
461.90        63.99063
462.34        64.51571
462.79        64.17202
463.23        64.43398
463.68        64.67931
464.12        64.95831
464.56        65.18762
465.01        65.34164
465.45        65.29897
465.89        65.14732
466.34        64.81618
466.78        63.93354
467.22        62.82902
467.67        62.28824
468.11        63.67426
468.55        64.37788
468.99        64.50807
469.44         64.2607
469.88        63.82102
470.32        63.80566
470.77         64.1469
471.21        64.10896
471.65         63.6641
472.10        63.39631
472.54        63.37467
472.98        63.38967
473.42        63.42993
473.87        63.73842
474.31        64.13284
474.75        63.96833
475.20        63.40784
475.64        63.33463
476.08        63.73017
476.52        63.80702
476.97        63.55116
477.41         63.4958
477.85         63.6475
478.29        63.47685
478.74        63.70463
479.18         63.4564
479.62        62.63277
480.06        63.14981
480.50        63.55119
480.95          63.996
481.39        64.01869
481.83        63.72235
482.27        63.42074
482.72        63.61677
483.16         62.2369
483.60        62.37026
484.04        63.68663
484.48        63.95998
484.93         63.7893
485.37        65.25877
485.81        65.60176
486.25        64.85198
486.69        86.59855
487.14        69.72192
487.58        43.94236
488.02        54.47701
488.46        61.55865
488.90        61.47372
489.34        62.83038
489.79        61.95285
490.23        63.87097
490.67        64.55574
491.11         63.6272
491.55        63.60379
491.99        64.09807
492.43        63.97345
492.88        63.29765
493.32        63.21999
493.76        63.32479
494.20        63.55027
494.64        63.68262
495.08        63.97633
495.52        64.36923
495.96        64.28479
496.41        63.77456
496.85        64.03116
497.29        64.84697
497.73        63.93097
498.17        62.12855
498.61        62.37886
499.05        64.64151
499.49        64.93092
499.93        64.71302
500.37        64.44011
500.82        64.03087
501.26         64.1543
501.70        64.54978
502.14        64.73681
502.58        64.59628
503.02        64.48174
503.46        64.39388
503.90        64.08938
504.34        63.69299
504.78        63.53072
505.22         63.6378
505.66        63.93374
506.10        64.31267
506.54        64.48219
506.98        64.31216
507.42        64.33148
507.86        63.87477
508.30        63.46705
508.74        63.80205
509.18        64.03888
509.62        64.30811
510.06         64.4312
510.50        64.37485
510.94         64.1833
511.38        63.96188
511.82        63.89227
512.26        64.01373
512.70        64.26362
513.14        64.55232
513.58        64.73746
514.02        64.76865
514.46        64.68482
514.90        64.54313
515.34        64.41348
515.78        64.31079
516.22        64.29041
516.66        64.32293
517.10        64.15731
517.54        63.78548
517.98        63.97803
518.42        63.74189
518.86        63.88667
519.30        64.10108
519.74        64.43571
520.18        64.79386
520.62         65.0117
521.06        65.05985
521.50        64.98005
521.93        64.82455
522.37        64.68192
522.81        64.59429
523.25        64.54102
523.69        64.53637
524.13        64.60244
524.57          64.733
525.01        64.91932
525.45        65.11957
525.89        65.26112
526.32        65.31337
526.76        65.29031
527.20        65.20448
527.64        65.09822
528.08        65.00616
528.52         64.8707
528.96        64.68158
529.40         64.6039
529.83         64.6785
530.27        64.20544
530.71        64.46634
531.15         64.4591
531.59         64.5611
532.03        64.71767
532.46        64.93332
532.90        65.18605
533.34        65.43758
533.78        65.68273
534.22          65.853
534.66        65.85803
535.09        65.68079
535.53         65.3776
535.97        65.02598
536.41        64.76918
536.85        64.65302
537.28        64.64994
537.72        64.70578
538.16        64.73788
538.60        64.72283
539.04        64.63924
539.47        64.52591
539.91         64.6128
540.35        64.83706
540.79        64.89853
541.22        64.79811
541.66        64.80284
542.10        64.90855
542.54        64.95441
542.97        64.94174
543.41        64.97504
543.85        65.04378
544.29        65.13462
544.72        65.18645
545.16        65.10806
545.60        64.87785
546.04        64.59867
546.47        64.36855
546.91        64.18085
547.35        64.13985
547.79        64.61246
548.22        65.33633
548.66        65.51559
549.10        65.09173
549.53        64.51115
549.97        64.02338
550.41        63.76477
550.84        63.80991
551.28        64.14471
551.72        64.63412
552.15        64.95534
552.59        65.01462
553.03         65.1436
553.46        64.94315
553.90        64.88007
554.34        64.85767
554.77        64.77675
555.21        64.63294
555.65        64.63527
556.08        64.82114
556.52        64.36849
556.96        64.75401
557.39        64.62953
557.83        64.48795
558.27        64.46699
558.70        64.58092
559.14        64.65907
559.57        64.70387
560.01        64.88976
560.45         65.1438
560.88        65.32318
561.32        65.36083
561.75        65.05629
562.19        64.57351
562.63        64.24054
563.06        64.16023
563.50        64.31361
563.93        64.59769
564.37        64.90997
564.80        65.09874
565.24        64.98061
565.68        64.64408
566.11        64.47288
566.55        64.54204
566.98        64.61536
567.42        64.66634
567.85        64.74173
568.29        64.87195
568.72        64.86682
569.16        64.86808
569.60        65.21564
570.03        65.61282
570.47        65.45551
570.90        64.99976
571.34         63.6641
571.77        64.46286
572.21        64.34293
572.64         63.8777
573.08        63.10977
573.51        60.19886
573.95        62.53867
574.38        66.45609
574.82        64.79899
