SpectraSmart Spectrum 2.9.0.0
--------- Device Information -----------
Spectrum Name :  反射率_0
Saving Time :  2024/04/26 01:24:36
Spectro-Module Model Name : SE2030-DUVN
Spectro-Module Serial Number : OS361AC55029948
Wavelength Start : 200
Wavelength End : 1025
Wavelength Unit : Wavelength(nm)
Spectrum Unit : Reflectance(%)
-----------Spectrum Setting ------------
Integration Time : 20ms
Average : 10
Boxcar : 0
Background removal :  enabled
linearity correction :  enabled
SC :  disabled
Intensity correction :  disabled
DWT denoise :  enabled
savitzky-golay :  disabled
FFT :  disabled
Running average :  disabled
Kalman :  disabled
High pass :  disabled
---------------BEGIN--------------------
Wavelength(nm)             Reflectance(%)
200.29               0
200.75        86.97233
201.21        82.66429
201.67        77.03575
202.13        71.99164
202.58        67.96828
203.04        64.97894
203.50        63.36031
203.96        63.74678
204.42         65.7691
204.88        68.59238
205.34        71.55599
205.80        74.44542
206.26         77.7801
206.72        83.03457
207.18        90.88205
207.64        92.98179
208.10         80.3938
208.55        65.94115
209.01        58.29776
209.47        56.15053
209.93        56.95398
210.39        60.06798
210.85        63.88271
211.31         64.7665
211.77        61.71564
212.23        56.15525
212.69        50.87384
213.14        50.37387
213.60        55.19312
214.06        63.84146
214.52        73.76852
214.98        81.12115
215.44        84.50137
215.90        84.97681
216.36        83.23715
216.81        80.10036
217.27        76.65588
217.73        72.95531
218.19        69.07341
218.65        64.85176
219.11         59.7641
219.57        52.86286
220.02        44.70793
220.48        40.05325
220.94        41.26741
221.40        47.61113
221.86        53.25928
222.32        52.05614
222.77        44.99651
223.23        35.60414
223.69        28.07441
224.15        26.78751
224.61        31.04795
225.06        38.58361
225.52        45.85859
225.98        48.35432
226.44          45.408
226.90        39.11332
227.36        32.10598
227.81        27.94265
228.27        27.69164
228.73        29.85752
229.19        33.35417
229.65        36.55333
230.10        38.74922
230.56        40.40598
231.02        41.46372
231.48        41.77902
231.93        41.48564
232.39        40.63005
232.85         39.6234
233.31        39.20284
233.77        39.53196
234.22        40.46281
234.68        41.65519
235.14        42.29488
235.60        42.13147
236.05        41.45586
236.51        40.68214
236.97        40.36187
237.43        40.72501
237.88        41.78926
238.34        43.48644
238.80        45.53883
239.26         47.5663
239.71          49.506
240.17        51.29439
240.63        53.43688
241.08        56.07253
241.54         58.9108
242.00        61.42251
242.46        63.03666
242.91        63.93449
243.37        63.94395
243.83        65.27633
244.28         87.1087
244.74        145.3538
245.20        153.5355
245.66        142.0521
246.11        139.6929
246.57        146.0152
247.03        167.2924
247.48        220.3224
247.94        161.2657
248.40        97.32008
248.85        81.44032
249.31        78.45252
249.77        80.50014
250.22        86.06891
250.68        96.19446
251.14        111.1308
251.59        122.4572
252.05        120.7268
252.51        109.2041
252.96        95.07089
253.42        85.66138
253.88        80.85785
254.33        78.24175
254.79         78.5022
255.25        81.99252
255.70        87.28128
256.16        93.52007
256.62        97.86975
257.07        97.44051
257.53        93.29234
257.99        86.64895
258.44        79.78021
258.90        76.30807
259.35        75.37383
259.81        75.62122
260.27        75.12111
260.72        72.03123
261.18        67.09598
261.63        61.14707
262.09        55.65496
262.55        51.60951
263.00        49.03219
263.46        47.53716
263.91        46.41022
264.37        45.17868
264.83        43.61178
265.28        41.75137
265.74        39.99489
266.19        38.68445
266.65        38.00047
267.11        37.71014
267.56        37.39693
268.02        36.54762
268.47        35.06114
268.93        33.11758
269.38        31.06874
269.84        29.76285
270.30        29.41431
270.75         29.7782
271.21        30.36676
271.66        30.44316
272.12         29.8168
272.57        28.72504
273.03        27.52939
273.48        26.69407
273.94        26.36363
274.39        26.33039
274.85        26.38838
275.31        26.24042
275.76        25.80282
276.22         25.2106
276.67        24.57643
277.13        24.13909
277.58        23.89526
278.04        23.78568
278.49        23.65113
278.95        23.32802
279.40        22.77098
279.86        22.10765
280.31         21.4267
280.77        20.96112
281.22        20.71891
281.68        20.64519
282.13        20.65529
282.59        20.65972
283.04        20.62057
283.50        20.59262
283.95        20.54466
284.41        20.44396
284.86        20.28701
285.32        20.08735
285.77        19.92454
286.22        19.98187
286.68        20.25336
287.13        20.65225
287.59        21.01168
288.04        21.07738
288.50        20.83027
288.95        20.35136
289.41         19.8085
289.86        19.35212
290.32        19.09096
290.77          18.971
291.22         19.0113
291.68        19.20012
292.13        19.52843
292.59        20.00355
293.04        20.59859
293.50        21.26405
293.95        21.96304
294.40        22.66981
294.86        23.36621
295.31        24.04485
295.77        24.71518
296.22        25.38983
296.68        26.06922
297.13        26.72275
297.58         27.3733
298.04        28.05327
298.49        28.84035
298.95        29.89362
299.40        31.22281
299.85        32.76868
300.31        34.39446
300.76        35.88426
301.21        37.15088
301.67        38.27232
302.12         39.2726
302.58        40.27404
303.03        41.30043
303.48         42.3465
303.94         43.4888
304.39        44.79288
304.84        46.27438
305.30        47.91282
305.75        49.56741
306.20        51.03502
306.66         52.2855
307.11        53.32838
307.57        54.31466
308.02         55.3778
308.47        56.59803
308.93        57.93414
309.38        59.28635
309.83         60.5433
310.29        61.65921
310.74        62.63905
311.19        63.55481
311.65        64.51778
312.10        65.54359
312.55        66.61206
313.00        67.59588
313.46        68.29123
313.91        68.65412
314.36        68.77707
314.82        68.88454
315.27        69.28101
315.72        70.06054
316.18        71.12309
316.63        72.29625
317.08        73.25291
317.53        73.88155
317.99        74.25446
318.44         74.5116
318.89        74.89191
319.35         75.4407
319.80        76.10431
320.25         76.7121
320.70        76.99137
321.16        76.89799
321.61        76.54642
322.06        76.15531
322.51         76.0596
322.97        76.32262
323.42        76.87248
323.87        77.53933
324.32        78.02746
324.78        78.23367
325.23        78.27576
325.68        78.23185
326.13         78.2578
326.59        78.38931
327.04        78.59549
327.49        78.86348
327.94        79.20462
328.39        79.60815
328.85        80.06762
329.30         80.5649
329.75         80.9173
330.20        81.10358
330.66         81.1574
331.11        81.25668
331.56        81.62255
332.01        82.31956
332.46          83.263
332.92        84.30695
333.37        85.34296
333.82        86.21095
334.27        86.93951
334.72        87.45753
335.17        87.66721
335.63        87.58838
336.08        87.30936
336.53        87.00558
336.98        86.99848
337.43        87.37859
337.88        88.06358
338.34        88.95255
338.79        89.94871
339.24        90.93901
339.69        91.95798
340.14        92.85513
340.59        93.37485
341.05        93.47644
341.50        93.20912
341.95        92.84529
342.40        92.82307
342.85        93.24294
343.30        94.00502
343.75        94.86839
344.20        95.39523
344.66        95.47612
345.11        95.23415
345.56        94.89712
346.01        94.80441
346.46         95.0396
346.91        95.48528
347.36        95.98226
347.81        96.29381
348.26        96.36585
348.72        96.30595
349.17        96.20538
349.62        96.25803
350.07        96.50964
350.52        96.87878
350.97        97.28132
351.42        97.60252
351.87        97.80135
352.32        97.91097
352.77        97.94035
353.22        97.90204
353.67        97.80704
354.13        97.65998
354.58        97.45255
355.03        97.23484
355.48        97.01546
355.93        96.78725
356.38        96.53384
356.83        96.22422
357.28        95.84881
357.73        95.41939
358.18        94.94512
358.63        94.43652
359.08        93.91054
359.53        93.38512
359.98         92.8649
360.43        92.35331
360.88        91.85268
361.33        91.35157
361.78        90.89256
362.23        90.54508
362.68        90.30773
363.13        90.15418
363.58        89.96618
364.03        89.55869
364.48        88.90076
364.93        88.05048
365.38        87.15199
365.83        86.44339
366.28         85.9818
366.73        85.68935
367.18        85.45749
367.63        85.10695
368.08        84.59188
368.53        83.99255
368.98        83.35172
369.43        82.71987
369.88        82.12467
370.33        81.54363
370.78        81.02303
371.23        80.65089
371.68         80.4347
372.13        80.34355
372.58        80.29871
373.03        80.16016
373.48           79.89
373.93        79.53764
374.38        79.13515
374.83        78.73103
375.28        78.34982
375.72        77.96259
376.17        77.63028
376.62        77.42973
377.07        77.35564
377.52        77.36124
377.97        77.35081
378.42        77.16866
378.87        76.78632
379.32        76.27837
379.77        75.68256
380.22        75.04909
380.67        74.40276
381.11        73.71971
381.56        73.09504
382.01        72.69221
382.46        72.54469
382.91        72.63702
383.36        72.76311
383.81        72.58522
384.26        72.04686
384.71        71.23972
385.15         70.4367
385.60        70.11534
386.05        70.30368
386.50         70.8364
386.95        71.37536
387.40        71.35331
387.85        70.68675
388.29        69.61185
388.74        68.53929
389.19         67.7635
389.64        67.34386
390.09        67.12428
390.54        67.10172
390.98        67.27348
391.43        67.58336
391.88        68.01765
392.33        68.34396
392.78        68.17699
393.23        67.51905
393.67        66.58617
394.12        65.75986
394.57        65.18432
395.02         65.0294
395.47        65.59298
395.91        66.66904
396.36        67.36293
396.81        67.49645
397.26        67.43762
397.71        67.23381
398.15        66.77367
398.60        66.20113
399.05        65.58784
399.50         65.0318
399.95        64.41663
400.39        64.08875
400.84        63.99519
401.29        64.14006
401.74        64.22579
402.18        64.20897
402.63        64.15783
403.08        64.16871
403.53        64.33257
403.97        64.65823
404.42        65.09503
404.87         65.4453
405.32         65.3858
405.76        64.86662
406.21        64.05462
406.66        63.23773
407.11        62.86416
407.55        63.03452
408.00        63.53059
408.45        64.13448
408.90        64.55836
409.34        64.57552
409.79        63.99304
410.24        63.11136
410.68        62.64729
411.13        62.71083
411.58        62.95376
412.03         63.2812
412.47        63.64841
412.92        63.93537
413.37        64.18957
413.81         64.3377
414.26        64.30191
414.71        64.06757
415.15        63.64546
415.60        63.17205
416.05        62.89496
416.49        62.88001
416.94        63.08683
417.39         63.3423
417.83        63.32754
418.28        62.99297
418.73        62.45327
419.17        61.94657
419.62         61.8519
420.07        62.19957
420.51         62.8455
420.96        63.54935
421.41         63.8398
421.85        63.57972
422.30        63.21816
422.74        62.82185
423.19        62.13152
423.64        61.39715
424.08        61.62803
424.53        62.65849
424.98        63.23163
425.42        63.19601
425.87        63.39901
426.31        63.82627
426.76        63.73527
427.21        63.32692
427.65         63.5484
428.10        64.32262
428.54        64.94675
428.99        65.37653
429.44        65.58665
429.88        65.58974
430.33        66.23069
430.77        66.96088
431.22        65.88799
431.66         63.5636
432.11         62.4555
432.56         62.8095
433.00        63.67303
433.45        64.83197
433.89        66.39418
434.34        67.19375
434.78        68.17243
435.23         64.9792
435.67        63.42315
436.12        65.75776
436.57        66.75485
437.01        67.09368
437.46         67.1963
437.90        67.20728
438.35        67.27406
438.79         67.4138
439.24        67.39989
439.68         67.2752
440.13        66.97008
440.57        66.78489
441.02        67.63828
441.46        69.15374
441.91        69.94967
442.35        69.81114
442.80        69.03117
443.24        68.00983
443.69         68.5261
444.13        70.22226
444.58        70.20721
445.02        68.68021
445.47        68.54851
445.91         69.6937
446.36        70.06802
446.80        69.59693
447.24        69.34679
447.69        69.43388
448.13        69.60569
448.58        69.88405
449.02        70.28051
449.47        70.70021
449.91         71.0022
450.36        71.14692
450.80        71.15768
451.25        71.06928
451.69        70.91045
452.13        70.72713
452.58        70.51582
453.02        70.33906
453.47        70.33454
453.91        70.49793
454.36        70.79829
454.80        71.11903
455.24        71.15883
455.69        70.86489
456.13        70.52228
456.58         70.2943
457.02        69.77464
457.46        69.19724
457.91        69.98946
458.35        70.73345
458.79        71.17171
459.24        70.90769
459.68        70.48119
460.13        70.02207
460.57         69.6666
461.01        69.57512
461.46        68.98118
461.90        68.78587
462.34         69.2601
462.79        68.97681
463.23        69.16856
463.68        69.30296
464.12        69.62018
464.56        69.98334
465.01        70.00013
465.45        69.60467
465.89         69.5261
466.34        69.23977
466.78        68.45082
467.22        67.51999
467.67        66.98193
468.11        68.54734
468.55        69.10122
468.99        68.93725
469.44        68.53583
469.88        68.13324
470.32        68.26195
470.77        68.78227
471.21        68.83804
471.65        68.37193
472.10          68.043
472.54        67.94637
472.98        67.91208
473.42        67.95328
473.87        68.22617
474.31        68.56591
474.75        68.52832
475.20        68.20138
475.64        68.01578
476.08        68.49697
476.52        68.38921
476.97        67.73455
477.41        68.23011
477.85        68.51423
478.29        67.26296
478.74        68.40331
479.18        68.16148
479.62        67.25578
480.06        67.76083
480.50        68.08289
480.95        68.45149
481.39        68.41765
481.83         67.6705
482.27        67.87205
482.72        67.72698
483.16         66.6507
483.60        66.86557
484.04        68.06342
484.48        68.48461
484.93        68.57565
485.37        69.75363
485.81        69.99119
486.25        68.84907
486.69        92.44302
487.14        74.88396
487.58         46.8945
488.02        58.01759
488.46        66.03722
488.90        65.65259
489.34        67.02424
489.79        66.49261
490.23        68.56492
490.67         69.2969
491.11        67.99545
491.55        67.82236
491.99        68.37558
492.43        68.20635
492.88        67.40947
493.32        67.36416
493.76        67.58401
494.20        67.88444
494.64         68.0276
495.08        68.20684
495.52         68.4268
495.96        68.47198
496.41        68.29221
496.85        68.46409
497.29        68.85155
497.73         67.7979
498.17        66.19164
498.61        66.58315
499.05          68.915
499.49         69.2951
499.93        69.27238
500.37        69.07302
500.82        68.61174
501.26        68.78749
501.70         69.2937
502.14        69.42451
502.58         69.0825
503.02        68.84086
503.46        68.71995
503.90         68.3703
504.34        67.92432
504.78        67.75987
505.22        67.91724
505.66         68.2976
506.10        68.77637
506.54        69.00028
506.98        68.86663
507.42        68.73415
507.86        68.78526
508.30          67.978
508.74         68.5117
509.18        68.59471
509.62        68.78478
510.06        68.90287
510.50        68.92579
510.94         68.8819
511.38        68.79461
511.82        68.74955
512.26        68.76439
512.70        68.81292
513.14        68.87916
513.58        68.94276
514.02        68.99017
514.46        69.02409
514.90        69.05267
515.34        69.07155
515.78        69.06976
516.22        69.10995
516.66        69.17698
517.10        69.07076
517.54        68.78892
517.98        68.98552
518.42        68.79343
518.86        68.89679
519.30        69.02927
519.74        69.24483
520.18         69.4836
520.62        69.63873
521.06         69.6921
521.50        69.66821
521.93        69.59074
522.37        69.49903
522.81        69.41875
523.25        69.34368
523.69        69.29626
524.13        69.31081
524.57        69.39021
525.01        69.52501
525.45        69.68277
525.89        69.80759
526.32        69.87224
526.76        69.88518
527.20        69.85475
527.64        69.81583
528.08        69.79537
528.52        69.72765
528.96        69.58374
529.40        69.51582
529.83        69.56421
530.27        68.98523
530.71        69.17567
531.15        69.08985
531.59        69.14391
532.03        69.27457
532.46        69.48351
532.90        69.73927
533.34        69.99797
533.78        70.25745
534.22         70.4448
534.66        70.46072
535.09        70.28791
535.53        69.98989
535.97        69.64207
536.41        69.38974
536.85        69.27905
537.28         69.2719
537.72        69.33108
538.16        69.41615
538.60        69.46651
539.04         69.4931
539.47        69.47416
539.91         69.5244
540.35        69.59365
540.79        69.51173
541.22        69.31088
541.66        69.22164
542.10        69.25431
542.54         69.2855
542.97        69.31262
543.41        69.40836
543.85        69.55502
544.29        69.74896
544.72         69.8985
545.16         69.8932
545.60        69.71171
546.04        69.38114
546.47         69.0489
546.91        68.99561
547.35        69.25424
547.79        69.69283
548.22        70.09684
548.66        70.26133
549.10        70.06496
549.53        69.35516
549.97        68.45672
550.41        68.03615
550.84        68.19666
551.28        68.66518
551.72        69.25167
552.15        69.63029
552.59        69.66875
553.03        69.75754
553.46        69.54075
553.90        69.39005
554.34        69.19258
554.77        69.48271
555.21        69.08752
555.65        69.22923
556.08           69.57
556.52         69.0956
556.96        69.41453
557.39        69.32288
557.83        69.34138
558.27        69.34631
558.70        69.36193
559.14        69.46494
559.57        69.62083
560.01        69.73172
560.45        69.79106
560.88        69.93495
561.32        70.08096
561.75        69.93489
562.19        69.57589
562.63        69.02848
563.06        68.50455
563.50        68.62441
563.93        69.24184
564.37        69.53934
564.80        69.43192
565.24        69.43436
565.68        69.53039
566.11        69.50513
566.55        69.41128
566.98        69.21707
567.42        69.01362
567.85        69.12426
568.29        69.53085
568.72        69.58267
569.16        69.42966
569.60        69.84594
570.03        70.23363
570.47         70.1104
570.90        69.72034
571.34        67.96876
571.77        68.88488
572.21        68.87181
572.64        68.41831
573.08        67.52211
573.51        64.70281
573.95        67.32809
574.38        71.65686
574.82        69.56703
