SpectraSmart Spectrum 2.9.0.0
--------- Device Information -----------
Spectrum Name :  反射率_0
Saving Time :  2024/04/26 01:07:41
Spectro-Module Model Name : SE2030-DUVN
Spectro-Module Serial Number : OS361AC55029948
Wavelength Start : 200
Wavelength End : 1025
Wavelength Unit : Wavelength(nm)
Spectrum Unit : Reflectance(%)
-----------Spectrum Setting ------------
Integration Time : 20ms
Average : 10
Boxcar : 0
Background removal :  enabled
linearity correction :  enabled
SC :  disabled
Intensity correction :  disabled
DWT denoise :  enabled
savitzky-golay :  disabled
FFT :  disabled
Running average :  disabled
Kalman :  disabled
High pass :  disabled
---------------BEGIN--------------------
Wavelength(nm)             Reflectance(%)
200.29               0
200.75        91.21031
201.21        83.03454
201.67        73.83879
202.13        69.18181
202.58        69.64132
203.04        74.02608
203.50        79.49232
203.96        81.12407
204.42        78.21223
204.88        73.04585
205.34        68.27759
205.80        66.41917
206.26          68.129
206.72        74.50513
207.18        88.37584
207.64        101.2855
208.10         94.1096
208.55        78.48806
209.01        68.22829
209.47        64.12247
209.93        63.47221
210.39        64.72694
210.85        66.66352
211.31         67.0915
211.77        65.26481
212.23        61.97301
212.69        58.99894
213.14        59.12306
213.60        62.53281
214.06        68.67656
214.52        75.05795
214.98        77.95003
215.44        76.63712
215.90        72.22077
216.36        67.55194
216.81        66.58715
217.27        69.81202
217.73        75.41952
218.19        80.31578
218.65        80.51173
219.11        74.72985
219.57        62.31266
220.02        44.58602
220.48        31.45774
220.94         29.5792
221.40        37.14865
221.86        46.20646
222.32        47.68917
222.77        41.98635
223.23        33.73817
223.69        26.88012
224.15           25.34
224.61        28.66484
225.06        34.66271
225.52        40.69019
225.98        43.69933
226.44        43.03259
226.90        40.05526
227.36        36.20697
227.81        33.32103
228.27        32.20499
228.73        32.13462
229.19        32.72408
229.65        33.44389
230.10        34.05864
230.56          34.668
231.02         35.3694
231.48        36.21933
231.93        37.18987
232.39        38.23452
232.85        39.09518
233.31        39.43077
233.77        39.17804
234.22        38.38012
234.68        37.47104
235.14         37.2125
235.60        37.84576
236.05        39.22306
236.51        40.75969
236.97        41.58065
237.43        41.56234
237.88        40.94394
238.34        40.41531
238.80        41.77278
239.26         45.7267
239.71        51.77934
240.17        58.36066
240.63        63.23174
241.08        65.66443
241.54        66.03793
242.00        65.38703
242.46        65.31794
242.91        66.90281
243.37        71.11354
243.83        84.70386
244.28        130.4865
244.74        184.7528
245.20        158.3932
245.66        132.9245
246.11        126.6883
246.57        132.6142
247.03        156.6106
247.48        225.6114
247.94        183.2109
248.40        107.6704
248.85        85.41979
249.31        79.28708
249.77        79.27567
250.22        82.89294
250.68        90.45578
251.14         101.981
251.59        110.6574
252.05        109.1819
252.51        100.2019
252.96        89.87627
253.42        84.74419
253.88        84.45139
254.33        86.50138
254.79        90.13205
255.25        93.75368
255.70        96.40904
256.16        98.82251
256.62        99.89572
257.07        98.37688
257.53        95.09749
257.99        90.32047
258.44        85.43375
258.90        83.09937
259.35        82.37392
259.81        82.43368
260.27        81.57396
260.72        78.14172
261.18        72.95983
261.63        66.72998
262.09        61.01323
262.55        56.88556
263.00        54.31582
263.46        52.88939
263.91        51.74966
264.37        50.29771
264.83        48.30322
265.28        45.88097
265.74        43.54753
266.19        41.83564
266.65        40.98086
267.11        40.65756
267.56        40.37343
268.02        39.53871
268.47        38.01908
268.93        36.02723
269.38        33.88628
269.84         32.3967
270.30        31.78341
270.75        31.81868
271.21        32.10046
271.66        32.02328
272.12         31.4115
272.57        30.45089
273.03        29.41754
273.48        28.63842
273.94        28.22676
274.39        28.02523
274.85        27.86341
275.31        27.49376
275.76        26.86169
276.22        26.09331
276.67         25.3374
277.13        24.88748
277.58        24.73798
278.04        24.80959
278.49        24.87782
278.95        24.69088
279.40        24.18074
279.86        23.49011
280.31        22.75204
280.77        22.27501
281.22        22.07339
281.68        22.06565
282.13        22.10864
282.59        22.03288
283.04        21.79969
283.50         21.5156
283.95        21.22123
284.41        20.98801
284.86        20.84307
285.32        20.77093
285.77        20.81549
286.22        21.10727
286.68        21.61163
287.13        22.23632
287.59        22.81301
288.04        23.08578
288.50        23.02803
288.95        22.71089
289.41        22.27362
289.86        21.82483
290.32         21.4859
290.77         21.2348
291.22        21.16049
291.68        21.35072
292.13        21.82277
292.59        22.56459
293.04        23.50892
293.50        24.53454
293.95        25.58086
294.40        26.64155
294.86        27.71648
295.31        28.82974
295.77        29.99563
296.22        31.20003
296.68        32.42751
297.13        33.62394
297.58        34.79644
298.04        35.98626
298.49        37.25417
298.95        38.74322
299.40        40.47018
299.85        42.38717
300.31        44.40451
300.76        46.37106
301.21         48.2049
301.67        49.96468
302.12        51.60723
302.58        53.18355
303.03        54.69376
303.48        56.15907
303.94        57.71088
304.39        59.48512
304.84        61.51283
305.30        63.74784
305.75        65.97612
306.20        67.89512
306.66        69.45865
307.11        70.69669
307.57        71.84407
308.02        73.13125
308.47        74.67098
308.93        76.39545
309.38        78.13271
309.83        79.66885
310.29        80.94011
310.74        81.98177
311.19        82.94043
311.65        84.03761
312.10        85.30581
312.55        86.68593
313.00        87.97848
313.46        88.86758
313.91        89.27206
314.36         89.3159
314.82        89.28117
315.27        89.54185
315.72         90.2281
316.18        91.23298
316.63        92.35681
317.08        93.22256
317.53        93.71703
317.99        93.93475
318.44        94.09275
318.89        94.54723
319.35        95.35137
319.80        96.41254
320.25        97.42848
320.70        97.90934
321.16        97.75224
321.61         97.1287
322.06        96.38217
322.51        96.04842
322.97        96.24005
323.42        96.84052
323.87        97.59148
324.32        98.04714
324.78        98.06396
325.23        97.82532
325.68        97.49584
326.13        97.36929
326.59        97.51242
327.04        97.85631
327.49        98.30426
327.94         98.7388
328.39        99.10799
328.85        99.43353
329.30        99.77363
329.75        100.0424
330.20        100.2567
330.66        100.4252
331.11        100.6802
331.56        101.1618
332.01         101.916
332.46        102.8741
332.92        103.9454
333.37        105.1621
333.82        106.3716
334.27         107.558
334.72        108.5166
335.17        108.9311
335.63        108.7651
336.08         108.179
336.53        107.4902
336.98        107.2595
337.43        107.6415
337.88        108.4838
338.34        109.5853
338.79        110.6929
339.24        111.6405
339.69        112.5284
340.14        113.2455
340.59        113.6022
341.05        113.5988
341.50        113.2528
341.95        112.8642
342.40        112.9209
342.85        113.5196
343.30        114.5453
343.75        115.6761
344.20        116.3296
344.66        116.3622
345.11         115.933
345.56        115.3515
346.01        115.0885
346.46        115.2606
346.91        115.7107
347.36        116.2323
347.81        116.5134
348.26        116.4783
348.72        116.2602
349.17        115.9761
349.62        115.8558
350.07        115.9556
350.52        116.1749
350.97        116.4241
351.42         116.579
351.87        116.5986
352.32        116.5359
352.77        116.3872
353.22        116.1422
353.67         115.818
354.13        115.4259
354.58        115.0181
355.03        114.7448
355.48        114.6228
355.93         114.608
356.38         114.577
356.83        114.3298
357.28        113.8175
357.73        113.0975
358.18        112.2777
358.63        111.5308
359.08         110.911
359.53        110.3796
359.98        109.8583
360.43        109.2244
360.88        108.4441
361.33        107.5454
361.78        106.6318
362.23        105.8656
362.68        105.2855
363.13        104.8607
363.58        104.4263
364.03        103.7199
364.48        102.7028
364.93        101.4579
365.38        100.2316
365.83        99.42281
366.28        99.10191
366.73        99.11887
367.18        99.20174
367.63        98.90746
368.08        98.13393
368.53        97.06236
368.98        95.86651
369.43         94.7999
369.88        93.95455
370.33        93.23983
370.78        92.69755
371.23        92.40635
371.68        92.34595
372.13        92.49805
372.58         92.6756
373.03        92.54938
373.48        92.04663
373.93        91.26213
374.38        90.38292
374.83        89.70728
375.28        89.30798
375.72        89.07658
376.17        88.93707
376.62        88.74102
377.07        88.42535
377.52        88.02819
377.97        87.54871
378.42        86.98051
378.87        86.35069
379.32        85.68851
379.77        85.01019
380.22         84.3343
380.67         83.6666
381.11        82.99787
381.56        82.39983
382.01        81.99233
382.46        81.79811
382.91        81.80106
383.36         81.8246
383.81        81.58804
384.26        81.04341
384.71        80.26161
385.15        79.47401
385.60        79.10439
386.05        79.16719
386.50        79.52174
386.95        79.86508
387.40        79.69353
387.85          78.949
388.29         77.8411
388.74        76.77592
389.19        76.01417
389.64        75.60197
390.09        75.38452
390.54        75.35308
390.98        75.49617
391.43        75.75539
391.88        76.11604
392.33        76.34454
392.78        76.05719
393.23        75.26373
393.67         74.1816
394.12        73.21905
394.57        72.52056
395.02        72.29542
395.47        72.76637
395.91        73.74838
396.36        74.39704
396.81        74.53471
397.26        74.48009
397.71        74.30029
398.15        73.89007
398.60         73.3832
399.05        72.93355
399.50        72.54121
399.95        71.72735
400.39        70.96849
400.84        70.68844
401.29        70.92042
401.74        71.01012
402.18        70.88963
402.63        70.78062
403.08        70.79553
403.53        71.01501
403.97        71.43309
404.42        71.94394
404.87        72.33504
405.32         72.2755
405.76        71.70701
406.21        70.85675
406.66        69.97421
407.11        69.35999
407.55         69.1797
408.00        69.42213
408.45        69.93285
408.90         70.4549
409.34        70.68627
409.79        70.16402
410.24        69.19299
410.68        68.75204
411.13        68.94681
411.58        69.23383
412.03        69.52142
412.47        69.88525
412.92        70.21202
413.37        70.51615
413.81        70.69943
414.26         70.6544
414.71          70.361
415.15         69.8419
415.60        69.27867
416.05        68.98595
416.49        69.04308
416.94        69.39149
417.39        69.79002
417.83        69.80541
418.28        69.36338
418.73        68.61369
419.17        67.88577
419.62        67.69928
420.07        68.11412
420.51        68.94744
420.96        69.86667
421.41        70.27557
421.85        70.00622
422.30        69.47384
422.74        68.84618
423.19        68.21714
423.64        67.75568
424.08        67.96336
424.53        68.69859
424.98        69.17778
425.42        69.27224
425.87        69.61134
426.31         70.1234
426.76        69.92962
427.21        69.31834
427.65        69.64336
428.10        70.75733
428.54        71.57808
428.99        72.04439
429.44        72.06339
429.88        71.79317
430.33        72.84781
430.77         74.3617
431.22        73.02786
431.66        69.61082
432.11        68.03193
432.56         68.5692
433.00        69.39326
433.45        70.40472
433.89         72.2066
434.34        73.30372
434.78         75.3671
435.23        71.90282
435.67        69.08579
436.12        71.42346
436.57        72.40752
437.01        73.37036
437.46        73.71225
437.90         73.6115
438.35        73.10524
438.79        73.67466
439.24         73.6294
439.68        73.43792
440.13         73.0886
440.57        72.90133
441.02        73.80888
441.46        75.39027
441.91        76.20507
442.35        76.03664
442.80        75.16717
443.24         74.0473
443.69        74.69131
444.13        76.65658
444.58        76.62511
445.02        74.83158
445.47        74.48352
445.91        75.54007
446.36        75.89437
446.80        75.49317
447.24        75.45484
447.69         75.8026
448.13        76.09844
448.58        76.32267
449.02        76.53404
449.47        76.73631
449.91        76.91205
450.36        77.05061
450.80        77.24641
451.25        77.41906
451.69         77.1404
452.13        76.56441
452.58        76.36598
453.02        76.55566
453.47        76.67156
453.91        76.68822
454.36        76.90525
454.80         77.2482
455.24        77.32812
455.69        77.11163
456.13        76.86305
456.58        76.66734
457.02        76.13815
457.46        75.54372
457.91         75.7274
458.35         76.4696
458.79        76.75731
459.24        76.55946
459.68         76.2791
460.13        75.96684
460.57        75.73966
461.01        75.75304
461.46        74.69135
461.90        74.75312
462.34         74.8344
462.79        74.28163
463.23        74.44592
463.68        74.88932
464.12        75.53426
464.56        76.07738
465.01        76.13285
465.45        75.64677
465.89         75.1451
466.34        74.66707
466.78        73.74452
467.22        72.88108
467.67        72.26147
468.11        73.82433
468.55        74.41601
468.99         74.3601
469.44        73.95831
469.88        73.45148
470.32        73.49677
470.77        73.97417
471.21        73.99386
471.65        73.50634
472.10        73.20084
472.54        73.15157
472.98        73.13556
473.42        73.14858
473.87        73.37826
474.31        73.66882
474.75        73.55529
475.20        73.14289
475.64        73.02529
476.08        73.24438
476.52        73.22557
476.97        72.93832
477.41        72.97592
477.85        73.46301
478.29        72.74789
478.74         73.8101
479.18        73.75705
479.62        72.56175
480.06        73.03727
480.50        73.34637
480.95        73.75114
481.39        73.79311
481.83        72.53152
482.27        73.07769
482.72        72.53336
483.16        71.43979
483.60        71.71329
484.04         73.1541
484.48         73.7497
484.93        73.96347
485.37        74.95077
485.81        75.01974
486.25        74.58115
486.69        100.6507
487.14        81.47481
487.58        50.60547
488.02        62.72437
488.46        70.50718
488.90        70.06166
489.34        72.16728
489.79        71.03978
490.23        73.23484
490.67        73.97591
491.11        72.98028
491.55        72.93449
491.99        73.40978
492.43        73.22813
492.88        72.48343
493.32        72.49272
493.76        72.71809
494.20        72.99464
494.64        73.05839
495.08         73.1663
495.52        73.35905
495.96        73.27265
496.41        72.90992
496.85        73.33204
497.29        74.23911
497.73         72.9833
498.17        70.65715
498.61        71.00782
499.05        73.94943
499.49        74.46423
499.93        74.16421
500.37         73.7548
500.82        73.21867
501.26        73.44088
501.70        74.10537
502.14        74.45444
502.58        74.31023
503.02        74.18541
503.46        74.07106
503.90        73.60798
504.34        72.98741
504.78        72.69271
505.22        72.77873
505.66        73.17014
506.10        73.69492
506.54        73.85069
506.98        73.50002
507.42        73.60984
507.86         72.8764
508.30        72.75901
508.74        72.88205
509.18        73.19437
509.62        73.53201
510.06        73.66483
510.50        73.54926
510.94        73.25775
511.38        72.93839
511.82        72.81177
512.26        72.93239
512.70        73.22604
513.14        73.57544
513.58        73.79385
514.02        73.82037
514.46        73.70663
514.90        73.53957
515.34        73.44059
515.78        73.43389
516.22        73.53385
516.66        73.67113
517.10        73.58474
517.54        73.25416
517.98        73.28396
518.42        72.98266
518.86        73.01543
519.30         73.1694
519.74        73.45682
520.18        73.79922
520.62        74.06461
521.06        74.21749
521.50        74.29183
521.93        74.28699
522.37        74.20165
522.81        74.05895
523.25        73.86607
523.69        73.70296
524.13        73.66407
524.57         73.7624
525.01        74.02548
525.45        74.38461
525.89        74.41851
526.32        74.55956
526.76        74.45801
527.20        74.30612
527.64        74.19195
528.08        74.16456
528.52        74.12775
528.96        74.02193
529.40        73.97909
529.83        74.02924
530.27        73.39182
530.71        73.56654
531.15        73.45824
531.59        73.51694
532.03        73.67515
532.46        73.92001
532.90        74.19492
533.34        74.45121
533.78        74.69084
534.22        74.87255
534.66        74.94656
535.09        74.89479
535.53        74.75848
535.97        74.55596
536.41        74.34346
536.85        74.15154
537.28        73.97935
537.72        73.84314
538.16        73.77798
538.60        73.78706
539.04        73.80513
539.47        73.80255
539.91        73.92873
540.35        74.08738
540.79        73.98003
541.22        73.66656
541.66        73.52946
542.10        73.58382
542.54         73.6519
542.97        73.70971
543.41        73.74187
543.85        73.77467
544.29        74.02615
544.72        74.34841
545.16        74.36047
545.60        74.02267
546.04        73.49827
546.47        73.02336
546.91        72.93843
547.35        73.29207
547.79         74.0039
548.22          74.731
548.66        74.89426
549.10        74.41644
549.53        73.59093
549.97        72.80528
550.41        72.40068
550.84        72.48099
551.28         73.1272
551.72        74.12506
552.15         74.1048
552.59        74.47254
553.03          74.153
553.46        73.75797
553.90        73.55689
554.34           73.63
554.77        73.77538
555.21        73.88018
555.65        74.07284
556.08        74.33902
556.52        73.70551
556.96        73.96152
557.39        73.82827
557.83        73.87263
558.27        73.99319
558.70        74.14513
559.14        74.29964
559.57          74.409
560.01        74.35029
560.45        74.19569
560.88        74.38851
561.32        74.78613
561.75        74.61309
562.19         74.0062
562.63        73.49876
563.06        73.25385
563.50        73.44162
563.93        73.90027
564.37        74.09112
564.80          73.937
565.24        73.81193
565.68        73.75204
566.11        73.67912
566.55         73.6597
566.98        73.64084
567.42        73.65554
567.85        73.87155
568.29        74.27175
568.72           74.35
569.16         74.2757
569.60        74.68436
570.03         75.2177
570.47        75.06404
570.90        74.58599
571.34        73.04834
571.77        73.87186
572.21        74.24802
572.64        73.81712
573.08        72.62296
573.51        69.33086
573.95        71.87344
574.38         76.3865
574.82        74.45399
