SpectraSmart Spectrum 2.9.0.0
--------- Device Information -----------
Spectrum Name :  反射率_0
Saving Time :  2024/04/26 02:06:02
Spectro-Module Model Name : SE2030-DUVN
Spectro-Module Serial Number : OS361AC55029948
Wavelength Start : 200
Wavelength End : 1025
Wavelength Unit : Wavelength(nm)
Spectrum Unit : Reflectance(%)
-----------Spectrum Setting ------------
Integration Time : 20ms
Average : 10
Boxcar : 0
Background removal :  enabled
linearity correction :  enabled
SC :  disabled
Intensity correction :  disabled
DWT denoise :  enabled
savitzky-golay :  disabled
FFT :  disabled
Running average :  disabled
Kalman :  disabled
High pass :  disabled
---------------BEGIN--------------------
Wavelength(nm)             Reflectance(%)
200.29               0
200.75        96.42375
201.21        91.61392
201.67        85.58054
202.13        81.73148
202.58        80.54568
203.04         81.5234
203.50        83.00109
203.96        82.37403
204.42        79.51853
204.88        75.73367
205.34        72.79547
205.80        72.50806
206.26        75.68496
206.72        84.45208
207.18        102.8859
207.64        121.3554
208.10        114.6106
208.55        94.82142
209.01        81.54346
209.47        76.98151
209.93        77.57498
210.39        81.31918
210.85        85.68291
211.31        85.51752
211.77         79.4949
212.23        69.89194
212.69        60.92925
213.14        59.00473
213.60        64.99909
214.06        76.84492
214.52        90.32072
214.98        98.98035
215.44        100.9251
215.90        98.16208
216.36        92.87152
216.81        87.98339
217.27        84.97771
217.73        83.13454
218.19        81.42783
218.65        78.40894
219.11        73.27676
219.57         65.1934
220.02        55.66605
220.48        51.97684
220.94        57.32197
221.40        69.29827
221.86        78.89743
222.32        77.20715
222.77        66.18024
223.23         51.5574
223.69         39.4699
224.15        36.17719
224.61        40.85947
225.06        50.21217
225.52        59.92891
225.98        64.40179
226.44        62.58303
226.90        56.87138
227.36        50.01516
227.81        45.69307
228.27        45.09768
228.73        46.70906
229.19        49.45486
229.65        51.81782
230.10         53.1961
230.56         54.1254
231.02        54.75432
231.48        55.18713
231.93        55.45741
232.39        55.48551
232.85        55.23916
233.31        54.78401
233.77        54.13888
234.22        53.33073
234.68        52.41026
235.14        51.45768
235.60        50.59377
236.05        49.90105
236.51        49.41245
236.97        49.06653
237.43        48.83159
237.88        48.76942
238.34        48.87662
238.80        49.32159
239.26        50.11615
239.71        51.29578
240.17        52.46661
240.63        53.47036
241.08        54.36184
241.54        55.12877
242.00        56.00106
242.46        57.46411
242.91        60.29041
243.37        66.06171
243.83         82.9677
244.28        138.2613
244.74        202.5925
245.20        169.1043
245.66        136.5539
246.11        125.1864
246.57        124.1272
247.03        131.6453
247.48          151.57
247.94        115.3645
248.40        87.01321
248.85        81.32297
249.31        81.43684
249.77        84.05364
250.22         88.9099
250.68         97.1964
251.14        108.3001
251.59        113.5662
252.05        105.7544
252.51        89.56219
252.96        74.04262
253.42         67.1877
253.88        67.90897
254.33         72.8677
254.79        79.92326
255.25        85.47102
255.70        88.15656
256.16        89.52827
256.62        88.78144
257.07        84.90532
257.53        79.02455
257.99        71.61024
258.44        64.79651
258.90        61.96302
259.35        62.04924
259.81         63.5211
260.27        64.09849
260.72        61.59313
261.18        56.78309
261.63        50.73388
262.09        45.14878
262.55        41.36463
263.00        39.37544
263.46         38.5581
263.91        38.06149
264.37        37.21235
264.83        35.82162
265.28        34.04425
265.74        32.34214
266.19        31.16894
266.65         30.6983
267.11        30.64605
267.56         30.6022
268.02         30.0573
268.47        28.92445
268.93        27.38034
269.38        25.72638
269.84        24.69432
270.30        24.46639
270.75          24.848
271.21        25.40583
271.66        25.49817
272.12        24.96239
272.57        23.99378
273.03        22.98101
273.48        22.43708
273.94        22.48092
274.39        22.88632
274.85        23.30953
275.31        23.25296
275.76        22.62251
276.22        21.63562
276.67        20.58256
277.13        19.95432
277.58         19.7995
278.04        19.96206
278.49        20.16352
278.95        20.06129
279.40        19.57386
279.86        18.88242
280.31        18.13658
280.77        17.64813
281.22        17.44768
281.68        17.44228
282.13        17.51271
282.59        17.51851
283.04        17.41866
283.50        17.28626
283.95        17.13188
284.41        16.97671
284.86        16.82771
285.32        16.67414
285.77        16.55618
286.22        16.59279
286.68        16.76912
287.13        17.03197
287.59        17.24829
288.04        17.21952
288.50        16.93763
288.95        16.46494
289.41        15.95677
289.86        15.55502
290.32        15.35146
290.77        15.29085
291.22        15.36825
291.68         15.5368
292.13        15.78402
292.59        16.12771
293.04        16.56244
293.50        17.07259
293.95        17.63943
294.40        18.23536
294.86        18.84373
295.31        19.45921
295.77        20.08632
296.22        20.73374
296.68        21.40204
297.13        22.05768
297.58        22.72209
298.04        23.43465
298.49        24.25148
298.95         25.2951
299.40        26.58272
299.85        28.07411
300.31        29.69907
300.76        31.34556
301.21        32.93732
301.67        34.50515
302.12        35.99864
302.58        37.42648
303.03        38.79044
303.48         40.1197
303.94         41.5283
304.39        43.14167
304.84        44.99398
305.30        47.04445
305.75        49.14403
306.20        51.07571
306.66        52.79662
307.11        54.31428
307.57        55.77154
308.02        57.29181
308.47        58.95391
308.93         60.7166
309.38        62.47566
309.83        64.11378
310.29        65.58394
310.74        66.89132
311.19        68.11688
311.65        69.38961
312.10        70.72793
312.55        72.10364
313.00        73.38022
313.46        74.33652
313.91        74.91677
314.36        75.21699
314.82        75.45699
315.27         75.9306
315.72        76.74417
316.18        77.81236
316.63        78.99046
317.08        79.99252
317.53        80.71921
317.99        81.23031
318.44        81.66103
318.89        82.24152
319.35        83.00507
319.80         83.8998
320.25        84.71679
320.70        85.12125
321.16        85.05402
321.61        84.63966
322.06        84.15126
322.51        84.01413
322.97        84.31174
323.42        84.95737
323.87        85.72608
324.32        86.22406
324.78        86.32713
325.23        86.19363
325.68        85.96981
326.13         85.9231
326.59        86.11326
327.04        86.47133
327.49        86.92581
327.94        87.39349
328.39        87.82988
328.85        88.25558
329.30        88.67066
329.75        88.91228
330.20        88.97961
330.66        88.89923
331.11        88.88751
331.56        89.22431
332.01        89.98531
332.46        91.07738
332.92        92.30072
333.37        93.45786
333.82        94.35152
334.27        95.03334
334.72        95.47044
335.17        95.64084
335.63        95.58262
336.08        95.34692
336.53        95.09308
336.98         95.1247
337.43        95.51637
337.88         96.1983
338.34        97.02392
338.79        97.82205
339.24         98.4781
339.69        99.06098
340.14        99.52383
340.59        99.79404
341.05         99.8838
341.50        99.78358
341.95        99.67689
342.40        99.86765
342.85        100.4112
343.30        101.2382
343.75        102.1052
344.20        102.5762
344.66        102.5522
345.11        102.1456
345.56        101.6207
346.01        101.3787
346.46        101.5163
346.91        101.9088
347.36        102.3607
347.81        102.5699
348.26        102.4688
348.72        102.1836
349.17        101.8449
349.62        101.7135
350.07        101.8477
350.52        102.1364
350.97        102.4572
351.42         102.637
351.87        102.6199
352.32        102.4659
352.77        102.1979
353.22        101.8481
353.67        101.4489
354.13        101.0102
354.58        100.5549
355.03        100.1816
355.48        99.90491
355.93         99.6999
356.38        99.51772
356.83        99.27134
357.28        98.92868
357.73        98.51042
358.18        98.01486
358.63         97.4442
359.08        96.81316
359.53        96.12629
359.98        95.42111
360.43        94.75789
360.88        94.14395
361.33        93.55738
361.78        92.97723
362.23        92.36545
362.68        91.71899
363.13        91.07257
363.58        90.40709
364.03        89.68573
364.48        88.91373
364.93        88.09548
365.38        87.32652
365.83        86.76579
366.28        86.42404
366.73        86.23225
367.18        86.04159
367.63        85.60995
368.08        84.89359
368.53        84.00253
368.98        83.03951
369.43        82.15341
369.88        81.40028
370.33        80.72593
370.78        80.18399
371.23         79.8669
371.68        79.76376
372.13        79.84381
372.58        79.93292
373.03        79.73132
373.48         79.1779
373.93          78.373
374.38        77.49233
374.83        76.80803
375.28        76.39112
375.72        76.14418
376.17        76.01431
376.62        75.88754
377.07        75.70296
377.52        75.47612
377.97        75.17991
378.42         74.7684
378.87        74.25102
379.32        73.66549
379.77        73.02679
380.22        72.35297
380.67        71.66104
381.11         70.9509
381.56        70.31918
382.01        69.92683
382.46        69.80488
382.91        69.91954
383.36        70.08383
383.81        69.99666
384.26        69.59217
384.71        68.94053
385.15        68.24339
385.60        67.87191
386.05        67.84433
386.50        68.03638
386.95        68.20067
387.40        67.93321
387.85        67.20038
388.29         66.1882
388.74        65.23352
389.19        64.54316
389.64        64.15233
390.09        63.93386
390.54        63.88908
390.98        64.02215
391.43        64.28278
391.88        64.64713
392.33        64.90203
392.78        64.69441
393.23        64.02861
393.67        63.12113
394.12        62.31918
394.57        61.71122
395.02        61.46803
395.47        61.93373
395.91        62.92328
396.36        63.56089
396.81        63.67922
397.26        63.64235
397.71        63.48832
398.15        63.09233
398.60         62.5882
399.05        62.03946
399.50        61.51654
399.95        60.92974
400.39        60.59555
400.84        60.33122
401.29        60.21622
401.74        60.33327
402.18         60.6033
402.63        60.64724
403.08        60.53422
403.53        60.65598
403.97        61.01498
404.42        61.36739
404.87        61.54963
405.32         61.3925
405.76         60.8665
406.21         60.1133
406.66         59.3656
407.11        58.94577
407.55        58.95824
408.00        59.31503
408.45        59.84989
408.90        60.25758
409.34        60.33829
409.79        59.96117
410.24        59.34577
410.68        59.03588
411.13        59.12013
411.58        59.31783
412.03        59.57578
412.47        59.91146
412.92        60.23134
413.37        60.55046
413.81        60.78878
414.26        60.86009
414.71        60.74024
415.15        60.44959
415.60        60.08328
416.05        59.81954
416.49        59.71768
416.94        59.75669
417.39        59.84211
417.83        59.79333
418.28        59.58639
418.73        59.28312
419.17        59.03579
419.62        59.09454
420.07        59.46872
420.51        60.06391
420.96        60.67419
421.41        60.92391
421.85         60.7099
422.30        60.33701
422.74        59.91582
423.19        59.48704
423.64        59.18704
424.08        59.47981
424.53        60.22635
424.98        60.72254
425.42        60.85915
425.87        61.13663
426.31        61.54388
426.76        61.53456
427.21        61.30059
427.65        61.68281
428.10        62.57382
428.54        63.26569
428.99        63.71406
429.44        63.90311
429.88        63.84162
430.33        64.43661
430.77        65.16782
431.22        63.95924
431.66        61.47081
432.11        60.69958
432.56        61.72359
433.00         62.7117
433.45        63.48963
433.89        64.91434
434.34        65.74621
434.78        67.32154
435.23        63.59935
435.67        61.58282
436.12        64.14169
436.57        65.38599
437.01        66.13084
437.46        66.60008
437.90        66.84507
438.35        66.17336
438.79        66.64521
439.24        66.53266
439.68         66.4811
440.13        66.22773
440.57        66.07963
441.02        67.07996
441.46        68.78218
441.91        69.60717
442.35        69.36049
442.80        68.50279
443.24        67.47229
443.69        68.04665
444.13        69.82221
444.58        69.86961
445.02        68.21585
445.47        67.97919
445.91        69.03849
446.36         69.3999
446.80        69.00225
447.24        68.88799
447.69        69.13809
448.13        69.44122
448.58         69.7997
449.02        70.23981
449.47        70.67439
449.91        70.97756
450.36        71.11681
450.80        71.10844
451.25         70.9988
451.69        70.83401
452.13        70.66814
452.58        70.50616
453.02        70.39153
453.47        70.42794
453.91        70.59838
454.36        70.87716
454.80        71.21463
455.24        71.30124
455.69        71.07988
456.13        71.02097
456.58        71.21342
457.02        70.17219
457.46        69.83889
457.91         70.0125
458.35        70.93546
458.79        71.27127
459.24        70.96592
459.68         70.6699
460.13        70.48717
460.57         70.2321
461.01        69.97704
461.46         69.7811
461.90        69.61687
462.34        69.67457
462.79        69.38037
463.23        69.73629
463.68        70.40685
464.12        70.79443
464.56        70.79587
465.01        70.72801
465.45        70.54842
465.89        70.41476
466.34         70.2102
466.78        69.47885
467.22        68.16301
467.67        67.74246
468.11        68.99261
468.55        69.65477
468.99        69.71466
469.44        69.41709
469.88        68.97913
470.32        69.09496
470.77        69.66865
471.21        69.80573
471.65        69.44928
472.10        69.26275
472.54        69.29269
472.98        69.28776
473.42        69.24405
473.87        69.36082
474.31        69.52369
474.75        69.34082
475.20        68.92786
475.64        68.83013
476.08        69.05764
476.52        69.09045
476.97        68.90109
477.41        68.94066
477.85        69.25652
478.29        68.97511
478.74         69.4023
479.18        69.52837
479.62         68.5896
480.06        69.10792
480.50          69.496
480.95        69.89561
481.39        69.94009
481.83        69.07674
482.27        69.34223
482.72        69.14444
483.16         67.9212
483.60        68.24589
484.04        69.75139
484.48        70.17001
484.93        69.95756
485.37        71.49121
485.81        71.77274
486.25        70.62378
486.69        94.11715
487.14        76.27637
487.58        48.15153
488.02        59.43699
488.46        67.49306
488.90        66.76804
489.34         68.6013
489.79        67.59421
490.23         70.0258
490.67         70.8071
491.11        69.64066
491.55        69.59071
491.99        70.23277
492.43        70.13557
492.88        69.36734
493.32        69.30732
493.76        69.48447
494.20        69.75529
494.64        69.87183
495.08        70.13322
495.52        70.51405
495.96         70.3989
496.41        69.86839
496.85        70.35546
497.29        71.51974
497.73        70.47496
498.17        68.22681
498.61        68.34582
499.05        70.84417
499.49         71.4141
499.93        71.51283
500.37        71.06789
500.82        70.10439
501.26        70.12391
501.70        70.84357
502.14        71.18274
502.58        70.93974
503.02        70.78381
503.46        70.70373
503.90        70.31422
504.34        69.77714
504.78        69.55156
505.22        69.70526
505.66        70.06039
506.10        70.46149
506.54        70.77531
506.98        70.86112
507.42        70.51439
507.86        69.94419
508.30        69.72288
508.74           69.93
509.18        70.30717
509.62        70.68852
510.06        70.88874
510.50        70.84393
510.94         70.6247
511.38        70.36995
511.82        70.28987
512.26        70.43641
512.70        70.73756
513.14        71.08342
513.58         71.2982
514.02        71.32613
514.46        71.22189
514.90        71.06538
515.34        70.96326
515.78        70.94006
516.22        71.02241
516.66        71.16093
517.10        71.11283
517.54        70.85806
517.98         71.0277
518.42        70.83592
518.86        70.95408
519.30        71.13935
519.74        71.42729
520.18        71.73265
520.62         71.9136
521.06        71.94415
521.50        71.86021
521.93        71.71828
522.37        71.61012
522.81        71.57258
523.25        71.58271
523.69        71.62505
524.13        71.67549
524.57         71.7251
525.01        71.78392
525.45        71.85448
525.89        71.93712
526.32        72.01914
526.76         72.0907
527.20        72.13248
527.64         72.1365
528.08        72.11962
528.52        72.03049
528.96        71.85682
529.40        71.78264
529.83        71.85532
530.27        71.29179
530.71        71.52702
531.15        71.47069
531.59        71.54673
532.03         71.6935
532.46         71.9048
532.90        72.13271
533.34        72.33699
533.78        72.52952
534.22        72.65392
534.66        72.63631
535.09        72.46419
535.53        72.18755
535.97        71.88789
536.41         71.7181
536.85        71.71758
537.28        71.84876
537.72        72.02562
538.16        72.11833
538.60        72.09128
539.04        71.92884
539.47        71.69884
539.91        71.69621
540.35        71.86449
540.79        71.86802
541.22        71.69859
541.66        71.63424
542.10        71.66986
542.54        71.63904
542.97         71.5657
543.41        71.59538
543.85        71.72128
544.29        71.91661
544.72        72.08482
545.16        72.08446
545.60        71.88042
546.04        71.58648
546.47        71.33511
546.91        71.18166
547.35        71.24506
547.79         71.8559
548.22        72.69686
548.66        72.95306
549.10        72.51284
549.53         71.6889
549.97        70.84894
550.41        70.44794
550.84        70.59983
551.28        71.14908
551.72        71.85464
552.15        72.26008
552.59        72.23428
553.03        72.16193
553.46        71.74352
553.90        71.59652
554.34         71.6556
554.77        71.75963
555.21         71.8414
555.65         72.0368
556.08        72.35614
556.52        71.89613
556.96        72.32239
557.39        72.20809
557.83        72.09395
558.27        71.98643
558.70        71.95079
559.14        72.02746
559.57        72.19236
560.01        72.44697
560.45         72.6804
560.88        72.75199
561.32        72.63958
561.75         72.2712
562.19        71.81865
562.63         71.4787
563.06        71.33758
563.50        71.48017
563.93        71.78734
564.37        72.00423
564.80         72.0386
565.24        71.98313
565.68        71.87571
566.11        71.80885
566.55        71.84633
566.98        71.88206
567.42        71.93217
567.85        72.09041
568.29        72.36873
568.72        72.44821
569.16        72.47659
569.60        72.81961
570.03        73.13195
570.47        72.88278
570.90        72.43329
571.34         70.4956
571.77        71.71337
572.21         71.6544
572.64        70.93568
573.08        70.57271
573.51        67.52538
573.95        70.07923
574.38        73.96673
574.82        72.23447
