SpectraSmart Spectrum 2.9.0.0
--------- Device Information -----------
Spectrum Name :  反射率_0
Saving Time :  2024/04/26 02:09:38
Spectro-Module Model Name : SE2030-DUVN
Spectro-Module Serial Number : OS361AC55029948
Wavelength Start : 200
Wavelength End : 1025
Wavelength Unit : Wavelength(nm)
Spectrum Unit : Reflectance(%)
-----------Spectrum Setting ------------
Integration Time : 20ms
Average : 10
Boxcar : 0
Background removal :  enabled
linearity correction :  enabled
SC :  disabled
Intensity correction :  disabled
DWT denoise :  enabled
savitzky-golay :  disabled
FFT :  disabled
Running average :  disabled
Kalman :  disabled
High pass :  disabled
---------------BEGIN--------------------
Wavelength(nm)             Reflectance(%)
200.29               0
200.75         83.8568
201.21        81.76363
201.67         78.4108
202.13         75.9903
202.58        74.94353
203.04         75.0221
203.50        75.34683
203.96         74.7075
204.42        73.10526
204.88        71.16443
205.34        69.94869
205.80        70.65142
206.26        74.05094
206.72         82.3304
207.18        99.12543
207.64        115.3781
208.10        108.4205
208.55        89.79671
209.01        77.50465
209.47        73.50616
209.93        74.39088
210.39        78.29099
210.85         82.6407
211.31        82.15591
211.77        75.46709
212.23        64.91865
212.69        54.67962
213.14        51.03426
213.60        54.98721
214.06        64.79704
214.52        76.75541
214.98        85.05286
215.44        87.89805
215.90        86.92964
216.36         84.0373
216.81        81.77275
217.27        81.15203
217.73        81.19788
218.19        80.80648
218.65        78.50146
219.11        73.49895
219.57        65.06355
220.02        53.87724
220.48        45.89943
220.94        44.83939
221.40        49.88782
221.86        55.21003
222.32        54.25016
222.77        47.68166
223.23        39.18728
223.69        32.39643
224.15        31.04707
224.61        34.58999
225.06        40.99631
225.52        47.43375
225.98        50.47289
226.44        49.46644
226.90         45.9099
227.36        41.63477
227.81        39.06131
228.27        39.05045
228.73        40.60087
229.19        42.87187
229.65        44.64438
230.10        45.54147
230.56        45.99539
231.02         46.3457
231.48        46.95436
231.93        47.82585
232.39        48.76536
232.85        49.53685
233.31        49.85402
233.77        49.64477
234.22        49.04151
234.68        48.16704
235.14        47.23313
235.60         46.4418
236.05        45.84349
236.51        45.56219
236.97        45.69913
237.43        46.33863
237.88        47.68198
238.34        49.74276
238.80         52.3581
239.26        55.16747
239.71        58.00544
240.17        60.51032
240.63        62.87221
241.08        65.13683
241.54        66.97659
242.00        68.37957
242.46         69.4949
242.91         70.7747
243.37        72.68559
243.83        78.25385
244.28        99.32665
244.74          128.48
245.20        119.1411
245.66        107.6244
246.11        105.1021
246.57        108.9276
247.03        123.3034
247.48        165.8605
247.94        146.1389
248.40        101.2038
248.85        87.11226
249.31        83.17215
249.77        83.31627
250.22        86.00161
250.68        91.39373
251.14        99.51949
251.59        105.5547
252.05        104.4129
252.51        98.15283
252.96        90.86837
253.42        87.15771
253.88        86.68281
254.33        87.64301
254.79        90.01591
255.25        93.18089
255.70        96.24725
256.16         99.4141
256.62         101.168
257.07        99.89033
257.53        96.48247
257.99        91.45882
258.44        86.37975
258.90        84.09129
259.35        83.60513
259.81        83.94003
260.27        83.36179
260.72          80.201
261.18        75.27675
261.63        69.31139
262.09        63.76833
262.55        59.58849
263.00         56.7916
263.46        55.06166
263.91        53.71178
264.37        52.34654
264.83        50.71105
265.28        48.82926
265.74        47.03691
266.19        45.56109
266.65        44.61677
267.11        44.01993
267.56        43.45161
268.02         42.5336
268.47        41.14632
268.93         39.4251
269.38        37.61615
269.84        36.37885
270.30        35.87759
270.75        35.92857
271.21        36.14875
271.66        35.95629
272.12        35.20259
272.57        34.07076
273.03        32.87283
273.48         31.9895
273.94        31.54788
274.39        31.37299
274.85         31.2803
275.31        30.98895
275.76        30.42518
276.22        29.72054
276.67         28.9949
277.13        28.51427
277.58         28.2654
278.04         28.1786
278.49        28.06744
278.95        27.74368
279.40        27.14837
279.86        26.42516
280.31        25.65563
280.77        25.07549
281.22        24.69742
281.68        24.47586
282.13        24.35135
282.59        24.27931
283.04        24.22207
283.50        24.22737
283.95        24.22483
284.41        24.12704
284.86        23.91805
285.32        23.63135
285.77        23.38365
286.22        23.41926
286.68        23.74262
287.13        24.24083
287.59        24.70704
288.04        24.82289
288.50        24.55839
288.95        24.00919
289.41        23.38268
289.86        22.88001
290.32        22.62342
290.77        22.54103
291.22        22.61749
291.68        22.78772
292.13        23.03614
292.59        23.39666
293.04        23.88809
293.50        24.53298
293.95        25.30847
294.40        26.16229
294.86        27.03875
295.31        27.87105
295.77         28.6525
296.22        29.41493
296.68        30.17036
297.13        30.90626
297.58        31.65315
298.04        32.43404
298.49        33.33403
298.95        34.53072
299.40        36.03131
299.85        37.76896
300.31        39.58138
300.76         41.2085
301.21         42.5502
301.67        43.69685
302.12        44.68574
302.58        45.67207
303.03        46.68357
303.48        47.70832
303.94        48.81652
304.39         50.0605
304.84         51.4531
305.30        52.97733
305.75        54.49761
306.20        55.82119
306.66        56.92688
307.11        57.83021
307.57        58.67394
308.02        59.56782
308.47         60.5975
308.93        61.73228
309.38        62.91564
309.83        64.10523
310.29        65.26402
310.74         66.3699
311.19        67.42891
311.65        68.45224
312.10        69.42751
312.55        70.35322
313.00        71.15674
313.46        71.73187
313.91         72.0551
314.36        72.18542
314.82        72.28419
315.27        72.55502
315.72         73.0796
316.18        73.80643
316.63        74.63097
317.08        75.33321
317.53        75.83994
317.99        76.19341
318.44        76.51004
318.89          76.989
319.35        77.65221
319.80        78.45332
320.25        79.19454
320.70        79.55872
321.16        79.48429
321.61        79.07848
322.06        78.58837
322.51        78.40248
322.97        78.59649
323.42        79.09409
323.87        79.68709
324.32        80.01331
324.78        79.96619
325.23        79.69743
325.68         79.3636
326.13        79.24153
326.59        79.39327
327.04        79.75111
327.49        80.22218
327.94        80.68237
328.39        81.07549
328.85         81.4255
329.30        81.76068
329.75        81.98347
330.20        82.10316
330.66        82.12527
331.11         82.2067
331.56        82.53463
332.01        83.16615
332.46        84.04236
332.92        85.02957
333.37         86.0344
333.82        86.90709
334.27        87.66755
334.72        88.25811
335.17        88.60694
335.63        88.72123
336.08        88.65948
336.53        88.54357
336.98        88.61804
337.43        88.94979
337.88        89.47609
338.34        90.11606
338.79        90.80977
339.24        91.47447
339.69        92.15721
340.14        92.74724
340.59        93.05235
341.05        93.05739
341.50        92.80273
341.95        92.54084
342.40        92.67333
342.85        93.27561
343.30        94.23997
343.75        95.28744
344.20        95.91978
344.66        96.00905
345.11        95.69082
345.56        95.22503
346.01        95.00611
346.46        95.14181
346.91        95.51138
347.36        95.96143
347.81        96.25899
348.26        96.34856
348.72        96.33689
349.17         96.3064
349.62        96.43397
350.07        96.74895
350.52        97.15738
350.97        97.56273
351.42        97.83643
351.87        97.93771
352.32        97.91368
352.77        97.77491
353.22         97.5361
353.67         97.2256
354.13        96.86084
354.58        96.48197
355.03        96.21068
355.48        96.06287
355.93        96.00232
356.38        95.95189
356.83        95.78182
357.28        95.45189
357.73        94.99832
358.18        94.45039
358.63        93.85764
359.08        93.25194
359.53        92.63217
359.98        92.01746
360.43        91.43741
360.88        90.89327
361.33        90.37104
361.78        89.87503
362.23        89.40697
362.68         88.9616
363.13        88.54736
363.58        88.09943
364.03         87.5136
364.48        86.78278
364.93        85.94014
365.38        85.11262
365.83        84.50962
366.28        84.16578
366.73         84.0013
367.18          83.882
367.63        83.58643
368.08        83.06252
368.53        82.40646
368.98        81.67741
369.43         80.9579
369.88        80.28834
370.33        79.63167
370.78        79.06808
371.23         78.7374
371.68        78.65132
372.13        78.77526
372.58        78.93515
373.03        78.82827
373.48        78.38831
373.93        77.71098
374.38        76.97772
374.83        76.46936
375.28        76.25128
375.72        76.21886
376.17        76.27589
376.62        76.24004
377.07        76.04173
377.52          75.722
377.97        75.31713
378.42        74.88414
378.87        74.45337
379.32        74.02299
379.77        73.56026
380.22        73.01436
380.67        72.38188
381.11        71.68594
381.56        71.02837
382.01        70.57668
382.46        70.37504
382.91        70.39397
383.36        70.47201
383.81          70.349
384.26        69.97173
384.71         69.4036
385.15        68.83109
385.60        68.60247
386.05        68.72398
386.50        69.06841
386.95        69.37997
387.40        69.23708
387.85        68.59483
388.29        67.63927
388.74        66.70583
389.19         66.0011
389.64        65.56637
390.09        65.27367
390.54        65.15977
390.98        65.28793
391.43        65.62396
391.88        66.12958
392.33        66.52752
392.78         66.4021
393.23        65.74966
393.67        64.71476
394.12        63.73661
394.57        63.23449
395.02        63.29497
395.47        63.75762
395.91        64.45282
396.36        64.97693
396.81         65.1881
397.26        65.16363
397.71        64.95065
398.15        64.54714
398.60         64.0832
399.05        63.63673
399.50        63.22805
399.95        62.58432
400.39        62.08038
400.84        61.79269
401.29        61.80169
401.74        61.98751
402.18        62.23807
402.63        62.22203
403.08        62.03357
403.53        62.12517
403.97        62.50414
404.42        62.87155
404.87        63.06553
405.32         62.9255
405.76        62.40928
406.21        61.72017
406.66        61.05507
407.11        60.51377
407.55        60.27173
408.00        60.65828
408.45        61.46421
408.90        61.87761
409.34        61.68979
409.79        61.15365
410.24        60.52132
410.68        60.17177
411.13        60.19738
411.58        60.39305
412.03        60.68197
412.47        61.00615
412.92        61.26038
413.37        61.48516
413.81        61.62059
414.26        61.61308
414.71        61.44783
415.15        61.12899
415.60        60.75459
416.05        60.51105
416.49         60.4501
416.94        60.54354
417.39        60.66726
417.83        60.58934
418.28        60.28014
418.73        59.82768
419.17        59.41285
419.62        59.32608
420.07        59.58622
420.51        60.08271
420.96        60.62928
421.41        60.86047
421.85        60.66425
422.30        60.39801
422.74        60.09696
423.19        59.55981
423.64        58.97172
424.08        59.12345
424.53        59.89158
424.98         60.3106
425.42        60.26928
425.87        60.47027
426.31        60.87642
426.76        60.75128
427.21        60.29876
427.65        60.52439
428.10        61.34578
428.54        61.97857
428.99        62.37617
429.44        62.56565
429.88        62.54042
430.33        63.12754
430.77        63.80232
431.22        62.58632
431.66        60.09911
432.11         59.1501
432.56        59.85471
433.00        60.64647
433.45        61.43119
433.89        62.88432
434.34        63.71313
434.78        65.56527
435.23        61.97617
435.67        59.73351
436.12        62.36942
436.57        63.43318
437.01        64.02898
437.46        64.36169
437.90        64.61883
438.35        63.99717
438.79        64.52522
439.24        64.33409
439.68        64.07098
440.13        63.64348
440.57        63.35478
441.02        64.09979
441.46        65.50059
441.91        66.16214
442.35         65.9131
442.80        65.26197
443.24        64.54048
443.69        65.06033
444.13        66.45402
444.58        66.63912
445.02        65.07389
445.47        64.95966
445.91        65.98458
446.36        66.31982
446.80        65.89757
447.24        65.70808
447.69        65.84177
448.13        66.00733
448.58        66.21795
449.02        66.50347
449.47        66.80132
449.91        67.02035
450.36        67.13552
450.80        67.15555
451.25        67.09555
451.69        66.95481
452.13        66.76849
452.58        66.54227
453.02        66.34536
453.47        66.32068
453.91        66.46844
454.36        66.76105
454.80        67.10353
455.24         67.1561
455.69        66.85602
456.13        66.58415
456.58        66.54356
457.02        65.64847
457.46        65.67267
457.91        66.03169
458.35        66.44112
458.79        66.65033
459.24         66.4704
459.68        66.13801
460.13        65.71918
460.57        65.42181
461.01        65.38437
461.46        64.76456
461.90        64.53054
462.34        65.03118
462.79        64.42467
463.23         64.5451
463.68        64.86486
464.12        65.28156
464.56        65.65495
465.01        65.64867
465.45         65.2626
465.89        65.09774
466.34        65.03232
466.78        64.20695
467.22        63.14602
467.67        62.30954
468.11        63.83186
468.55        64.47253
468.99        64.55828
469.44        64.27176
469.88        63.80417
470.32        63.78634
470.77        64.15186
471.21         64.1622
471.65        63.78732
472.10        63.61988
472.54        63.68067
472.98         63.7133
473.42        63.70458
473.87        63.81466
474.31        63.95451
474.75        63.85699
475.20        63.58955
475.64        63.48563
476.08         63.5871
476.52        63.54071
476.97        63.31403
477.41        63.37214
477.85         63.7718
478.29        63.14215
478.74        63.57833
479.18        63.70954
479.62        62.75584
480.06        63.29744
480.50        63.57423
480.95        63.82051
481.39        63.60847
481.83        63.18489
482.27        62.91656
482.72         63.0214
483.16        61.77018
483.60        62.05547
484.04        63.47871
484.48        63.84779
484.93        63.61882
485.37        65.04039
485.81        65.67301
486.25        64.33316
486.69        86.17284
487.14        70.12362
487.58        43.83556
488.02         54.1549
488.46        61.70086
488.90        61.28499
489.34        62.43798
489.79        62.04934
490.23         63.7359
490.67        64.46918
491.11        63.39373
491.55        63.29718
491.99        63.78844
492.43        63.62642
492.88        62.90691
493.32        62.85032
493.76        62.99543
494.20         63.2019
494.64        63.25314
495.08        63.29246
495.52        63.38779
495.96        63.47563
496.41        63.49509
496.85        63.89008
497.29        64.43491
497.73        63.44712
498.17        61.80151
498.61        62.00594
499.05        64.06243
499.49        64.53286
499.93        64.74377
500.37         64.3863
500.82        63.48476
501.26        63.48335
501.70        64.12905
502.14        64.51202
502.58        64.30486
503.02          64.188
503.46        64.10302
503.90        63.72625
504.34        63.20919
504.78        62.94363
505.22        62.97976
505.66         63.2506
506.10        63.65034
506.54        63.77401
506.98        63.50839
507.42        63.57232
507.86        63.45393
508.30        62.82234
508.74        63.38004
509.18        63.58169
509.62        63.85828
510.06        63.98464
510.50        63.93474
510.94        63.74808
511.38        63.51672
511.82        63.42894
512.26        63.52413
512.70         63.7451
513.14        64.00641
513.58        64.17049
514.02         64.1913
514.46        64.10719
514.90        63.98317
515.34        63.90172
515.78        63.87516
516.22        63.94981
516.66        64.07637
517.10        63.97163
517.54        63.61683
517.98        63.79263
518.42        63.50856
518.86        63.59196
519.30        63.73913
519.74        64.00396
520.18          64.298
520.62        64.46848
521.06        64.49108
521.50        64.40741
521.93        64.27061
522.37        64.16825
522.81        64.13541
523.25        64.14371
523.69        64.19469
524.13         64.2926
524.57        64.42776
525.01        64.59951
525.45         64.7667
525.89        64.86002
526.32        64.85538
526.76        64.76584
527.20        64.62881
527.64        64.52501
528.08        64.48999
528.52        64.45189
528.96        64.35591
529.40        64.29546
529.83        64.29845
530.27        63.69561
530.71        63.80029
531.15        63.68189
531.59        63.73308
532.03        63.88047
532.46        64.11469
532.90        64.39074
533.34        64.65874
533.78        64.92087
534.22        65.10359
534.66        65.10609
535.09        64.91286
535.53        64.58499
535.97        64.20778
536.41        63.93871
536.85        63.82733
537.28        63.84213
537.72        63.93655
538.16        64.02914
538.60        64.08735
539.04         64.1216
539.47        64.06893
539.91        64.16946
540.35        64.33413
540.79        64.28397
541.22        64.05051
541.66        63.94862
542.10         63.9915
542.54        64.00786
542.97         63.9936
543.41        64.04031
543.85        64.13274
544.29         64.2635
544.72        64.36076
545.16        64.32419
545.60        64.13029
546.04        63.85094
546.47        63.60133
546.91        63.47406
547.35        63.54306
547.79        64.01022
548.22        64.62968
548.66        64.76745
549.10        64.37054
549.53        63.79222
549.97        63.27203
550.41         62.9739
550.84        62.97831
551.28         63.2528
551.72        63.65927
552.15        63.93447
552.59         64.0047
553.03        63.95037
553.46        63.82674
553.90         63.7816
554.34        63.84507
554.77        63.89677
555.21        63.89784
555.65        63.98959
556.08        64.19205
556.52        63.71384
556.96        64.04718
557.39         63.9185
557.83        63.82634
558.27        63.85232
558.70        64.00146
559.14        64.14748
559.57        64.24449
560.01        64.37064
560.45        64.48546
560.88        64.48779
561.32        64.38291
561.75        64.20709
562.19        64.02797
562.63        63.68739
563.06        63.31461
563.50        63.41104
563.93        63.85132
564.37        64.03278
564.80        63.88641
565.24         63.7672
565.68        63.71308
566.11        63.65485
566.55        63.64953
566.98        63.68008
567.42        63.74545
567.85        63.87404
568.29        64.07465
568.72        64.08544
569.16        64.07924
569.60        64.41252
570.03        64.77044
570.47        64.74194
570.90        64.58223
571.34        62.81686
571.77        63.60161
572.21        63.65039
572.64        63.15999
573.08        62.54094
573.51        59.82299
573.95        62.14821
574.38        65.84159
574.82         64.5022
