SpectraSmart Spectrum 2.9.0.0
--------- Device Information -----------
Spectrum Name :  反射率_0
Saving Time :  2024/04/26 01:06:48
Spectro-Module Model Name : SE2030-DUVN
Spectro-Module Serial Number : OS361AC55029948
Wavelength Start : 200
Wavelength End : 1025
Wavelength Unit : Wavelength(nm)
Spectrum Unit : Reflectance(%)
-----------Spectrum Setting ------------
Integration Time : 20ms
Average : 10
Boxcar : 0
Background removal :  enabled
linearity correction :  enabled
SC :  disabled
Intensity correction :  disabled
DWT denoise :  enabled
savitzky-golay :  disabled
FFT :  disabled
Running average :  disabled
Kalman :  disabled
High pass :  disabled
---------------BEGIN--------------------
Wavelength(nm)             Reflectance(%)
200.29               0
200.75        100.6963
201.21        91.13115
201.67        80.12682
202.13        73.69377
202.58        72.52619
203.04        75.33591
203.50        79.55816
203.96        80.81508
204.42        78.35805
204.88        74.14555
205.34        70.31284
205.80        68.83538
206.26         70.3002
206.72        75.78487
207.18         87.6641
207.64        98.70504
208.10        92.51141
208.55         78.6411
209.01        70.08505
209.47        68.12136
209.93        70.30102
210.39        75.49377
210.85        81.29066
211.31        82.41695
211.77          77.343
212.23        68.08205
212.69        59.37349
213.14        58.51494
213.60        66.49474
214.06          81.048
214.52        96.59211
214.98        104.6382
215.44        103.2426
215.90        95.35617
216.36        85.20655
216.81        78.67747
217.27        77.36349
217.73        79.17416
218.19        81.24181
218.65        79.78933
219.11        73.48932
219.57         61.9342
220.02        46.91528
220.48        38.25271
220.94        41.43944
221.40        53.36463
221.86         64.8375
222.32        66.41197
222.77        59.10041
223.23         48.3745
223.69         38.8367
224.15        35.06193
224.61        36.67019
225.06        41.23601
225.52        46.25474
225.98        48.87772
226.44        48.42662
226.90        46.24231
227.36        43.28122
227.81        40.64235
228.27        39.05988
228.73        38.01265
229.19        37.71973
229.65        38.56508
230.10        40.26797
230.56        42.39629
231.02        44.42366
231.48        45.73643
231.93        46.26051
232.39        46.26044
232.85        45.76282
233.31        44.83642
233.77        43.57457
234.22        41.94001
234.68        40.30895
235.14        39.39827
235.60         39.4644
236.05        40.39992
236.51         41.7361
236.97        42.72432
237.43        43.22832
237.88        43.48817
238.34        43.79816
238.80        44.97588
239.26        47.30741
239.71        50.54346
240.17        53.98093
240.63        56.97503
241.08        59.33445
241.54        61.07494
242.00        62.63061
242.46        64.93323
242.91        69.29462
243.37        78.43178
243.83        104.0542
244.28        179.7738
244.74        252.8107
245.20        196.0349
245.66        151.8639
246.11        139.6519
246.57        144.8277
247.03        172.8787
247.48        256.9273
247.94        206.6122
248.40        114.6601
248.85        87.75739
249.31         80.3699
249.77        80.37386
250.22        84.74669
250.68        93.69212
251.14         107.472
251.59         118.753
252.05        118.8114
252.51        110.1588
252.96        98.79222
253.42        91.33066
253.88        87.68292
254.33        85.53114
254.79        85.42921
255.25        87.61675
255.70        91.07814
256.16        95.46579
256.62        98.31792
257.07        97.09579
257.53        92.73026
257.99        86.10155
258.44        79.47855
258.90        76.45126
259.35        76.02225
259.81        76.83106
260.27        76.55714
260.72        72.98016
261.18        67.04855
261.63         59.8581
262.09        53.41722
262.55         49.3423
263.00        47.51075
263.46        47.11024
263.91        46.94097
264.37        46.03603
264.83        44.18415
265.28        41.66248
265.74        39.15167
266.19        37.43404
266.65        36.77217
267.11        36.73913
267.56        36.73918
268.02        36.06388
268.47        34.58488
268.93        32.56163
269.38        30.39726
269.84         29.0169
270.30        28.66755
270.75        29.07038
271.21        29.71888
271.66        29.86052
272.12        29.29135
272.57         28.2486
273.03        27.09943
273.48        26.31134
273.94         26.0286
274.39        26.05023
274.85        26.13504
275.31        25.93662
275.76        25.37554
276.22        24.60429
276.67        23.82102
277.13        23.38759
277.58        23.30473
278.04         23.4569
278.49        23.57069
278.95        23.32159
279.40         22.6457
279.86         21.7353
280.31        20.77467
280.77        20.14036
281.22          19.874
281.68        19.86604
282.13        19.98158
282.59        20.05857
283.04        20.04019
283.50        20.01094
283.95        19.94755
284.41        19.82365
284.86        19.64495
285.32        19.41987
285.77        19.24787
286.22        19.34468
286.68        19.70641
287.13        20.23519
287.59        20.73552
288.04        20.90996
288.50        20.72802
288.95        20.28087
289.41        19.75544
289.86        19.33247
290.32        19.12738
290.77        19.07712
291.22        19.18612
291.68         19.4205
292.13        19.77124
292.59        20.26157
293.04         20.8848
293.50        21.62007
293.95        22.43902
294.40        23.30731
294.86        24.20033
295.31        25.10053
295.77        26.01356
296.22        26.95598
296.68        27.92043
297.13        28.86171
297.58        29.79641
298.04        30.75445
298.49        31.82706
298.95        33.20113
299.40        34.89245
299.85        36.83799
300.31        38.87383
300.76        40.73464
301.21        42.32277
301.67        43.73332
302.12        45.02493
302.58        46.38636
303.03        47.84563
303.48        49.37182
303.94        51.00546
304.39        52.75055
304.84         54.6077
305.30        56.57761
305.75        58.52352
306.20        60.25434
306.66         61.7508
307.11        63.01171
307.57        64.21221
308.02         65.5092
308.47        66.99261
308.93         68.6166
309.38        70.25362
309.83        71.75259
310.29        73.05608
310.74        74.17106
311.19        75.19181
311.65        76.26471
312.10        77.41063
312.55        78.60241
313.00        79.68476
313.46        80.41096
313.91        80.73088
314.36        80.75597
314.82        80.75762
315.27        81.09898
315.72        81.89356
316.18        83.02782
316.63         84.2923
317.08        85.29366
317.53        85.90501
317.99        86.21832
318.44        86.41814
318.89        86.81647
319.35        87.46716
319.80        88.28807
320.25        89.05224
320.70        89.39697
321.16        89.25197
321.61        88.76167
322.06        88.18333
322.51        87.90946
322.97        88.02648
323.42        88.46291
323.87        89.04571
324.32        89.47398
324.78        89.64376
325.23        89.67914
325.68        89.67662
326.13        89.82199
326.59        90.13976
327.04        90.57987
327.49        91.05846
327.94        91.47916
328.39        91.80403
328.85         92.0522
329.30        92.27886
329.75          92.414
330.20        92.48505
330.66        92.50469
331.11        92.63428
331.56        93.05412
332.01        93.81274
332.46        94.83949
332.92        95.98334
333.37        97.14513
333.82        98.15427
334.27         99.0365
334.72        99.69701
335.17         100.009
335.63        99.98573
336.08        99.71767
336.53         99.4343
336.98        99.55251
337.43        100.1729
337.88        101.1808
338.34         102.373
338.79         103.493
339.24        104.3864
339.69        105.1393
340.14        105.7023
340.59        105.9993
341.05        106.0588
341.50        105.8856
341.95        105.6908
342.40        105.8203
342.85        106.3484
343.30        107.2002
343.75        108.1624
344.20        108.8378
344.66        109.1164
345.11        109.0856
345.56        108.9217
346.01        108.8966
346.46        109.0903
346.91        109.4224
347.36        109.7841
347.81        110.0162
348.26         110.087
348.72        110.0729
349.17         110.063
349.62        110.2407
350.07        110.6298
350.52        111.1466
350.97         111.647
351.42        111.9242
351.87        111.9315
352.32        111.7375
352.77        111.4377
353.22        111.1851
353.67        111.0287
354.13        110.9349
354.58         110.839
355.03        110.7012
355.48        110.4975
355.93        110.2452
356.38        109.9413
356.83        109.5744
357.28        109.1444
357.73         108.654
358.18        108.1079
358.63        107.5166
359.08        106.8985
359.53        106.2722
359.98        105.6586
360.43         105.085
360.88        104.5492
361.33        104.0242
361.78         103.518
362.23        103.0434
362.68        102.5958
363.13        102.1853
363.58        101.7209
364.03        101.0575
364.48        100.1845
364.93         99.1452
365.38        98.12216
365.83        97.41435
366.28         97.0711
366.73        96.98418
367.18        96.94122
367.63        96.59335
368.08        95.86156
368.53        94.88729
368.98        93.81044
369.43         92.8332
369.88        92.03075
370.33        91.33882
370.78        90.78416
371.23         90.4194
371.68        90.22843
372.13        90.19324
372.58        90.20264
373.03        90.05547
373.48        89.70272
373.93        89.20707
374.38        88.63483
374.83        88.09695
375.28        87.63029
375.72        87.17809
376.17         86.7961
376.62        86.55331
377.07        86.43484
377.52        86.40617
377.97        86.32601
378.42        85.96471
378.87        85.29965
379.32         84.4427
379.77        83.53072
380.22         82.7546
380.67         82.1611
381.11        81.68315
381.56        81.32185
382.01        81.08396
382.46        80.95436
382.91        80.95251
383.36        80.94041
383.81        80.69654
384.26         80.1865
384.71        79.45227
385.15        78.69819
385.60        78.31136
386.05         78.3026
386.50        78.55645
386.95        78.78857
387.40        78.52653
387.85        77.72769
388.29        76.58818
388.74        75.52299
389.19        74.81077
389.64        74.49023
390.09         74.4001
390.54        74.48296
390.98        74.64404
391.43         74.8147
391.88         75.0154
392.33        75.08694
392.78        74.73997
393.23        73.99589
393.67        73.03459
394.12         72.2402
394.57        71.52676
395.02         71.5894
395.47        71.86851
395.91        72.42183
396.36        72.84821
396.81        73.03418
397.26        73.04819
397.71         72.9061
398.15        72.54723
398.60        72.08978
399.05        71.65898
399.50        71.26105
399.95        70.51135
400.39        69.86182
400.84        69.51795
401.29        69.55779
401.74        69.74598
402.18        69.94157
402.63        69.78607
403.08        69.45559
403.53        69.58578
403.97        70.19992
404.42        70.90656
404.87        71.41583
405.32        71.38767
405.76        70.73341
406.21        69.71243
406.66        68.67136
407.11        67.93774
407.55        67.72066
408.00        68.27581
408.45        69.29289
408.90         69.7214
409.34        69.34028
409.79        68.64964
410.24        67.94507
410.68        67.50282
411.13        67.43295
411.58        67.60457
412.03        67.93181
412.47        68.29278
412.92        68.56642
413.37        68.82069
413.81        68.98775
414.26        69.00234
414.71        68.84598
415.15        68.51559
415.60        68.12695
416.05        67.89924
416.49        67.89178
416.94        68.07055
417.39        68.27362
417.83        68.20734
418.28        67.82837
418.73        67.23687
419.17        66.68533
419.62        66.57753
420.07        66.95451
420.51        67.68073
420.96        68.45975
421.41         68.7869
421.85        68.51975
422.30        67.95045
422.74        67.28086
423.19        66.82359
423.64        66.67301
424.08        66.95764
424.53        67.50378
424.98        67.89037
425.42        68.02973
425.87        68.12934
426.31        68.24902
426.76        68.33173
427.21        68.46174
427.65        68.74213
428.10        69.13207
428.54        69.72108
428.99        70.46576
429.44        70.83263
429.88        70.81269
430.33        71.55384
430.77         72.4234
431.22        71.25504
431.66        68.63972
432.11        67.24659
432.56        67.40653
433.00        68.22915
433.45        69.49461
433.89        71.37558
434.34        72.48993
434.78        73.48741
435.23        69.29633
435.67        68.02631
436.12        70.05083
436.57        71.36934
437.01        71.99677
437.46        72.39892
437.90         72.7477
438.35         72.1231
438.79        72.80573
439.24        72.66187
439.68        72.40971
440.13        71.94883
440.57        71.65862
441.02        72.55001
441.46        74.21082
441.91         75.2154
442.35         75.2332
442.80        74.41684
443.24        73.24343
443.69        73.73327
444.13        75.45895
444.58        75.76089
445.02         73.7386
445.47        73.52116
445.91        74.68639
446.36        75.05917
446.80         74.5584
447.24        74.37606
447.69        74.58089
448.13         74.7074
448.58        74.80145
449.02        75.07494
449.47        75.47668
449.91        75.79167
450.36         75.9899
450.80        76.15662
451.25        76.26324
451.69        76.19412
452.13        75.97276
452.58        75.64167
453.02        75.31924
453.47        75.23207
453.91        75.39263
454.36        75.74499
454.80        76.15949
455.24        76.20302
455.69        75.79414
456.13        75.43659
456.58         75.3486
457.02        74.23347
457.46        74.00488
457.91        74.48868
458.35        75.26376
458.79        75.64918
459.24        75.39423
459.68         75.0264
460.13        74.64249
460.57        74.31258
461.01         73.9586
461.46        73.58431
461.90        73.11707
462.34        73.47536
462.79        73.19677
463.23        73.48212
463.68        73.80521
464.12        74.20158
464.56        74.55014
465.01        74.52576
465.45        74.08405
465.89        74.07393
466.34        74.28469
466.78        73.04785
467.22        71.04264
467.67        70.73611
468.11        72.44482
468.55        73.29057
468.99        73.02293
469.44        72.55477
469.88        72.10876
470.32        72.08607
470.77        72.40224
471.21        72.30489
471.65        71.76286
472.10        71.41175
472.54        71.35715
472.98        71.39853
473.42        71.51949
473.87        71.98972
474.31        72.54627
474.75         72.3468
475.20        71.57315
475.64        71.32964
476.08        71.68461
476.52        71.65772
476.97        71.18394
477.41        71.29661
477.85        72.12746
478.29        71.18111
478.74        71.81925
479.18        72.51762
479.62        70.85323
480.06        71.48451
480.50        71.83556
480.95        72.33181
481.39        72.47374
481.83        71.24277
482.27        71.26476
482.72        71.20275
483.16        69.48681
483.60        69.73483
484.04        71.24869
484.48         71.6891
484.93        71.46476
485.37        73.20269
485.81        74.06507
486.25        72.81528
486.69        99.00835
487.14        80.67246
487.58        49.45662
488.02        60.61861
488.46         69.3174
488.90        68.84356
489.34        70.14249
489.79        69.11364
490.23        71.25675
490.67        72.15118
491.11        71.15636
491.55        71.00346
491.99         71.2923
492.43        71.02649
492.88        70.32484
493.32        70.33772
493.76        70.55112
494.20        70.84616
494.64        70.95477
495.08         71.2009
495.52        71.56258
495.96        71.37093
496.41        70.72881
496.85        71.19006
497.29        72.40276
497.73        71.31592
498.17        68.94946
498.61        69.05754
499.05        71.63675
499.49        72.12732
499.93        72.03123
500.37        71.58791
500.82        70.82465
501.26        70.85795
501.70        71.35081
502.14        71.97282
502.58        71.75927
503.02        71.26589
503.46        71.50652
503.90        71.09509
504.34        70.55302
504.78        70.26992
505.22        70.30142
505.66        70.57312
506.10        70.97388
506.54        71.01401
506.98        70.55572
507.42        70.67589
507.86        70.47961
508.30        69.54538
508.74         70.2613
509.18        70.43977
509.62        70.72921
510.06        70.85615
510.50        70.79436
510.94        70.57785
511.38         70.3063
511.82        70.20201
512.26         70.3082
512.70        70.55813
513.14        70.84886
513.58        71.01619
514.02        71.00747
514.46        70.86799
514.90        70.68498
515.34        70.57681
515.78        70.56696
516.22        70.68354
516.66        70.84704
517.10        70.76292
517.54        70.40585
517.98        70.43452
518.42        70.10421
518.86        70.18522
519.30         70.4431
519.74        70.88466
520.18        71.36488
520.62        71.64548
521.06        71.67477
521.50        71.51871
521.93        71.27081
522.37        71.08539
522.81         71.0202
523.25         71.0297
523.69        71.08856
524.13        71.15923
524.57        71.22452
525.01        71.30193
525.45        71.38178
525.89        71.44149
526.32        71.46618
526.76        71.45166
527.20        71.39995
527.64        71.33933
528.08        71.29414
528.52        71.20267
528.96        71.03772
529.40        70.95472
529.83        70.99656
530.27        70.40656
530.71        70.60711
531.15        70.52725
531.59        70.59117
532.03        70.73184
532.46         70.9633
532.90        71.27294
533.34        71.61461
533.78        71.97615
534.22         72.2506
534.66        72.29095
535.09        72.07043
535.53        71.66418
535.97        71.18883
536.41        70.85381
536.85        70.72355
537.28        70.75371
537.72        70.86171
538.16        70.91935
538.60        70.88999
539.04        70.76173
539.47        70.59466
539.91        70.66605
540.35        70.91188
540.79        70.99361
541.22        70.89329
541.66        70.87715
542.10        70.93534
542.54         70.9011
542.97        70.80173
543.41        70.79049
543.85        70.87058
544.29        71.01889
544.72        71.14001
545.16        71.11852
545.60        70.92647
546.04        70.59399
546.47        70.27039
546.91        70.22314
547.35        70.48089
547.79        70.94855
548.22        71.38894
548.66         71.4872
549.10        71.15821
549.53        70.42761
549.97        69.62038
550.41        69.25386
550.84        69.42374
551.28        69.95733
551.72        70.63591
552.15        71.01497
552.59         70.9471
553.03        70.94497
553.46         70.5609
553.90        70.34426
554.34        70.14806
554.77        70.55988
555.21         70.2854
555.65        70.42329
556.08        70.70576
556.52        70.19726
556.96        70.55564
557.39        70.44312
557.83        70.39128
558.27        70.33704
558.70        70.32177
559.14         70.4134
559.57        70.58338
560.01        70.76103
560.45        70.90164
560.88        71.06034
561.32        71.16942
561.75        70.96797
562.19        70.57565
562.63         70.1467
563.06        69.82516
563.50        69.93922
563.93        70.35248
564.37        70.52496
564.80        70.38185
565.24        70.26888
565.68         70.2128
566.11        70.12067
566.55        70.05457
566.98        70.02386
567.42        70.05316
567.85        70.17667
568.29        70.42816
568.72        70.58662
569.16        70.80162
569.60        71.32547
570.03        71.78957
570.47        71.85809
570.90        71.66592
571.34        69.76895
571.77        70.73328
572.21        70.71407
572.64        70.56095
573.08        69.46598
573.51        66.32867
573.95        68.92819
574.38        73.56274
574.82        71.39143
