SpectraSmart Spectrum 2.9.0.0
--------- Device Information -----------
Spectrum Name :  反射率_0
Saving Time :  2024/04/26 02:08:44
Spectro-Module Model Name : SE2030-DUVN
Spectro-Module Serial Number : OS361AC55029948
Wavelength Start : 200
Wavelength End : 1025
Wavelength Unit : Wavelength(nm)
Spectrum Unit : Reflectance(%)
-----------Spectrum Setting ------------
Integration Time : 20ms
Average : 10
Boxcar : 0
Background removal :  enabled
linearity correction :  enabled
SC :  disabled
Intensity correction :  disabled
DWT denoise :  enabled
savitzky-golay :  disabled
FFT :  disabled
Running average :  disabled
Kalman :  disabled
High pass :  disabled
---------------BEGIN--------------------
Wavelength(nm)             Reflectance(%)
200.29               0
200.75         89.7252
201.21         83.9532
201.67        76.60107
202.13        72.00813
202.58        70.82877
203.04        72.20115
203.50        74.74201
203.96         76.1105
204.42         75.6947
204.88        74.40358
205.34        73.28476
205.80        73.41035
206.26        75.31523
206.72        80.13703
207.18        89.35338
207.64        95.86157
208.10        87.60088
208.55        74.53519
209.01        67.11446
209.47        65.61545
209.93        67.64838
210.39        72.30314
210.85        77.24066
211.31         77.3288
211.77        71.21161
212.23        60.99887
212.69        50.99881
213.14        47.84279
213.60        52.57814
214.06        63.36409
214.52        76.13129
214.98        84.52564
215.44        86.66966
215.90        84.40012
216.36        80.00651
216.81        76.62452
217.27        75.37766
217.73        75.15125
218.19        74.44198
218.65        71.13879
219.11        64.22871
219.57        52.92696
220.02        38.29724
220.48        28.32203
220.94        28.11906
221.40         36.2891
221.86        45.48387
222.32         47.6007
222.77        43.02725
223.23        35.70895
223.69        29.60733
224.15        28.81274
224.61        32.82446
225.06        39.52352
225.52        45.89792
225.98        48.24556
226.44        45.98217
226.90        40.87984
227.36        35.05858
227.81        31.30816
228.27        30.59471
228.73        31.79159
229.19        34.13555
229.65        36.48114
230.10        38.27905
230.56        39.76952
231.02         40.9175
231.48        41.64374
231.93        41.98903
232.39        41.94833
232.85        41.61582
233.31        41.21801
233.77        40.81729
234.22        40.38436
234.68        39.92625
235.14        39.37646
235.60        38.80662
236.05        38.37913
236.51        38.17263
236.97        38.21443
237.43        38.57898
237.88        39.36288
238.34        40.78179
238.80        43.19965
239.26         46.5166
239.71        50.52412
240.17        54.39008
240.63        57.32691
241.08        59.17312
241.54        59.94874
242.00        60.25962
242.46        61.17532
242.91        63.69229
243.37        69.45271
243.83        86.97717
244.28        143.9071
244.74        208.8067
245.20        173.5079
245.66        140.8398
246.11        131.5685
246.57        135.6875
247.03        157.1041
247.48        218.9556
247.94        174.5122
248.40        105.1019
248.85        85.61292
249.31        80.83371
249.77        81.76543
250.22        86.39367
250.68        95.31683
251.14        108.7439
251.59         119.311
252.05        118.5176
252.51        108.9204
252.96        97.16603
253.42        90.36337
253.88        88.30061
254.33        88.55855
254.79        90.59277
255.25        93.13945
255.70        95.32845
256.16        97.67715
256.62        99.08721
257.07        98.30795
257.53        96.02525
257.99        92.39289
258.44        88.39446
258.90        86.28178
259.35        85.18303
259.81        84.53107
260.27        83.04423
260.72        79.46104
261.18         74.5324
261.63        68.76518
262.09         63.3904
262.55        59.09797
263.00        55.95033
263.46        53.79753
263.91        52.08258
264.37        50.52025
264.83        48.84909
265.28        47.01174
265.74        45.31271
266.19        43.94759
266.65        43.08826
267.11        42.55422
267.56        41.98022
268.02        40.91683
268.47        39.25078
268.93        37.14267
269.38        34.90711
269.84        33.34424
270.30        32.68017
270.75        32.70816
271.21        33.01071
271.66        32.94267
272.12        32.32621
272.57        31.35741
273.03        30.33725
273.48        29.63535
273.94         29.3616
274.39        29.31967
274.85        29.31459
275.31        29.06472
275.76        28.49837
276.22        27.75689
276.67        26.95821
277.13        26.35691
277.58        25.96107
278.04        25.72248
278.49        25.50019
278.95        25.15824
279.40        24.64201
279.86        24.05938
280.31        23.46319
280.77         23.0394
281.22        22.77935
281.68        22.64547
282.13        22.56136
282.59        22.45369
283.04        22.29823
283.50        22.16154
283.95         22.0268
284.41        21.88586
284.86        21.74018
285.32        21.59232
285.77        21.52754
286.22        21.73769
286.68         22.2036
287.13        22.82339
287.59        23.37742
288.04        23.53178
288.50        23.26167
288.95        22.67543
289.41         22.0083
289.86        21.50736
290.32        21.30746
290.77        21.32832
291.22         21.5481
291.68        21.89005
292.13        22.33027
292.59        22.90309
293.04        23.61789
293.50        24.47738
293.95        25.45854
294.40        26.52336
294.86        27.61995
295.31        28.69091
295.77        29.73862
296.22        30.78639
296.68        31.87843
297.13          33.053
297.58        34.32666
298.04        35.68462
298.49          37.126
298.95        38.70435
299.40        40.40528
299.85        42.21202
300.31        44.02489
300.76        45.68309
301.21        47.12977
301.67        48.43724
302.12        49.65211
302.58        50.95102
303.03        52.34649
303.48        53.81716
303.94        55.38725
304.39        57.02579
304.84        58.72935
305.30        60.50572
305.75         62.2296
306.20        63.73951
306.66        65.02328
307.11        66.06231
307.57        67.03683
308.02        68.10318
308.47         69.3489
308.93        70.73833
309.38        72.11449
309.83        73.27976
310.29        74.18764
310.74        74.87663
311.19        75.51344
311.65        76.35062
312.10        77.42586
312.55        78.66999
313.00        79.86847
313.46        80.67656
313.91         81.0014
314.36        80.97022
314.82        80.85431
315.27        81.02123
315.72        81.59244
316.18        82.45193
316.63        83.41387
317.08        84.13058
317.53        84.49844
317.99        84.61662
318.44        84.66721
318.89        84.94479
319.35        85.50063
319.80        86.26067
320.25        87.00813
320.70        87.39473
321.16        87.34369
321.61        86.97592
322.06        86.52222
322.51        86.34455
322.97        86.51222
323.42        86.94907
323.87        87.47581
324.32        87.78658
324.78        87.78595
325.23        87.61485
325.68        87.38384
326.13        87.29507
326.59        87.39379
327.04        87.64108
327.49        87.99274
327.94        88.40972
328.39        88.85725
328.85        89.32491
329.30         89.8086
329.75         90.1402
330.20        90.30356
330.66        90.32849
331.11        90.37434
331.56        90.62798
332.01        91.15525
332.46        91.88781
332.92        92.73605
333.37        93.70795
333.82        94.67191
334.27        95.63495
334.72        96.44931
335.17        96.88147
335.63        96.90012
336.08        96.61383
336.53        96.25463
336.98        96.24944
337.43        96.70773
337.88        97.50582
338.34          98.463
338.79        99.36352
339.24        100.0681
339.69        100.6633
340.14        101.0916
340.59        101.2561
341.05        101.1828
341.50        100.8896
341.95        100.5926
342.40        100.6398
342.85        101.0997
343.30        101.8866
343.75        102.7856
344.20        103.4007
344.66        103.6227
345.11        103.5472
345.56        103.3347
346.01        103.2328
346.46        103.3204
346.91        103.5202
347.36        103.7664
347.81        103.9684
348.26        104.0972
348.72        104.1989
349.17        104.2866
349.62        104.4228
350.07        104.6064
350.52        104.7992
350.97         104.928
351.42         104.891
351.87        104.6766
352.32        104.3301
352.77        103.9269
353.22        103.5855
353.67        103.3427
354.13        103.1768
354.58          103.03
355.03         102.867
355.48        102.6601
355.93        102.4152
356.38        102.1137
356.83        101.7242
357.28        101.2447
357.73        100.6894
358.18         100.077
358.63        99.44044
359.08        98.80438
359.53        98.17536
359.98        97.57977
360.43        97.05251
360.88        96.58685
361.33        96.15575
361.78         95.7283
362.23        95.25517
362.68         94.7234
363.13        94.16051
363.58        93.54064
364.03        92.82197
364.48        92.01385
364.93        91.12947
365.38        90.27856
365.83        89.64135
366.28        89.23833
366.73        88.99826
367.18        88.77783
367.63        88.34053
368.08        87.63905
368.53        86.78051
368.98        85.84747
369.43        84.95657
369.88        84.15932
370.33        83.41364
370.78        82.79382
371.23        82.42818
371.68        82.31911
372.13        82.42686
372.58        82.57505
373.03        82.45715
373.48        82.00308
373.93        81.31105
374.38        80.53944
374.83        79.93646
375.28        79.56737
375.72        79.33643
376.17        79.20544
376.62        79.08741
377.07        78.92998
377.52        78.74615
377.97        78.49181
378.42        78.09256
378.87        77.55495
379.32        76.92712
379.77        76.25425
380.22        75.59859
380.67        74.98029
381.11        74.38047
381.56        73.85656
382.01         73.5052
382.46        73.34261
382.91        73.35982
383.36        73.40173
383.81        73.21825
384.26        72.76475
384.71         72.1005
385.15        71.42308
385.60        71.10069
386.05         71.1435
386.50        71.42534
386.95        71.68729
387.40        71.50102
387.85        70.82058
388.29         69.8307
388.74        68.87376
389.19        68.15607
389.64        67.71703
390.09        67.42857
390.54        67.31419
390.98        67.41565
391.43        67.69753
391.88        68.13135
392.33         68.4688
392.78        68.32436
393.23        67.69595
393.67        66.74303
394.12        65.87105
394.57        65.37675
395.02        65.37069
395.47        65.86609
395.91        66.67694
396.36        67.21037
396.81        67.31649
397.26        67.19157
397.71          66.892
398.15        66.38126
398.60        65.79917
399.05        65.23194
399.50        64.73865
399.95        64.07337
400.39        63.60848
400.84        63.47156
401.29        63.67212
401.74        63.76571
402.18        63.70371
402.63        63.65268
403.08        63.68348
403.53        63.79951
403.97         63.9994
404.42        64.25167
404.87        64.41026
405.32        64.23933
405.76        63.71309
406.21        62.97743
406.66        62.24105
407.11        61.84723
407.55        61.87793
408.00        62.10229
408.45        62.40793
408.90        62.80095
409.34        63.05833
409.79        62.70835
410.24        61.95516
410.68        61.55287
411.13        61.58737
411.58        61.65279
412.03        61.73088
412.47        61.97147
412.92        62.30537
413.37        62.71171
413.81        63.06656
414.26        63.21872
414.71        63.12071
415.15        62.80283
415.60        62.38958
416.05        62.10614
416.49        62.01986
416.94        62.09552
417.39        62.18554
417.83        62.02372
418.28        61.58284
418.73         60.9716
419.17        60.43174
419.62        60.33957
420.07        60.72614
420.51        61.44921
420.96        62.24063
421.41        62.62234
421.85        62.44766
422.30        62.03907
422.74        61.51813
423.19        60.96561
423.64         60.5195
424.08        60.58552
424.53        61.05521
424.98         61.3671
425.42         61.4463
425.87        61.67851
426.31        62.03922
426.76         62.1225
427.21        62.03778
427.65        62.27652
428.10        62.78581
428.54         63.3059
428.99        63.81769
429.44        63.99143
429.88         63.8595
430.33        64.52358
430.77        65.38164
431.22        64.25258
431.66         61.7217
432.11        60.51402
432.56        60.85472
433.00        61.63626
433.45        62.71877
433.89        64.25877
434.34        64.95099
434.78        66.57814
435.23        62.86338
435.67        61.01399
436.12        63.32377
436.57        64.35635
437.01        64.87267
437.46        65.06217
437.90        65.08733
438.35        64.78461
438.79        65.04131
439.24        64.94455
439.68        64.80169
440.13        64.48289
440.57        64.28724
441.02        65.23547
441.46        66.89008
441.91        67.57455
442.35         67.1776
442.80        66.36674
443.24        65.67133
443.69        66.17245
444.13        67.58239
444.58        67.44133
445.02          65.979
445.47        65.79047
445.91        66.79102
446.36        67.09908
446.80        66.64361
447.24        66.48277
447.69        66.70549
448.13        66.72248
448.58        67.03104
449.02        67.29301
449.47        67.59875
449.91        67.84984
450.36        68.02525
450.80        68.12364
451.25        68.14764
451.69        68.08801
452.13        67.97032
452.58        67.79957
453.02        67.63154
453.47        67.59222
453.91        67.68327
454.36         67.8801
454.80        68.10126
455.24        68.08141
455.69        67.79093
456.13        67.48611
456.58        67.33399
457.02         66.6819
457.46        66.70534
457.91        66.85659
458.35        67.29536
458.79        67.50491
459.24        67.45173
459.68        67.33983
460.13        67.20607
460.57        66.93371
461.01        66.58292
461.46        66.19377
461.90        65.84086
462.34        65.68192
462.79        65.71609
463.23         65.8855
463.68        66.12563
464.12        66.39418
464.56        66.62714
465.01        66.84988
465.45        66.89183
465.89        66.75227
466.34        66.36101
466.78        65.34738
467.22         64.2954
467.67        63.52419
468.11        65.16753
468.55        65.74165
468.99        65.61359
469.44        65.24171
469.88        64.83267
470.32        64.85094
470.77        65.20573
471.21        65.20233
471.65        64.80386
472.10        64.59146
472.54        64.60724
472.98        64.61366
473.42         64.6002
473.87        64.76781
474.31        64.99547
474.75        64.85745
475.20          64.464
475.64        64.40652
476.08        64.70274
476.52        64.72006
476.97        64.41686
477.41         64.4902
477.85        64.90831
478.29        64.16848
478.74         64.8283
479.18        64.74346
479.62        64.03874
480.06        64.55556
480.50        64.70953
480.95        65.01366
481.39        65.10027
481.83        63.89032
482.27        64.30531
482.72        63.97653
483.16        62.88459
483.60        63.14985
484.04        64.46197
484.48        64.90337
484.93        64.97975
485.37        65.89137
485.81        66.67185
486.25        65.58871
486.69         88.2421
487.14        70.99189
487.58        44.61427
488.02        54.74049
488.46        62.16755
488.90        61.88136
489.34        63.44266
489.79        62.75898
490.23        64.63193
490.67        65.34284
491.11        64.37528
491.55        64.27614
491.99        64.67701
492.43        64.48769
492.88        63.80723
493.32        63.81466
493.76        64.02147
494.20        64.26459
494.64        64.31557
495.08        64.34873
495.52        64.42805
495.96        64.44861
496.41        64.35715
496.85        64.66806
497.29         65.1842
497.73        64.14378
498.17        62.44256
498.61        62.80427
499.05         65.1628
499.49        65.54404
499.93        65.36308
500.37        65.00706
500.82         64.4596
501.26        64.42014
501.70        64.65044
502.14        65.07664
502.58        65.15871
503.02        64.79366
503.46        64.90163
503.90        64.48174
504.34         64.0135
504.78        63.82066
505.22        63.95856
505.66        64.34843
506.10        64.82605
506.54        64.96719
506.98        64.65482
507.42        64.58553
507.86         64.1319
508.30        63.68661
508.74          63.997
509.18        64.24857
509.62         64.5738
510.06        64.73699
510.50        64.69196
510.94        64.49794
511.38        64.24962
511.82        64.11162
512.26        64.12714
512.70        64.24393
513.14         64.3995
513.58        64.49794
514.02        64.50483
514.46        64.44827
514.90        64.37632
515.34        64.34241
515.78        64.34837
516.22        64.44613
516.66        64.58785
517.10        64.49586
517.54        64.15391
517.98        64.32966
518.42        64.04987
518.86        64.13647
519.30        64.29128
519.74        64.56363
520.18        64.86947
520.62        65.06175
521.06        65.11551
521.50        65.07314
521.93        64.96959
522.37        64.86278
522.81        64.78494
523.25        64.71678
523.69        64.69353
524.13        64.77176
524.57        64.94977
525.01        65.20926
525.45        65.47065
525.89        65.60137
526.32        65.56281
526.76        65.39103
527.20         65.1553
527.64        64.98627
528.08        64.93502
528.52        64.91251
528.96        64.85187
529.40        64.83046
529.83         64.8661
530.27        64.28584
530.71        64.41048
531.15        64.29185
531.59        64.32729
532.03        64.45017
532.46        64.65108
532.90        64.88659
533.34        65.11361
533.78        65.33504
534.22        65.50356
534.66        65.55743
535.09        65.47955
535.53         65.3122
535.97        65.09164
536.41         64.8987
536.85        64.76672
537.28        64.68604
537.72        64.64831
538.16        64.64658
538.60        64.67414
539.04        64.68339
539.47           64.67
539.91        64.79998
540.35          64.995
540.79        64.97518
541.22        64.76999
541.66        64.69238
542.10        64.74918
542.54        64.76166
542.97        64.72024
543.41        64.71184
543.85        64.73014
544.29        64.78392
544.72        64.80704
545.16        64.72242
545.60        64.51579
546.04        64.20186
546.47        63.93221
546.91        63.96523
547.35        64.31705
547.79        64.92338
548.22        65.51339
548.66        65.62851
549.10        65.21673
549.53        64.51764
549.97         63.8285
550.41        63.45567
550.84        63.48999
551.28        63.90598
551.72        64.48012
552.15        64.81879
552.59        64.79005
553.03         64.8764
553.46        64.52499
553.90        64.41415
554.34         64.4019
554.77        64.37244
555.21        64.30253
555.65        64.36221
556.08        64.58124
556.52        64.18594
556.96        64.63868
557.39        64.51985
557.83        64.35155
558.27        64.38471
558.70        64.63076
559.14        64.82873
559.57        64.92957
560.01        65.11267
560.45        65.29261
560.88        65.23563
561.32        64.96329
561.75        64.59081
562.19        64.25317
562.63        63.90292
563.06        63.64959
563.50        63.83814
563.93         64.3164
564.37        64.55913
564.80        64.48278
565.24         64.3733
565.68        64.28171
566.11        64.20698
566.55        64.21516
566.98        64.25021
567.42         64.3111
567.85        64.46391
568.29        64.70303
568.72        64.69569
569.16        64.62696
569.60        64.94936
570.03        65.34992
570.47        65.31554
570.90        65.12196
571.34        63.43117
571.77        64.37199
572.21        64.44362
572.64        64.05621
573.08        63.36079
573.51        60.32491
573.95        62.59651
574.38        66.57983
574.82        64.68132
