SpectraSmart Spectrum 2.9.0.0
--------- Device Information -----------
Spectrum Name :  反射率_0
Saving Time :  2024/04/26 01:51:58
Spectro-Module Model Name : SE2030-DUVN
Spectro-Module Serial Number : OS361AC55029948
Wavelength Start : 200
Wavelength End : 1025
Wavelength Unit : Wavelength(nm)
Spectrum Unit : Reflectance(%)
-----------Spectrum Setting ------------
Integration Time : 20ms
Average : 10
Boxcar : 0
Background removal :  enabled
linearity correction :  enabled
SC :  disabled
Intensity correction :  disabled
DWT denoise :  enabled
savitzky-golay :  disabled
FFT :  disabled
Running average :  disabled
Kalman :  disabled
High pass :  disabled
---------------BEGIN--------------------
Wavelength(nm)             Reflectance(%)
200.29               0
200.75        94.75494
201.21         85.0196
201.67        73.99686
202.13        68.09333
202.58        68.06272
203.04        72.21622
203.50        78.26217
203.96        82.10234
204.42        82.54899
204.88        81.26253
205.34        79.75747
205.80        79.57994
206.26        81.37947
206.72        85.79486
207.18        94.61388
207.64        103.1257
208.10        99.07114
208.55        88.86606
209.01         81.7014
209.47        77.92327
209.93        75.73512
210.39        74.39965
210.85        72.66996
211.31        68.77628
211.77        62.88953
212.23        55.81708
212.69        50.36539
213.14        50.91809
213.60        57.69323
214.06        69.47066
214.52        82.10825
214.98        89.17676
215.44        89.22834
215.90        84.38254
216.36        77.77663
216.81        73.85423
217.27        73.84795
217.73        76.03812
218.19        78.54416
218.65        79.05189
219.11        76.73172
219.57        71.34948
220.02        63.49768
220.48        57.95444
220.94        57.30392
221.40        60.58532
221.86        63.06775
222.32        59.62717
222.77        51.24704
223.23        41.48659
223.69        33.66304
224.15        31.12142
224.61        33.28997
225.06        38.26922
225.52        43.52271
225.98        46.07307
226.44        45.33822
226.90        42.65135
227.36        39.39598
227.81        37.38153
228.27        37.32895
228.73        38.32922
229.19        40.01941
229.65        41.89385
230.10        43.54866
230.56        45.05486
231.02        46.11841
231.48        46.34698
231.93         45.7991
232.39        44.66516
232.85        43.31044
233.31        42.36589
233.77        41.97894
234.22        41.97158
234.68        42.15761
235.14        42.08209
235.60        41.64831
236.05        41.14071
236.51        40.67748
236.97        40.33715
237.43        40.20753
237.88        40.27315
238.34        40.89047
238.80        42.91003
239.26        46.48753
239.71        51.41368
240.17         56.4062
240.63        59.77382
241.08        61.11478
241.54        60.69569
242.00        59.63437
242.46        59.68719
242.91        62.03259
243.37        68.38384
243.83        88.19677
244.28        150.5101
244.74        217.2283
245.20        176.5281
245.66        140.7065
246.11        129.6682
246.57        131.7215
247.03        147.9296
247.48        195.0558
247.94        156.4515
248.40        102.1035
248.85        87.50668
249.31        84.19993
249.77        84.95924
250.22        88.29601
250.68        94.58582
251.14         103.825
251.59        110.4814
252.05        108.6213
252.51        100.5119
252.96        90.92878
253.42        84.90849
253.88        82.13627
254.33        80.95335
254.79        81.56863
255.25        83.69378
255.70        86.48056
256.16        89.77396
256.62        91.94763
257.07        91.31663
257.53        88.58565
257.99        84.20125
258.44         79.5171
258.90        77.10118
259.35        76.13133
259.81        75.83772
260.27         74.6981
260.72        71.23207
261.18        66.19331
261.63        60.23248
262.09        54.77901
262.55        50.80669
263.00        48.29727
263.46         46.8624
263.91        45.73302
264.37        44.35238
264.83        42.50677
265.28        40.29149
265.74        38.16867
266.19         36.6051
266.65        35.81308
267.11        35.51059
267.56        35.26131
268.02        34.52451
268.47        33.18464
268.93        31.42333
269.38        29.54116
269.84        28.28921
270.30        27.85783
270.75        28.02995
271.21        28.38763
271.66        28.30618
272.12        27.62323
272.57         26.5485
273.03        25.40401
273.48        24.59378
273.94        24.24287
274.39        24.16509
274.85        24.17069
275.31         23.9883
275.76        23.53889
276.22        22.94216
276.67        22.29869
277.13        21.82526
277.58        21.52526
278.04         21.3567
278.49        21.17705
278.95        20.83639
279.40         20.2957
279.86        19.66503
280.31        19.04598
280.77        18.68585
281.22        18.58253
281.68        18.66368
282.13        18.79803
282.59        18.82452
283.04        18.70608
283.50        18.53017
283.95        18.32364
284.41        18.13842
284.86        17.99648
285.32        17.88371
285.77        17.85827
286.22        18.06606
286.68        18.48208
287.13         19.0265
287.59        19.51866
288.04        19.68729
288.50        19.50809
288.95        19.06274
289.41        18.53015
289.86        18.08429
290.32        17.84009
290.77        17.74269
291.22        17.80586
291.68        18.00761
292.13        18.34114
292.59        18.82331
293.04        19.43918
293.50        20.15398
293.95        20.93541
294.40        21.75209
294.86         22.5785
295.31        23.39898
295.77        24.21578
296.22        25.03667
296.68        25.86269
297.13        26.66266
297.58        27.46044
298.04        28.29761
298.49        29.23606
298.95        30.41219
299.40        31.84157
299.85        33.47404
300.31         35.2327
300.76        36.99112
301.21        38.66609
301.67        40.29836
302.12        41.81659
302.58        43.21077
303.03         44.4832
303.48        45.67561
303.94          46.952
304.39         48.5091
304.84        50.39195
305.30        52.53581
305.75        54.73066
306.20         56.6667
306.66         58.2888
307.11        59.64278
307.57        60.92756
308.02        62.33841
308.47        63.97905
308.93        65.78511
309.38        67.63917
309.83        69.40682
310.29         71.0274
310.74        72.50526
311.19        73.90566
311.65         75.3319
312.10        76.79673
312.55        78.27833
313.00        79.64724
313.46        80.69913
313.91        81.38194
314.36         81.7813
314.82        82.12824
315.27         82.7305
315.72        83.69634
316.18        84.93847
316.63        86.27814
317.08        87.36984
317.53        88.10291
317.99        88.55283
318.44        88.90881
318.89        89.48919
319.35        90.34514
319.80        91.40345
320.25          92.394
320.70        92.87698
321.16        92.76774
321.61        92.22611
322.06        91.58837
322.51        91.37675
322.97        91.69885
323.42        92.44335
323.87        93.33951
324.32        93.91615
324.78        94.02322
325.23        93.84395
325.68        93.56232
326.13          93.508
326.59        93.75497
327.04        94.21716
327.49        94.77869
327.94        95.28905
328.39        95.68501
328.85        96.00173
329.30        96.29613
329.75        96.48729
330.20        96.60085
330.66        96.64715
331.11        96.78369
331.56        97.19012
332.01        97.92133
332.46         98.9076
332.92        100.0283
333.37        101.2473
333.82        102.3977
334.27        103.4789
334.72        104.3345
335.17        104.7325
335.63        104.6545
336.08        104.2271
336.53        103.7105
336.98        103.5751
337.43        103.9502
337.88        104.7084
338.34        105.6825
338.79        106.6766
339.24        107.5415
339.69        108.3516
340.14        108.9877
340.59        109.2473
341.05        109.1316
341.50         108.688
341.95        108.1956
342.40        108.0987
342.85        108.4945
343.30        109.2752
343.75        110.2059
344.20        110.8553
344.66         111.098
345.11        111.0332
345.56        110.8256
346.01        110.7283
346.46        110.8152
346.91             111
347.36        111.1919
347.81        111.2636
348.26        111.1906
348.72        111.0473
349.17        110.8919
349.62        110.8591
350.07          110.97
350.52        111.1589
350.97        111.3472
351.42        111.4221
351.87        111.3502
352.32        111.1739
352.77        110.9007
353.22        110.5448
353.67          110.13
354.13        109.6673
354.58        109.1975
355.03        108.8466
355.48        108.6272
355.93        108.5028
356.38        108.3688
356.83        108.0538
357.28        107.5159
357.73        106.8051
358.18         106.005
358.63        105.2521
359.08        104.5914
359.53        103.9919
359.98        103.4106
360.43        102.7759
360.88        102.0699
361.33        101.3215
361.78        100.5783
362.23        99.91473
362.68        99.34916
363.13        98.85483
363.58        98.37386
364.03        97.81505
364.48        97.15373
364.93        96.41523
365.38        95.64529
365.83        94.92165
366.28        94.25941
366.73        93.62041
367.18         92.9812
367.63        92.31062
368.08        91.60831
368.53        90.91471
368.98        90.21072
369.43        89.44719
369.88        88.62737
370.33        87.76609
370.78        86.96071
371.23         86.3792
371.68        86.05145
372.13         85.9166
372.58        85.85617
373.03        85.66679
373.48        85.29185
373.93        84.80505
374.38        84.25783
374.83        83.72623
375.28        83.24058
375.72        82.75301
376.17        82.32514
376.62        82.04039
377.07        81.89011
377.52        81.82951
377.97        81.73544
378.42        81.40783
378.87        80.81967
379.32        80.06861
379.77        79.24254
380.22        78.46041
380.67        77.75956
381.11        77.09764
381.56        76.52898
382.01        76.14939
382.46        75.97275
382.91        75.99878
383.36        76.05539
383.81         75.8617
384.26          75.367
384.71        74.63211
385.15         73.8845
385.60        73.54252
386.05        73.61872
386.50        73.96957
386.95        74.28724
387.40        74.06213
387.85        73.24262
388.29        72.05723
388.74        70.90979
389.19        70.07136
389.64         69.5914
390.09        69.31615
390.54          69.253
390.98        69.41746
391.43        69.75523
391.88        70.23745
392.33        70.59955
392.78        70.43667
393.23        69.74759
393.67        68.69207
394.12        67.69558
394.57        67.09522
395.02        67.00127
395.47        67.38091
395.91        68.06949
396.36        68.55794
396.81        68.70347
397.26        68.65057
397.71        68.44592
398.15        68.03278
398.60        67.53522
399.05        67.08881
399.50        66.70098
399.95        65.95409
400.39        65.28518
400.84        65.04069
401.29        65.26228
401.74         65.4311
402.18        65.45538
402.63        65.40156
403.08        65.35789
403.53        65.48268
403.97        65.77523
404.42        66.09287
404.87         66.2719
405.32        66.08799
405.76        65.50923
406.21        64.74363
406.66        64.01578
407.11        63.53753
407.55        63.47187
408.00        63.94791
408.45        64.75692
408.90        65.35784
409.34        65.45448
409.79         64.8602
410.24        63.89734
410.68        63.38916
411.13        63.45329
411.58        63.64977
412.03        63.89793
412.47        64.23681
412.92        64.55566
413.37        64.87734
413.81        65.09423
414.26        65.07629
414.71         64.8007
415.15            64.3
415.60        63.74701
416.05        63.44731
416.49        63.48114
416.94        63.78392
417.39        64.15902
417.83        64.25093
418.28        63.98654
418.73        63.48088
419.17        62.97035
419.62        62.83359
420.07        63.11548
420.51        63.68756
420.96        64.30863
421.41        64.54871
421.85        64.29007
422.30        63.86031
422.74        63.40924
423.19        62.98704
423.64        62.68178
424.08        63.01019
424.53        63.90199
424.98        63.85439
425.42        64.28549
425.87        64.55209
426.31         65.0248
426.76        64.66018
427.21        63.81817
427.65        64.18634
428.10        65.58274
428.54        66.48052
428.99        66.77048
429.44        66.85593
429.88        66.83136
430.33         67.5174
430.77         68.3575
431.22         67.3811
431.66        65.07932
432.11        63.92643
432.56        64.18159
433.00        64.85335
433.45        65.87118
433.89        67.67997
434.34        68.91454
434.78        70.35595
435.23        66.85915
435.67        64.75964
436.12        66.36805
436.57         67.4131
437.01        68.48521
437.46        68.83077
437.90        68.54458
438.35        68.48636
438.79        68.66618
439.24          68.944
439.68        68.80654
440.13        68.67101
440.57         68.6339
441.02         69.6392
441.46        71.26154
441.91        71.93074
442.35        71.52968
442.80        70.67529
443.24        69.74526
443.69        70.25951
444.13         71.8406
444.58        71.72401
445.02         70.1442
445.47        69.93208
445.91        71.00739
446.36        71.37385
446.80        70.96014
447.24        70.86521
447.69         71.1452
448.13        71.33828
448.58        71.49837
449.02        71.90714
449.47        72.47028
449.91        72.83251
450.36        72.94942
450.80         72.9832
451.25        72.97182
451.69         72.8448
452.13        72.66557
452.58        72.54311
453.02        72.49142
453.47        72.49728
453.91        72.54449
454.36        72.66544
454.80        72.82195
455.24        72.80495
455.69         72.5962
456.13        72.44668
456.58        72.41088
457.02        71.85571
457.46        71.35519
457.91        71.52845
458.35        72.26388
458.79        72.49823
459.24        72.21076
459.68        71.87811
460.13        71.53806
460.57        71.22189
461.01        71.06185
461.46         70.0798
461.90        69.78228
462.34        70.11508
462.79         69.9708
463.23        70.45105
463.68        70.93465
464.12        71.31399
464.56        71.44993
465.01        71.24816
465.45         70.7486
465.89        70.53963
466.34        70.47984
466.78        69.55721
467.22        68.34315
467.67        67.61685
468.11        69.38141
468.55        70.13911
468.99          70.147
469.44        69.77249
469.88        69.23138
470.32         69.1228
470.77        69.39825
471.21        69.33697
471.65        68.91689
472.10        68.75072
472.54          68.859
472.98         68.9362
473.42        68.95003
473.87        69.14433
474.31        69.37769
474.75        69.13693
475.20        68.56749
475.64        68.41212
476.08        68.68727
476.52        68.67184
476.97        68.33079
477.41        68.46529
477.85        68.67638
478.29        68.34999
478.74        69.09399
479.18        68.98612
479.62        67.90568
480.06        68.38189
480.50        68.74162
480.95         69.1549
481.39        69.18611
481.83         68.4055
482.27        68.26044
482.72        68.56664
483.16        67.13253
483.60        67.21793
484.04        68.77708
484.48        69.06449
484.93        68.82622
485.37        70.02068
485.81         70.9762
486.25        69.24789
486.69        93.77995
487.14         75.5239
487.58        47.45684
488.02        58.60489
488.46        66.44841
488.90        65.88791
489.34        67.80297
489.79        66.92445
490.23        68.67389
490.67         69.3771
491.11        68.49548
491.55        68.52353
491.99        69.02058
492.43        68.88956
492.88        68.20984
493.32        68.18224
493.76        68.33509
494.20        68.57855
494.64        68.67365
495.08         68.8689
495.52         69.1514
495.96        69.03297
496.41          68.536
496.85        68.84261
497.29        69.70141
497.73        68.52286
498.17        66.34121
498.61         66.7663
499.05        69.67643
499.49        70.19732
499.93        69.82549
500.37         69.2965
500.82        68.63824
501.26        68.72858
501.70        69.29063
502.14        69.60132
502.58        69.48886
503.02        69.41958
503.46        69.37621
503.90        69.02908
504.34        68.52787
504.78        68.28674
505.22        68.36172
505.66        68.64365
506.10        69.01378
506.54        69.17889
506.98        69.05122
507.42        68.98399
507.86        68.82826
508.30        68.44145
508.74        68.68091
509.18        68.78088
509.62        68.93369
510.06        69.00749
510.50        68.98413
510.94        68.89743
511.38        68.80092
511.82          68.795
512.26        68.89803
512.70        69.06962
513.14        69.26152
513.58        69.40005
514.02        69.45419
514.46        69.44171
514.90        69.38168
515.34        69.28876
515.78        69.16666
516.22        69.07963
516.66        69.03592
517.10        68.87103
517.54        68.59107
517.98        68.84613
518.42        68.74233
518.86        68.92899
519.30        69.12424
519.74        69.38627
520.18        69.65678
520.62         69.8343
521.06        69.90386
521.50        69.88856
521.93        69.81099
522.37        69.71178
522.81        69.61889
523.25        69.52612
523.69         69.4697
524.13        69.50341
524.57        69.63026
525.01        69.83394
525.45        70.05256
525.89        70.18282
526.32        70.18862
526.76        70.09329
527.20        69.94049
527.64        69.82298
528.08        69.78165
528.52        69.73038
528.96        69.61295
529.40         69.5466
529.83        69.55709
530.27        68.89939
530.71         68.9943
531.15        68.85022
531.59        68.89371
532.03        69.04092
532.46        69.28067
532.90        69.56641
533.34        69.84734
533.78        70.12436
534.22        70.33378
534.66        70.39069
535.09         70.2774
535.53        70.04801
535.97        69.76234
536.41        69.54106
536.85        69.42652
537.28        69.39384
537.72        69.41883
538.16        69.46973
538.60        69.52693
539.04        69.54422
539.47        69.51151
539.91        69.59851
540.35        69.72668
540.79        69.60714
541.22        69.29044
541.66        69.14069
542.10        69.17641
542.54         69.1991
542.97        69.20154
543.41        69.28162
543.85        69.41895
544.29         69.6039
544.72        69.73895
545.16        69.70354
545.60        69.47837
546.04        69.09792
546.47        68.72072
546.91        68.65242
547.35        68.93293
547.79        69.39804
548.22        69.83183
548.66        70.08672
549.10        70.00545
549.53        69.29867
549.97        68.31771
550.41        67.88851
550.84        68.13066
551.28         68.6712
551.72        69.28658
552.15        69.69986
552.59        69.79696
553.03        69.69489
553.46        69.44057
553.90        69.29147
554.34        69.28516
554.77        69.28365
555.21         69.2363
555.65        69.29158
556.08        69.47277
556.52        68.90489
556.96        69.21935
557.39        69.12312
557.83        69.12663
558.27        69.16629
558.70         69.2576
559.14        69.42386
559.57        69.62294
560.01        69.80347
560.45        69.92063
560.88        70.01727
561.32        70.05087
561.75        69.79192
562.19        69.36864
562.63        68.97939
563.06        68.75132
563.50        68.85117
563.93        69.16434
564.37        69.44382
564.80        69.53422
565.24        69.31205
565.68        68.89501
566.11        68.73692
566.55        68.92793
566.98        69.10143
567.42        69.21729
567.85        69.54208
568.29        69.98589
568.72        69.83669
569.16        69.37217
569.60        69.62979
570.03        70.11407
570.47          70.127
570.90        69.83967
571.34        68.24215
571.77        69.25792
572.21        68.98849
572.64        68.64579
573.08        67.70945
573.51        64.79708
573.95        67.17773
574.38        71.07085
574.82        69.45589
