SpectraSmart Spectrum 2.9.0.0
--------- Device Information -----------
Spectrum Name :  反射率_0
Saving Time :  2024/04/26 01:59:02
Spectro-Module Model Name : SE2030-DUVN
Spectro-Module Serial Number : OS361AC55029948
Wavelength Start : 200
Wavelength End : 1025
Wavelength Unit : Wavelength(nm)
Spectrum Unit : Reflectance(%)
-----------Spectrum Setting ------------
Integration Time : 20ms
Average : 10
Boxcar : 0
Background removal :  enabled
linearity correction :  enabled
SC :  disabled
Intensity correction :  disabled
DWT denoise :  enabled
savitzky-golay :  disabled
FFT :  disabled
Running average :  disabled
Kalman :  disabled
High pass :  disabled
---------------BEGIN--------------------
Wavelength(nm)             Reflectance(%)
200.29               0
200.75        101.3341
201.21        90.12675
201.67        77.27631
202.13        69.82571
202.58        68.65263
203.04        72.09881
203.50        77.51625
203.96        80.29814
204.42        79.37492
204.88        76.63548
205.34        74.17825
205.80        74.21957
206.26        77.75628
206.72        86.56467
207.18        104.2257
207.64        120.5007
208.10        111.5256
208.55        91.26566
209.01        77.86054
209.47        72.31054
209.93        71.05475
210.39        72.25515
210.85         74.0131
211.31        72.86739
211.77        68.10835
212.23        61.30242
212.69        55.52048
213.14        55.49865
213.60        61.68254
214.06        72.45724
214.52        84.36101
214.98         92.1693
215.44        94.31778
215.90        92.38205
216.36        88.06891
216.81        83.70154
217.27        80.58555
217.73        78.17999
218.19        75.82696
218.65        72.47839
219.11         67.4178
219.57        59.89787
220.02        50.80461
220.48        45.84932
220.94         47.9833
221.40         55.9763
221.86        63.17389
222.32        62.70307
222.77        55.60534
223.23        45.81652
223.69        37.91055
224.15        36.66039
224.61        41.33934
225.06        49.47306
225.52        57.25322
225.98        59.73424
226.44        56.18281
226.90        48.85125
227.36         40.6628
227.81        35.55401
228.27        34.70637
228.73        36.55989
229.19        39.82699
229.65        42.59614
230.10        44.15459
230.56        45.09579
231.02        45.61214
231.48        45.85577
231.93        45.90398
232.39        45.65171
232.85        45.14397
233.31        44.56835
233.77        43.97435
234.22        43.36129
234.68         42.7683
235.14        42.18538
235.60         41.6849
236.05        41.38068
236.51        41.28577
236.97        41.33844
237.43        41.57781
237.88        42.11518
238.34        43.11778
238.80        44.94813
239.26        47.57211
239.71        50.81054
240.17        54.03878
240.63        56.78491
241.08         58.9435
241.54        60.48323
242.00         61.6929
242.46        63.21951
242.91        65.99929
243.37        71.64639
243.83        88.67983
244.28        146.9784
244.74        219.4736
245.20        186.8273
245.66        153.6373
246.11        145.1054
246.57        151.9937
247.03        181.3761
247.48        265.7977
247.94        210.1994
248.40        116.8853
248.85         89.8159
249.31        82.54238
249.77        82.84135
250.22        87.62897
250.68        97.26775
251.14         111.461
251.59        120.8887
252.05        116.2351
252.51        101.8439
252.96        86.05298
253.42        76.60509
253.88        73.13284
254.33        72.97237
254.79        75.90213
255.25        81.03345
255.70        86.69974
256.16        92.43289
256.62        96.21558
257.07        95.94799
257.53        92.63098
257.99        87.21906
258.44        81.20268
258.90        77.38437
259.35        75.17157
259.81        73.76125
260.27        72.09049
260.72        69.11463
261.18        65.27951
261.63        60.87864
262.09        56.63596
262.55        52.71052
263.00        49.26427
263.46        46.45712
263.91        44.11707
264.37        42.28593
264.83        40.73659
265.28        39.27536
265.74        38.06169
266.19        37.09389
266.65        36.46333
267.11        36.07681
267.56        35.64978
268.02        34.80667
268.47        33.46788
268.93        31.75098
269.38        29.92915
269.84        28.72177
270.30        28.30553
270.75         28.4863
271.21         28.8625
271.66        28.82232
272.12        28.20303
272.57        27.20197
273.03        26.11786
273.48        25.32176
273.94        24.93874
274.39         24.8028
274.85        24.75014
275.31        24.54493
275.76        24.11813
276.22        23.57543
276.67        23.01299
277.13        22.64393
277.58        22.45567
278.04         22.3947
278.49        22.29417
278.95        21.97561
279.40        21.39458
279.86        20.67595
280.31        19.93158
280.77        19.42774
281.22        19.17983
281.68        19.12629
282.13        19.15387
282.59        19.12415
283.04        19.00285
283.50        18.86966
283.95        18.74162
284.41        18.65502
284.86        18.61764
285.32        18.60863
285.77         18.6719
286.22        18.93577
286.68        19.37334
287.13        19.91253
287.59        20.37835
288.04        20.50847
288.50        20.28849
288.95        19.80046
289.41        19.24556
289.86        18.82778
290.32        18.66311
290.77        18.68488
291.22        18.87341
291.68        19.15431
292.13        19.51134
292.59        19.98039
293.04        20.57614
293.50          21.312
293.95        22.16912
294.40        23.10144
294.86        24.06998
295.31        25.03721
295.77        25.99958
296.22        26.97439
296.68        27.96065
297.13        28.92256
297.58        29.87781
298.04        30.85487
298.49        31.92317
298.95        33.23873
299.40        34.81353
299.85        36.59047
300.31         38.4521
300.76        40.20648
301.21         41.7681
301.67        43.21137
302.12        44.52309
302.58        45.78405
303.03        47.00657
303.48        48.19266
303.94        49.46756
304.39        50.96688
304.84        52.71251
305.30        54.65878
305.75        56.58037
306.20        58.14836
306.66        59.32179
307.11        60.16174
307.57        60.92463
308.02        61.88711
308.47        63.16452
308.93        64.66717
309.38          66.231
309.83        67.64604
310.29        68.83505
310.74        69.83183
311.19        70.72482
311.65        71.64935
312.10        72.62705
312.55        73.61847
313.00        74.50544
313.46        75.10926
313.91        75.38797
314.36        75.43391
314.82        75.44345
315.27        75.66434
315.72        76.19138
316.18        76.95419
316.63        77.83012
317.08        78.57262
317.53        79.09629
317.99        79.44839
318.44        79.75175
318.89        80.21507
319.35        80.86302
319.80         81.6496
320.25        82.36652
320.70        82.68097
321.16        82.53471
321.61         82.0458
322.06        81.49012
322.51        81.29918
322.97        81.55326
323.42        82.15968
323.87        82.87856
324.32        83.29181
324.78        83.27333
325.23        82.99275
325.68        82.61607
326.13        82.43925
326.59        82.53579
327.04        82.83259
327.49        83.25764
327.94        83.72385
328.39        84.17936
328.85        84.63848
329.30        85.09386
329.75        85.37556
330.20        85.47552
330.66          85.423
331.11        85.40737
331.56        85.67036
332.01        86.28545
332.46        87.16889
332.92        88.19083
333.37        89.27013
333.82        90.24905
334.27        91.15748
334.72        91.87415
335.17        92.21664
335.63        92.17884
336.08        91.85431
336.53        91.49122
336.98        91.53831
337.43        92.10534
337.88        93.06953
338.34        94.21144
338.79        95.24335
339.24        96.00831
339.69        96.60279
340.14        97.01671
340.59        97.23865
341.05        97.30922
341.50        97.21455
341.95        97.10998
342.40        97.25789
342.85        97.71387
343.30        98.42577
343.75        99.22999
344.20        99.81612
344.66        100.0982
345.11        100.1383
345.56        100.0643
346.01         100.076
346.46        100.2343
346.91        100.4767
347.36        100.7349
347.81        100.9109
348.26        100.9853
348.72        101.0159
349.17        101.0393
349.62        101.1585
350.07        101.3865
350.52        101.6744
350.97        101.9504
351.42        102.1133
351.87        102.1392
352.32        102.0647
352.77        101.9251
353.22        101.7764
353.67        101.6433
354.13        101.5234
354.58        101.3988
355.03        101.2993
355.48        101.2186
355.93        101.1457
356.38         101.045
356.83        100.8579
357.28        100.5665
357.73        100.1847
358.18        99.72897
358.63        99.22906
359.08        98.70559
359.53        98.16425
359.98        97.61563
360.43        97.07273
360.88        96.53578
361.33        95.99619
361.78        95.46824
362.23        94.97253
362.68        94.51215
363.13        94.09281
363.58        93.65482
364.03        93.09995
364.48         92.4194
364.93        91.64371
365.38        90.88353
365.83        90.32256
366.28        89.98595
366.73        89.79363
367.18        89.62546
367.63        89.28614
368.08        88.73088
368.53        88.05353
368.98        87.29215
369.43        86.49408
369.88        85.69929
370.33         84.8891
370.78        84.18672
371.23        83.80007
371.68        83.75863
372.13        84.00785
372.58        84.33286
373.03        84.36014
373.48        83.99511
373.93        83.34444
374.38        82.60861
374.83        82.10307
375.28         81.9007
375.72        81.88196
376.17        81.93244
376.62        81.84466
377.07        81.54843
377.52        81.10524
377.97        80.57555
378.42        80.04987
378.87        79.57245
379.32        79.13415
379.77        78.69699
380.22        78.20248
380.67        77.63788
381.11        77.02067
381.56        76.44128
382.01        76.04839
382.46        75.87874
382.91        75.90765
383.36        75.96657
383.81        75.78868
384.26        75.32748
384.71        74.65285
385.15        73.98615
385.60        73.72929
386.05        73.89581
386.50        74.34969
386.95        74.78946
387.40        74.71225
387.85        74.05207
388.29        73.01324
388.74        72.00015
389.19        71.28706
389.64        70.93005
390.09        70.79212
390.54        70.83653
390.98        70.99976
391.43          71.209
391.88        71.45815
392.33        71.60491
392.78        71.34331
393.23        70.67501
393.67        69.93984
394.12        69.37199
394.57        68.53653
395.02        67.75927
395.47        68.22923
395.91        69.70866
396.36        70.48338
396.81        70.33427
397.26        70.10197
397.71        69.91958
398.15        69.56834
398.60        69.19629
399.05        68.91685
399.50        68.66721
399.95        68.08933
400.39        67.55695
400.84        67.03455
401.29        66.71928
401.74        66.87788
402.18        67.40335
402.63         67.5948
403.08        67.47666
403.53        67.64883
403.97        68.08945
404.42        68.37392
404.87        68.39246
405.32        68.13696
405.76        67.60066
406.21        66.97807
406.66        66.39368
407.11        65.82685
407.55        65.47057
408.00        65.69041
408.45          66.373
408.90        67.01158
409.34        67.29793
409.79        66.92826
410.24        66.14639
410.68        65.76931
411.13        65.89176
411.58        66.01791
412.03         66.1285
412.47        66.42757
412.92         66.8375
413.37        67.32268
413.81        67.70734
414.26        67.76615
414.71        67.45086
415.15        66.82635
415.60         66.1165
416.05        65.70329
416.49        65.69109
416.94        65.99843
417.39        66.38785
417.83        66.43389
418.28        66.05589
418.73        65.40524
419.17         64.7751
419.62         64.6242
420.07         65.0033
420.51        65.74508
420.96        66.56183
421.41        66.92133
421.85        66.67136
422.30         66.2419
422.74        65.75861
423.19        65.15211
423.64         64.6314
424.08        64.94701
424.53        65.92362
424.98        66.49945
425.42        66.52473
425.87         66.7547
426.31        67.17355
426.76        67.00961
427.21        66.51817
427.65        66.84324
428.10        67.86465
428.54        68.63855
428.99        69.08779
429.44        69.25946
429.88        69.22202
430.33        69.91307
430.77        70.73735
431.22        69.71298
431.66        67.33629
432.11        65.93304
432.56        65.81998
433.00        66.51398
433.45        67.88397
433.89        69.52749
434.34        70.12593
434.78        71.78122
435.23        68.30832
435.67         66.7402
436.12        68.36372
436.57        69.67068
437.01        70.90177
437.46        71.47491
437.90        71.55157
438.35         70.2539
438.79        70.93858
439.24        70.68278
439.68        70.48418
440.13        70.39441
440.57        70.61212
441.02        71.35486
441.46         72.3354
441.91        73.40293
442.35        74.09971
442.80        73.09749
443.24        71.35725
443.69        71.65397
444.13        73.75758
444.58        73.92062
445.02         72.2884
445.47        71.98351
445.91        72.94669
446.36        73.25597
446.80        72.85449
447.24        72.68506
447.69        72.82852
448.13        73.03384
448.58         73.3192
449.02        73.72604
449.47        74.17162
449.91        74.48011
450.36        74.60921
450.80        74.66188
451.25        74.64661
451.69        74.39499
452.13        74.02016
452.58        73.85551
453.02        73.90794
453.47        73.96336
453.91        73.99934
454.36        74.17135
454.80        74.41636
455.24          74.444
455.69        74.23134
456.13        74.00954
456.58        73.86478
457.02        73.41994
457.46        72.93369
457.91        73.24551
458.35        74.11431
458.79        74.44553
459.24        74.17585
459.68        73.83627
460.13         73.5409
460.57        73.20785
461.01        72.95387
461.46         72.6552
461.90        72.23966
462.34        72.59915
462.79        72.30421
463.23        72.23145
463.68        72.91911
464.12        73.36916
464.56        73.71577
465.01        73.61698
465.45        73.04156
465.89         72.8695
466.34        72.74258
466.78        71.65589
467.22        70.09605
467.67        69.95114
468.11        71.44685
468.55        72.29009
468.99        72.22775
469.44        71.86972
469.88        71.43094
470.32        71.43201
470.77        71.80473
471.21        71.77721
471.65        71.31892
472.10        71.06887
472.54        71.08813
472.98        71.11865
473.42        71.14118
473.87        71.41755
474.31        71.77169
474.75        71.55771
475.20        70.94028
475.64        70.85806
476.08         71.2988
476.52        71.32384
476.97        70.87112
477.41        71.03419
477.85        71.09604
478.29        70.84768
478.74        71.32387
479.18        71.60284
479.62         70.2305
480.06        70.81502
480.50         71.2986
480.95        71.72419
481.39        71.57876
481.83         71.2017
482.27        70.75199
482.72        71.10131
483.16        69.45451
483.60        69.79011
484.04        71.18481
484.48        71.66815
484.93        71.72718
485.37        72.76527
485.81        72.94468
486.25        72.30344
486.69        97.69193
487.14         79.3038
487.58         49.4337
488.02        60.40006
488.46        69.02108
488.90        68.19475
489.34        70.22683
489.79        69.32613
490.23        71.17236
490.67        71.93438
491.11        71.00121
491.55        71.01277
491.99         71.5039
492.43        71.32054
492.88        70.55295
493.32        70.47733
493.76        70.59631
494.20        70.76723
494.64        70.73663
495.08        70.82413
495.52        71.06038
495.96        70.87568
496.41        70.37495
496.85        71.05669
497.29         72.4829
497.73        71.50072
498.17        69.13892
498.61        69.15715
499.05        71.63162
499.49        72.33951
499.93        72.69054
500.37        72.27658
500.82        71.12835
501.26        71.07565
501.70        71.84084
502.14        72.12354
502.58        71.77077
503.02        71.58061
503.46        71.55599
503.90        71.27213
504.34        70.85943
504.78        70.68308
505.22        70.80302
505.66        71.18417
506.10        71.65317
506.54         71.8444
506.98        71.67986
507.42        71.31018
507.86        70.90031
508.30        70.67459
508.74        70.69785
509.18        70.89674
509.62        71.17145
510.06        71.36195
510.50        71.41749
510.94        71.39359
511.38        71.33927
511.82        71.32394
512.26        71.36914
512.70        71.44174
513.14        71.51811
513.58        71.57181
514.02        71.58663
514.46        71.56715
514.90        71.52782
515.34         71.4726
515.78        71.39697
516.22        71.36622
516.66         71.3601
517.10         71.1805
517.54        70.82803
517.98        70.92114
518.42        70.68184
518.86        70.79845
519.30        71.02332
519.74        71.39433
520.18        71.80088
520.62        72.03952
521.06        72.08032
521.50         72.0097
521.93        71.88448
522.37        71.76468
522.81        71.69271
523.25        71.66668
523.69        71.68825
524.13        71.75008
524.57        71.84479
525.01        71.97564
525.45        72.12144
525.89        72.24207
526.32        72.31448
526.76        72.34185
527.20        72.31873
527.64        72.26051
528.08        72.19407
528.52        72.06152
528.96        71.85612
529.40        71.77087
529.83        71.85134
530.27        71.31155
530.71        71.57169
531.15        71.51582
531.59        71.56344
532.03        71.66192
532.46        71.81702
532.90        72.00206
533.34        72.18571
533.78        72.37405
534.22        72.51087
534.66        72.52301
535.09        72.39289
535.53        72.16586
535.97        71.91275
536.41        71.76915
536.85        71.76981
537.28         71.8834
537.72        72.02483
538.16        72.06758
538.60        71.98324
539.04        71.75928
539.47        71.48112
539.91        71.46864
540.35        71.66685
540.79        71.73025
541.22        71.62921
541.66        71.60489
542.10        71.64465
542.54        71.59807
542.97        71.49297
543.41        71.48322
543.85        71.56461
544.29        71.70027
544.72        71.82413
545.16        71.82585
545.60        71.67255
546.04         71.5233
546.47         71.4355
546.91        71.23976
547.35        71.10383
547.79        71.60882
548.22        72.46991
548.66        72.82871
549.10        72.50681
549.53        71.61978
549.97        70.57709
550.41        70.11842
550.84        70.37628
551.28        70.99345
551.72        71.70746
552.15        72.17908
552.59         72.2806
553.03        72.12309
553.46        71.81965
553.90        71.61702
554.34        71.57391
554.77        71.52876
555.21        71.45827
555.65        71.54325
556.08        71.80053
556.52        71.37701
556.96        71.87934
557.39        71.68941
557.83        71.39795
558.27        71.32605
558.70        71.49695
559.14        71.65167
559.57        71.75814
560.01        71.92839
560.45        72.11684
560.88        72.32817
561.32        72.45422
561.75        72.14884
562.19        71.57944
562.63        71.02489
563.06        70.68103
563.50        70.93602
563.93        71.58905
564.37        71.88258
564.80        71.72513
565.24         71.5952
565.68        71.51246
566.11        71.39491
566.55        71.32961
566.98        71.11546
567.42        70.88271
567.85        71.32784
568.29        72.26901
568.72        72.33379
569.16        71.77985
569.60        72.13416
570.03        72.77249
570.47        72.82912
570.90        72.52784
571.34        70.74186
571.77        71.60086
572.21        71.76849
572.64        71.39755
573.08        70.08113
573.51        67.38419
573.95        69.92369
574.38        74.17924
574.82        72.08334
