SpectraSmart Spectrum 2.9.0.0
--------- Device Information -----------
Spectrum Name :  反射率_0
Saving Time :  2024/04/26 01:08:58
Spectro-Module Model Name : SE2030-DUVN
Spectro-Module Serial Number : OS361AC55029948
Wavelength Start : 200
Wavelength End : 1025
Wavelength Unit : Wavelength(nm)
Spectrum Unit : Reflectance(%)
-----------Spectrum Setting ------------
Integration Time : 20ms
Average : 10
Boxcar : 0
Background removal :  enabled
linearity correction :  enabled
SC :  disabled
Intensity correction :  disabled
DWT denoise :  enabled
savitzky-golay :  disabled
FFT :  disabled
Running average :  disabled
Kalman :  disabled
High pass :  disabled
---------------BEGIN--------------------
Wavelength(nm)             Reflectance(%)
200.29               0
200.75        105.8298
201.21        98.56712
201.67        88.89465
202.13         82.1384
202.58         79.1915
203.04        78.87497
203.50        79.94431
203.96        80.45639
204.42        79.87624
204.88        79.03319
205.34        78.48408
205.80        78.74026
206.26        80.15372
206.72        83.42681
207.18        89.66118
207.64        94.88189
208.10        90.69648
208.55        82.41557
209.01        77.32938
209.47        75.88956
209.93        76.60792
210.39        79.03548
210.85        81.48406
211.31        80.45877
211.77        75.27306
212.23        67.33099
212.69        60.33094
213.14        60.02861
213.60        67.07316
214.06        79.78126
214.52        93.59131
214.98        101.5068
215.44        101.7775
215.90        96.60332
216.36        89.26719
216.81        84.35107
217.27        83.22384
217.73        84.31392
218.19        85.32359
218.65        83.14531
219.11        76.59026
219.57        65.04937
220.02        50.12646
220.48        41.11374
220.94        43.41099
221.40        54.42147
221.86         65.2887
222.32         66.7719
222.77        59.71529
223.23        49.24299
223.69         40.0471
224.15        36.80959
224.61        39.13177
225.06        44.70541
225.52        50.47493
225.98         52.7676
226.44        50.91832
226.90        46.50819
227.36        41.72103
227.81        39.43588
228.27        40.46181
228.73        43.53689
229.19        47.09441
229.65        48.88508
230.10        48.55658
230.56        47.15092
231.02        45.72795
231.48         45.4456
231.93        46.36931
232.39        47.98019
232.85        49.72585
233.31        50.87101
233.77        51.16803
234.22        50.82749
234.68        50.05395
235.14        49.19308
235.60        48.47976
236.05        47.92963
236.51        47.43797
236.97        46.75682
237.43        45.85942
237.88        44.87224
238.34        44.30652
238.80        45.49776
239.26        48.93083
239.71         54.2733
240.17        60.08798
240.63        64.36348
241.08        66.47374
241.54          66.731
242.00        66.05381
242.46        65.89988
242.91        67.24158
243.37        70.80711
243.83        83.12398
244.28         129.076
244.74        191.6749
245.20        170.8346
245.66        145.4943
246.11        139.0208
246.57        145.0789
247.03        169.6436
247.48        239.6335
247.94         193.649
248.40        116.3555
248.85        93.71008
249.31        87.85498
249.77        88.64735
250.22         93.6562
250.68        103.6128
251.14        118.1381
251.59        127.4896
252.05        122.1666
252.51        106.5798
252.96        90.52857
253.42         83.2718
253.88        84.02804
254.33        89.23484
254.79        96.37317
255.25        101.3889
255.70        103.1337
256.16        103.5701
256.62        102.6639
257.07         100.164
257.53        96.82185
257.99        92.29813
258.44        87.59165
258.90        85.00742
259.35        83.62778
259.81        82.92905
260.27        81.30339
260.72        77.14229
261.18        71.31232
261.63        64.52541
262.09        58.42491
262.55        54.20679
263.00        51.80758
263.46        50.70773
263.91        49.93942
264.37        48.78625
264.83        47.01466
265.28        44.76348
265.74        42.59908
266.19        41.11723
266.65        40.53355
267.11        40.48484
267.56        40.40491
268.02        39.62953
268.47        38.03234
268.93        35.85059
269.38        33.50571
269.84        31.97102
270.30        31.51091
270.75        31.84752
271.21        32.43363
271.66        32.44137
272.12        31.66151
272.57        30.36202
273.03        28.97404
273.48        28.05787
273.94        27.77041
274.39        27.86387
274.85        28.04292
275.31        27.87987
275.76        27.27506
276.22         26.4183
276.67        25.52167
277.13        24.96928
277.58        24.78146
278.04        24.84632
278.49        24.91806
278.95        24.71881
279.40        24.17691
279.86        23.45469
280.31        22.69705
280.77        22.22396
281.22        22.05208
281.68        22.08999
282.13        22.18934
282.59        22.17693
283.04        22.00698
283.50        21.77908
283.95        21.52199
284.41        21.29366
284.86         21.1128
285.32        20.96188
285.77        20.89244
286.22        21.04459
286.68        21.39786
287.13         21.8828
287.59        22.32164
288.04        22.44165
288.50        22.22386
288.95        21.74141
289.41        21.20186
289.86        20.81695
290.32        20.69979
290.77        20.77707
291.22        21.00274
291.68        21.26217
292.13        21.53939
292.59        21.89359
293.04         22.3833
293.50          23.092
293.95         24.0163
294.40        25.08467
294.86        26.23198
295.31        27.37789
295.77        28.50218
296.22        29.63455
296.68        30.75971
297.13         31.8196
297.58        32.83073
298.04        33.82288
298.49        34.90487
298.95        36.29968
299.40        38.03167
299.85         40.0295
300.31        42.12418
300.76          44.036
301.21        45.66267
301.67        47.11137
302.12        48.42665
302.58        49.78128
303.03        51.20314
303.48        52.66742
303.94        54.24765
304.39        55.99797
304.84         57.9209
305.30        59.99102
305.75        62.02485
306.20        63.76165
306.66        65.16994
307.11        66.27793
307.57        67.28641
308.02        68.38437
308.47        69.67912
308.93        71.11374
309.38        72.58764
309.83        73.99341
310.29        75.27744
310.74        76.43963
311.19        77.51283
311.65        78.54419
312.10        79.53683
312.55        80.48823
313.00        81.32368
313.46        81.93516
313.91        82.29826
314.36        82.47219
314.82         82.6356
315.27        83.00807
315.72        83.67332
316.18        84.57213
316.63        85.55809
317.08         86.3417
317.53        86.83531
317.99        87.09811
318.44        87.30824
318.89        87.76718
319.35        88.51502
319.80        89.47879
320.25        90.39056
320.70        90.81248
321.16        90.65778
321.61        90.08397
322.06        89.40343
322.51          89.104
322.97        89.28847
323.42        89.85007
323.87        90.56347
324.32        91.03757
324.78        91.14024
325.23        91.03127
325.68        90.83047
326.13        90.75906
326.59        90.86671
327.04        91.10169
327.49        91.41152
327.94        91.75132
328.39        92.09119
328.85         92.4355
329.30        92.80281
329.75        93.05156
330.20        93.17986
330.66         93.2143
331.11        93.31414
331.56        93.66249
332.01        94.31641
332.46        95.19915
332.92        96.19753
333.37        97.28692
333.82        98.31467
334.27        99.28854
334.72        100.0583
335.17        100.3966
335.63         100.284
336.08        99.83746
336.53        99.32167
336.98        99.21104
337.43         99.6304
337.88        100.4565
338.34        101.4818
338.79        102.4401
339.24        103.1795
339.69        103.7979
340.14        104.2694
340.59        104.5516
341.05        104.6705
341.50         104.603
341.95        104.5148
342.40        104.6929
342.85        105.1897
343.30         105.937
343.75        106.7318
344.20        107.2013
344.66        107.2604
345.11         107.013
345.56        106.6406
346.01         106.418
346.46        106.4297
346.91        106.5908
347.36        106.8347
347.81        107.0632
348.26        107.2401
348.72        107.4168
349.17        107.5698
349.62        107.7028
350.07        107.8095
350.52        107.8671
350.97        107.8781
351.42        107.8602
351.87        107.8175
352.32        107.7531
352.77        107.6458
353.22        107.4626
353.67        107.2009
354.13        106.8812
354.58        106.5275
355.03        106.2345
355.48        106.0134
355.93          105.84
356.38         105.628
356.83        105.2391
357.28         104.651
357.73        103.9137
358.18        103.1325
358.63        102.4747
359.08         101.979
359.53        101.5909
359.98        101.2251
360.43        100.7456
360.88        100.1129
361.33        99.37103
361.78         98.5697
362.23        97.79161
362.68         97.0741
363.13        96.40094
363.58        95.75675
364.03        95.11397
364.48        94.46284
364.93        93.81512
365.38        93.18677
365.83        92.60018
366.28         92.0497
366.73        91.50877
367.18        90.95438
367.63        90.35813
368.08        89.72301
368.53        89.08359
368.98        88.43044
369.43        87.73683
369.88        87.00751
370.33        86.24626
370.78        85.54325
371.23        85.05067
371.68        84.79285
372.13        84.72214
372.58        84.69798
373.03        84.48161
373.48        84.01788
373.93        83.38822
374.38        82.71632
374.83        82.18907
375.28        81.84994
375.72        81.61758
376.17        81.44743
376.62        81.24689
377.07        80.96986
377.52        80.62971
377.97         80.2177
378.42        79.71896
378.87        79.15262
379.32        78.55322
379.77        77.92632
380.22        77.27116
380.67        76.59525
381.11        75.89922
381.56        75.27242
382.01        74.86502
382.46        74.70754
382.91        74.77166
383.36        74.87652
383.81        74.73266
384.26        74.28259
384.71        73.59719
385.15        72.88795
385.60        72.54417
386.05        72.58086
386.50        72.86462
386.95        73.12567
387.40        72.92021
387.85        72.20068
388.29        71.15937
388.74        70.15687
389.19        69.41387
389.64        68.97325
390.09        68.70749
390.54        68.62025
390.98         68.7204
391.43        68.96145
391.88        69.31808
392.33        69.58393
392.78        69.41212
393.23        68.79966
393.67        67.95567
394.12        67.20989
394.57        66.60075
395.02        66.30157
395.47        66.69715
395.91        67.61525
396.36        68.17286
396.81        68.21355
397.26        68.11368
397.71         67.9212
398.15        67.48808
398.60        66.94099
399.05        66.41099
399.50        65.93642
399.95        65.20108
400.39        64.60325
400.84        64.35762
401.29        64.49665
401.74        64.54371
402.18         64.4627
402.63        64.45736
403.08        64.58382
403.53        64.79495
403.97        65.07318
404.42        65.39719
404.87        65.61216
405.32        65.44923
405.76        64.87724
406.21        64.10579
406.66        63.35362
407.11        62.84851
407.55        62.74095
408.00        63.10517
408.45        63.76673
408.90        64.30054
409.34          64.439
409.79        63.96508
410.24        63.15118
410.68        62.73864
411.13        62.82963
411.58        63.02211
412.03        63.24628
412.47        63.55121
412.92        63.84014
413.37        64.13187
413.81        64.34096
414.26        64.37303
414.71        64.20535
415.15         63.8558
415.60        63.45796
416.05        63.25226
416.49        63.30167
416.94        63.56183
417.39        63.85879
417.83        63.87696
418.28         63.5648
418.73        63.03255
419.17        62.52065
419.62         62.4124
420.07        62.74524
420.51        63.38272
420.96        64.07649
421.41        64.36452
421.85        64.11514
422.30        63.70824
422.74        63.24996
423.19        62.68925
423.64        62.20454
424.08        62.44869
424.53        63.27388
424.98        63.77212
425.42         63.8212
425.87        64.08754
426.31        64.54415
426.76        64.46996
427.21        64.08598
427.65        64.44422
428.10        65.44425
428.54        66.19122
428.99        66.62427
429.44        66.89557
429.88        66.96001
430.33         67.4409
430.77        67.89619
431.22        66.64474
431.66        64.29679
432.11        63.51739
432.56        64.38776
433.00        65.21796
433.45        65.84526
433.89        67.34383
434.34        68.52146
434.78         69.9483
435.23        66.09547
435.67        64.77176
436.12        66.66653
436.57        67.74542
437.01        68.24441
437.46        68.54062
437.90        68.81982
438.35        68.40296
438.79        69.11687
439.24         69.0967
439.68        68.91512
440.13        68.50367
440.57         68.2231
441.02        69.05112
441.46        70.59874
441.91        71.48144
442.35        71.43021
442.80        70.62234
443.24        69.49571
443.69        70.03443
444.13        71.85668
444.58        71.88573
445.02        70.25045
445.47        70.06094
445.91        71.21054
446.36        71.62852
446.80        71.24145
447.24        71.13406
447.69        71.35677
448.13         71.5392
448.58        71.68967
449.02        71.85546
449.47        72.03472
449.91        72.24821
450.36        72.48545
450.80        72.69546
451.25        72.83503
451.69        72.82681
452.13        72.68173
452.58        72.42648
453.02        72.15681
453.47        72.07215
453.91        72.19217
454.36        72.45196
454.80        72.73946
455.24        72.81957
455.69        72.64429
456.13        72.33056
456.58        72.03165
457.02        71.64978
457.46        71.39069
457.91        71.74317
458.35        72.48387
458.79         72.8068
459.24        72.66171
459.68        72.39816
460.13        72.09236
460.57         71.7711
461.01        71.55278
461.46        70.95263
461.90        70.57185
462.34        70.89279
462.79        70.46606
463.23         70.7607
463.68        71.19865
464.12        71.51334
464.56        71.60321
465.01         71.7359
465.45        71.74033
465.89        71.40408
466.34        70.76653
466.78        69.75816
467.22        68.88676
467.67        68.42168
468.11        69.90948
468.55        70.36549
468.99        70.08285
469.44        69.67013
469.88        69.37283
470.32        69.64523
470.77        70.29573
471.21        70.41669
471.65        69.92983
472.10        69.50511
472.54        69.29427
472.98        69.21593
473.42        69.29427
473.87        69.67699
474.31        70.13166
474.75        70.06457
475.20        69.56572
475.64        69.28041
476.08        69.27777
476.52        69.18684
476.97        69.02889
477.41         69.0446
477.85        69.19988
478.29        69.42821
478.74        69.53712
479.18        69.68315
479.62        68.34952
480.06        68.87853
480.50        69.33623
480.95        69.92147
481.39         70.1164
481.83        69.36496
482.27          69.415
482.72        69.20296
483.16        67.71728
483.60        67.93751
484.04        69.35094
484.48        69.95659
484.93        70.16571
485.37        71.20175
485.81        71.61595
486.25        70.59959
486.69        95.15014
487.14        77.19223
487.58        48.07938
488.02        59.19539
488.46        66.99462
488.90        66.85815
489.34        68.45198
489.79        67.42071
490.23        69.39075
490.67        70.05669
491.11        69.03079
491.55        68.88798
491.99        69.25282
492.43        69.06734
492.88        68.43558
493.32        68.57125
493.76        68.91278
494.20        69.23925
494.64        69.28455
495.08        69.27301
495.52        69.32234
495.96        69.28761
496.41        69.15839
496.85        69.74545
497.29        70.70521
497.73        69.55091
498.17        67.32096
498.61        67.57625
499.05        70.27076
499.49         70.7079
499.93        70.41479
500.37        70.03766
500.82         69.5443
501.26        69.66779
501.70        70.07442
502.14        70.54548
502.58        70.07122
503.02        69.90199
503.46         69.7846
503.90        69.38184
504.34        68.85423
504.78        68.64461
505.22         68.7992
505.66        69.24359
506.10        69.81245
506.54        70.00539
506.98        69.68613
507.42        69.84419
507.86        69.12262
508.30        68.99877
508.74         69.0864
509.18        69.33953
509.62        69.63224
510.06        69.79528
510.50        69.79255
510.94        69.67554
511.38        69.52694
511.82        69.46539
512.26         69.5243
512.70        69.65315
513.14        69.79066
513.58        69.89951
514.02        69.96084
514.46        69.89224
514.90        69.69801
515.34         69.8869
515.78        69.63049
516.22        69.65073
516.66         69.6859
517.10        69.55894
517.54        69.26322
517.98        69.45686
518.42        69.29347
518.86        69.43386
519.30        69.61166
519.74        69.87074
520.18        70.15129
520.62        70.34994
521.06        70.44539
521.50        70.46345
521.93        70.40388
522.37        70.26807
522.81          70.084
523.25        69.86506
523.69        69.68748
524.13        69.66686
524.57        69.81944
525.01        70.10594
525.45        70.44335
525.89        70.69237
526.32        70.79848
526.76        70.79245
527.20        70.70052
527.64        70.59335
528.08        70.51331
528.52        70.37043
528.96        70.14711
529.40        70.04648
529.83        70.09886
530.27        69.49144
530.71        69.63373
531.15        69.52882
531.59        69.59735
532.03        69.73788
532.46        69.96198
532.90        70.27276
533.34        70.62389
533.78        70.99455
534.22        71.28456
534.66        71.35843
535.09        71.18784
535.53        70.84245
535.97        70.41769
536.41        70.09005
536.85        69.91746
537.28        69.86454
537.72        69.87643
538.16        69.86935
538.60        69.82021
539.04        69.71109
539.47        69.57475
539.91        69.64206
540.35        69.84399
540.79        69.86051
541.22        69.70879
541.66        69.71268
542.10        69.86973
542.54        69.97396
542.97         70.0029
543.41        70.10629
543.85         70.1521
544.29        70.24214
544.72        70.27297
545.16         70.1711
545.60        69.92303
546.04        69.55624
546.47        69.23438
546.91        69.20778
547.35         69.5107
547.79        70.13536
548.22         70.7844
548.66        70.91019
549.10        70.45456
549.53        69.69803
549.97         68.9764
550.41        68.64108
550.84        68.79403
551.28         69.3627
551.72        70.10385
552.15        70.51018
552.59        70.44783
553.03        70.31298
553.46         69.8543
553.90        69.65915
554.34        69.66273
554.77        69.80848
555.21        70.03757
555.65        69.94149
556.08        70.40628
556.52        69.84665
556.96        70.16869
557.39        70.02529
557.83        69.94831
558.27        69.87594
558.70        69.85051
559.14        69.96728
559.57        70.19273
560.01        70.43935
560.45        70.64482
560.88        70.83067
561.32        70.91738
561.75        70.67858
562.19        70.23306
562.63        69.66766
563.06        69.16595
563.50        69.22054
563.93        69.71375
564.37        69.87917
564.80        69.85405
565.24        69.87798
565.68        69.99364
566.11        70.00788
566.55        69.96764
566.98        69.86005
567.42        69.75734
567.85        69.87452
568.29        70.22318
568.72        70.34195
569.16        70.36945
569.60        70.81261
570.03        71.32917
570.47        71.23244
570.90         70.8389
571.34        69.27364
571.77        70.13897
572.21         70.1846
572.64        69.64601
573.08        68.64071
573.51        66.11411
573.95        68.55077
574.38        72.38577
574.82        70.55353
