SpectraSmart Spectrum 2.9.0.0
--------- Device Information -----------
Spectrum Name :  反射率_0
Saving Time :  2024/04/26 01:41:24
Spectro-Module Model Name : SE2030-DUVN
Spectro-Module Serial Number : OS361AC55029948
Wavelength Start : 200
Wavelength End : 1025
Wavelength Unit : Wavelength(nm)
Spectrum Unit : Reflectance(%)
-----------Spectrum Setting ------------
Integration Time : 20ms
Average : 10
Boxcar : 0
Background removal :  enabled
linearity correction :  enabled
SC :  disabled
Intensity correction :  disabled
DWT denoise :  enabled
savitzky-golay :  disabled
FFT :  disabled
Running average :  disabled
Kalman :  disabled
High pass :  disabled
---------------BEGIN--------------------
Wavelength(nm)             Reflectance(%)
200.29               0
200.75        104.0072
201.21         91.4394
201.67        76.96735
202.13        68.21885
202.58        66.18034
203.04        68.94147
203.50        74.15075
203.96        77.67479
204.42        78.19507
204.88        77.21573
205.34        76.18504
205.80        76.65755
206.26        79.48269
206.72        86.04094
207.18        98.69144
207.64        109.5041
208.10        101.7272
208.55        86.20782
209.01        76.81743
209.47        74.48374
209.93        76.41414
210.39        81.35423
210.85        86.79147
211.31        87.25665
211.77        81.21857
212.23        70.87837
212.69        60.71623
213.14        57.61319
213.60         62.5936
214.06        73.62588
214.52        86.28054
214.98        93.70634
215.44         94.0648
215.90        89.57131
216.36        82.95072
216.81        77.94279
217.27        75.86535
217.73        75.43636
218.19        74.95286
218.65        72.07762
219.11        65.76463
219.57        55.33748
220.02        42.04527
220.48        33.88715
220.94        35.51228
221.40        45.00251
221.86        54.56658
222.32        55.95874
222.77        49.97635
223.23        41.08979
223.69        33.62648
224.15        32.02229
224.61        35.75909
225.06        42.48812
225.52        49.22215
225.98        52.30626
226.44        51.02945
226.90        47.05769
227.36        42.13058
227.81        38.49204
228.27         37.0805
228.73        37.01724
229.19        37.93536
229.65        39.30944
230.10        40.75379
230.56        42.29276
231.02        43.76231
231.48        44.94731
231.93        45.81395
232.39        46.39742
232.85        46.66386
233.31        46.63501
233.77        46.32833
234.22        45.73422
234.68         44.9987
235.14         44.3622
235.60        43.99591
236.05        44.00058
236.51        44.27576
236.97        44.58318
237.43        44.96445
237.88        45.61462
238.34        46.96139
238.80        49.91499
239.26        54.58188
239.71          60.552
240.17        66.53284
240.63        71.01707
241.08        73.54675
241.54        74.22178
242.00        73.94022
242.46        74.17906
242.91        76.03718
243.37        80.70705
243.83         95.2983
244.28        142.2391
244.74        193.4756
245.20        163.3437
245.66        137.0382
246.11        130.6497
246.57        136.6001
247.03        161.1537
247.48        233.2539
247.94        193.5996
248.40        115.9059
248.85         92.4487
249.31        85.93156
249.77        86.03986
250.22        90.15521
250.68         98.5536
251.14        111.3643
251.59        121.3664
252.05        120.4443
252.51        111.4202
252.96         100.496
253.42        94.34502
253.88        92.76543
254.33        93.30551
254.79        95.94654
255.25        100.0358
255.70        104.3832
256.16        109.0793
256.62         112.135
257.07        111.4719
257.53        108.0958
257.99        102.6386
258.44        96.98988
258.90        94.45659
259.35        93.96917
259.81        94.44797
260.27         93.8467
260.72        90.19238
261.18        84.47365
261.63        77.57787
262.09        71.28449
262.55        66.83331
263.00        64.16315
263.46        62.76018
263.91        61.69516
264.37        60.39658
264.83        58.57251
265.28        56.32397
265.74        54.05807
266.19        52.09518
266.65        50.73953
267.11        49.79556
267.56        48.92426
268.02        47.73022
268.47        46.06514
268.93        44.07357
269.38        42.03641
269.84        40.67681
270.30        40.17794
270.75        40.33293
271.21        40.68768
271.66        40.55217
272.12        39.75508
272.57        38.49991
273.03        37.16916
273.48        36.24796
273.94        35.88054
274.39        35.84402
274.85        35.87647
275.31        35.57957
275.76        34.85856
276.22        33.89363
276.67        32.87712
277.13        32.18933
277.58        31.83602
278.04        31.71838
278.49        31.58692
278.95        31.17462
279.40        30.40864
279.86        29.47383
280.31        28.50307
280.77        27.81458
281.22        27.43074
281.68         27.2717
282.13         27.2321
282.59        27.21289
283.04        27.15778
283.50        27.13745
283.95        27.09038
284.41        26.94664
284.86        26.69875
285.32        26.37852
285.77        26.10895
286.22        26.15096
286.68        26.50824
287.13        27.05511
287.59        27.58019
288.04        27.75041
288.50        27.53355
288.95        27.03251
289.41        26.43995
289.86        25.92833
290.32        25.62935
290.77        25.48317
291.22        25.52808
291.68         25.7802
292.13        26.23145
292.59        26.88556
293.04        27.70205
293.50        28.60693
293.95        29.55348
294.40        30.52761
294.86        31.50306
295.31        32.46062
295.77         33.4129
296.22        34.36473
296.68        35.35275
297.13         36.4051
297.58        37.54052
298.04        38.76531
298.49        40.07455
298.95        41.51167
299.40        43.06623
299.85        44.72296
300.31        46.42884
300.76        48.09467
301.21        49.66772
301.67        51.19446
302.12        52.63451
302.58        54.04263
303.03        55.41215
303.48        56.76453
303.94         58.2131
304.39        59.86337
304.84        61.73751
305.30        63.79193
305.75        65.82625
306.20        67.56264
306.66          68.965
307.11        70.06457
307.57         71.0826
308.02        72.22781
308.47         73.6118
308.93        75.17444
309.38        76.77796
309.83        78.25994
310.29        79.56176
310.74        80.69945
311.19        81.76639
311.65        82.90388
312.10        84.12737
312.55        85.39915
313.00        86.57016
313.46         87.4094
313.91        87.85635
314.36        88.00633
314.82         88.0933
315.27        88.41976
315.72        89.09857
316.18        90.04647
316.63        91.09705
317.08        91.92838
317.53        92.43973
317.99        92.70087
318.44        92.90466
318.89        93.37064
319.35        94.14323
319.80        95.15142
320.25        96.09698
320.70        96.49402
321.16        96.25362
321.61        95.55024
322.06        94.76343
322.51        94.48592
322.97        94.83316
323.42          95.663
323.87        96.66428
324.32        97.29614
324.78        97.38377
325.23         97.1393
325.68        96.74594
326.13        96.53333
326.59        96.59132
327.04        96.83867
327.49        97.22153
327.94        97.69432
328.39        98.21243
328.85        98.77953
329.30        99.37054
329.75        99.75087
330.20        99.89585
330.66        99.85408
331.11        99.83379
331.56        100.1024
332.01         100.747
332.46        101.6684
332.92        102.7475
333.37        103.9593
333.82        105.1331
334.27        106.2822
334.72        107.2174
335.17        107.6396
335.63         107.519
336.08        107.0003
336.53        106.3974
336.98        106.2725
337.43        106.7744
337.88        107.7452
338.34        108.9682
338.79        110.1679
339.24         111.168
339.69        112.0688
340.14        112.7696
340.59         113.098
341.05         113.071
341.50        112.7234
341.95        112.3415
342.40        112.3916
342.85         112.969
343.30        113.9502
343.75        115.0851
344.20        115.9073
344.66        116.2759
345.11        116.3089
345.56        116.1402
346.01        115.9795
346.46        115.9135
346.91         115.875
347.36        115.8851
347.81        115.9893
348.26        116.1907
348.72        116.5141
349.17        116.8703
349.62        117.1423
350.07        117.2901
350.52        117.3252
350.97        117.3097
351.42        117.3541
351.87        117.4744
352.32        117.6287
352.77        117.7301
353.22        117.6467
353.67        117.3573
354.13        116.9308
354.58        116.4358
355.03        116.0382
355.48        115.7768
355.93        115.6023
356.38        115.4437
356.83        115.1875
357.28        114.7966
357.73        114.3048
358.18        113.7445
358.63        113.1637
359.08        112.5847
359.53        111.9998
359.98        111.3934
360.43        110.7452
360.88        110.0469
361.33        109.2969
361.78        108.5453
362.23        107.8699
362.68        107.2911
363.13        106.8092
363.58        106.3146
364.03        105.6302
364.48        104.7311
364.93        103.6628
365.38        102.6195
365.83        101.9171
366.28        101.6063
366.73        101.5757
367.18        101.5741
367.63        101.1923
368.08        100.3496
368.53         99.2112
368.98        97.99356
369.43        97.01878
369.88        96.37619
370.33        95.95094
370.78        95.68682
371.23        95.49577
371.68        95.32066
372.13        95.19619
372.58        95.03679
373.03        94.69097
373.48        94.14718
373.93        93.45125
374.38         92.7445
374.83        92.25232
375.28        92.01476
375.72        91.94229
376.17        91.94485
376.62        91.84731
377.07        91.58089
377.52        91.18332
377.97        90.66598
378.42        90.05233
378.87        89.38391
379.32        88.68819
379.77        87.99383
380.22        87.33409
380.67        86.71429
381.11        86.12266
381.56        85.61044
382.01        85.25962
382.46        85.08527
382.91        85.08552
383.36        85.10011
383.81        84.87605
384.26        84.37434
384.71          83.653
385.15        82.94524
385.60        82.68468
386.05        82.87988
386.50         83.3853
386.95        83.86504
387.40        83.75731
387.85        82.99079
388.29        81.79244
388.74        80.61752
389.19        79.77283
389.64         79.3181
390.09        79.09511
390.54        79.06783
390.98        79.17847
391.43        79.35282
391.88        79.58509
392.33        79.70172
392.78        79.36063
393.23        78.57156
393.67        77.65793
394.12        76.91214
394.57         76.0481
395.02        75.35538
395.47        75.78484
395.91         77.1416
396.36        77.96852
396.81        78.05355
397.26        78.09057
397.71        78.10233
398.15        77.73192
398.60        77.11284
399.05        76.48946
399.50          75.927
399.95        75.00801
400.39        74.25411
400.84        74.08008
401.29        74.46874
401.74        74.66753
402.18        74.55153
402.63        74.28996
403.08        74.06287
403.53        74.14515
403.97        74.55354
404.42        75.08022
404.87        75.50366
405.32        75.45702
405.76        74.85277
406.21        74.09075
406.66        73.35873
407.11        72.47788
407.55        71.77228
408.00         72.1551
408.45        73.38493
408.90        74.04335
409.34         73.8177
409.79         73.2004
410.24        72.47684
410.68        72.03734
411.13        71.98831
411.58        72.05618
412.03        72.20079
412.47         72.4876
412.92        72.82168
413.37        73.20892
413.81        73.50656
414.26        73.54253
414.71        73.27534
415.15        72.74319
415.60        72.13087
416.05        71.76429
416.49        71.73273
416.94        71.96792
417.39        72.26161
417.83        72.24026
418.28        71.83591
418.73        71.17886
419.17        70.54321
419.62        70.36328
420.07         70.6826
420.51        71.35178
420.96        72.07945
421.41        72.33661
421.85        71.98159
422.30         71.4279
422.74        70.83188
423.19        70.22812
423.64         69.7942
424.08        70.14424
424.53        71.07806
424.98        71.59467
425.42        71.53071
425.87        71.63544
426.31           71.91
426.76         71.4898
427.21        70.72227
427.65        71.09989
428.10        72.39652
428.54        73.24088
428.99        73.52843
429.44         73.3421
429.88        72.91734
430.33        73.80322
430.77        75.19228
431.22        74.08475
431.66        71.09032
432.11        69.46558
432.56        69.59925
433.00        70.49178
433.45        71.99419
433.89        73.97511
434.34        74.88706
434.78        76.28326
435.23        72.75237
435.67        69.80618
436.12         72.7404
436.57        73.84106
437.01          74.543
437.46        74.78086
437.90        74.74573
438.35        73.78191
438.79        74.11112
439.24        73.82989
439.68        73.61253
440.13        73.41015
440.57        73.45855
441.02        74.29414
441.46        75.56081
441.91        76.53557
442.35        76.84832
442.80        75.91145
443.24        74.27392
443.69        74.74681
444.13        76.91342
444.58        76.92204
445.02        74.99923
445.47        74.65916
445.91        75.85404
446.36        76.18027
446.80        75.54119
447.24        75.40651
447.69        75.91848
448.13        75.35931
448.58        76.09062
449.02        76.25283
449.47        76.50056
449.91        76.72512
450.36        76.91828
450.80        77.04745
451.25        77.05772
451.69        76.89951
452.13        76.59891
452.58        76.19182
453.02        75.80912
453.47         75.6965
453.91        75.86881
454.36        76.25047
454.80        76.68026
455.24        76.78017
455.69        76.48907
456.13        76.09594
456.58        75.74973
457.02        75.10332
457.46        74.52477
457.91        74.77631
458.35        75.64616
458.79        76.03477
459.24        75.86523
459.68        75.67357
460.13        75.51116
460.57        75.17503
461.01        74.75628
461.46        74.21669
461.90        73.58962
462.34        73.69812
462.79        73.34476
463.23        73.57851
463.68        73.95469
464.12         74.4901
464.56        74.97715
465.01        75.07861
465.45        74.72997
465.89         74.4514
466.34        74.16404
466.78        73.13306
467.22        71.94704
467.67        71.14089
468.11          72.603
468.55        73.45928
468.99        73.28127
469.44        72.87612
469.88        72.26376
470.32         72.1414
470.77        72.43696
471.21        72.34972
471.65        71.86445
472.10        71.63416
472.54        71.69183
472.98        71.76714
473.42         71.8381
473.87          72.058
474.31        72.31487
474.75        72.30277
475.20         72.0626
475.64        71.98664
476.08        72.10421
476.52        71.94052
476.97        71.45528
477.41        71.72913
477.85        71.40891
478.29        71.25296
478.74        71.66793
479.18        71.75751
479.62        70.86294
480.06        71.47361
480.50         71.7587
480.95        72.25359
481.39        72.56413
481.83        71.01737
482.27        71.67277
482.72        71.22083
483.16        69.95587
483.60        70.08666
484.04         71.6585
484.48        71.95472
484.93        71.51379
485.37        73.57265
485.81        73.61852
486.25        72.88425
486.69        99.72401
487.14        80.51074
487.58        50.06306
488.02        61.27408
488.46         69.2697
488.90        68.56732
489.34         69.8908
489.79        69.19888
490.23        70.94136
490.67        71.72622
491.11         70.7131
491.55        70.76971
491.99        71.42023
492.43        71.31621
492.88        70.54566
493.32        70.46426
493.76         70.5956
494.20        70.82224
494.64        70.90265
495.08        71.07407
495.52        71.35707
495.96        71.33392
496.41        71.00056
496.85        71.48872
497.29        72.46477
497.73        71.15535
498.17        68.66297
498.61        68.86321
499.05        71.70664
499.49        72.16043
499.93        71.77953
500.37        71.44948
500.82        71.09101
501.26        71.04397
501.70        71.44739
502.14        71.57272
502.58         71.4108
503.02        71.25626
503.46        71.11265
503.90        70.76797
504.34        70.34618
504.78        70.14969
505.22        70.19749
505.66        70.47784
506.10        70.90053
506.54        71.01607
506.98        70.69608
507.42        71.15687
507.86        70.59222
508.30        70.45238
508.74        70.59815
509.18        70.71493
509.62        70.84389
510.06        70.90115
510.50        70.88527
510.94        70.80866
511.38        70.72352
511.82         70.7114
512.26        70.78773
512.70        70.92138
513.14        71.06578
513.58        71.14996
514.02        71.14828
514.46         71.0782
514.90        70.97404
515.34        70.87451
515.78        70.78494
516.22        70.75746
516.66        70.77229
517.10        70.62915
517.54         70.3224
517.98         70.4795
518.42        70.28198
518.86        70.38735
519.30        70.54103
519.74        70.79039
520.18        71.06239
520.62        71.23125
521.06        71.27677
521.50        71.23076
521.93         71.1377
522.37        71.07148
522.81        71.06197
523.25        71.08463
523.69        71.13979
524.13        71.22978
524.57        71.34503
525.01        71.48305
525.45        71.60866
525.89        71.66332
526.32        71.62578
526.76        71.51022
527.20        71.34515
527.64        71.19657
528.08        71.10284
528.52        70.99593
528.96        70.83815
529.40        70.76667
529.83        70.81735
530.27        70.23781
530.71         70.4544
531.15        70.40963
531.59        70.52618
532.03        70.73112
532.46        71.01652
532.90        71.33652
533.34        71.63971
533.78        71.92475
534.22        72.11848
534.66        72.12415
535.09        71.92524
535.53          71.584
535.97        71.18335
536.41        70.87827
536.85        70.72166
537.28        70.68641
537.72        70.72582
538.16         70.7692
538.60        70.79133
539.04        70.75822
539.47        70.69306
539.91        70.81966
540.35        71.06235
540.79        71.10085
541.22        70.94341
541.66        70.89756
542.10        70.96409
542.54        70.95993
542.97        70.89918
543.41        70.91621
543.85        71.00719
544.29        71.15762
544.72         71.2725
545.16        71.23588
545.60        71.02668
546.04        70.67626
546.47        70.34253
546.91        70.32703
547.35        70.65996
547.79        71.17751
548.22        71.64801
548.66        71.85896
549.10        71.64806
549.53        70.82723
549.97        69.79436
550.41        69.07656
550.84        69.38372
551.28        69.87208
551.72         70.4809
552.15        70.90604
552.59           71.03
553.03        70.94177
553.46        70.71882
553.90        70.56321
554.34        70.52538
554.77        70.46816
555.21        70.36819
555.65        70.42107
556.08         70.6572
556.52        70.17577
556.96        70.60391
557.39        70.55704
557.83        70.55119
558.27        70.57537
558.70        70.65469
559.14        70.79424
559.57        70.95922
560.01        71.11581
560.45        71.21995
560.88        71.30826
561.32        71.33359
561.75        71.06535
562.19        70.64088
562.63         70.2454
563.06        70.00776
563.50         70.1763
563.93        70.61295
564.37        70.85336
564.80        70.79757
565.24        70.69221
565.68        70.58119
566.11        70.39941
566.55        70.42056
566.98        70.36039
567.42        70.33561
567.85        70.60119
568.29        71.11042
568.72        71.31039
569.16        71.38199
569.60        71.84513
570.03        72.32192
570.47        72.60271
570.90        72.15411
571.34        70.42262
571.77        71.52132
572.21        71.53868
572.64        71.06445
573.08        70.05796
573.51         67.0592
573.95        69.64866
574.38         74.0433
574.82        71.93663
