SpectraSmart Spectrum 2.9.0.0
--------- Device Information -----------
Spectrum Name :  反射率_0
Saving Time :  2024/04/26 01:39:29
Spectro-Module Model Name : SE2030-DUVN
Spectro-Module Serial Number : OS361AC55029948
Wavelength Start : 200
Wavelength End : 1025
Wavelength Unit : Wavelength(nm)
Spectrum Unit : Reflectance(%)
-----------Spectrum Setting ------------
Integration Time : 20ms
Average : 10
Boxcar : 0
Background removal :  enabled
linearity correction :  enabled
SC :  disabled
Intensity correction :  disabled
DWT denoise :  enabled
savitzky-golay :  disabled
FFT :  disabled
Running average :  disabled
Kalman :  disabled
High pass :  disabled
---------------BEGIN--------------------
Wavelength(nm)             Reflectance(%)
200.29               0
200.75        95.73592
201.21        94.68758
201.67        91.98833
202.13        87.64609
202.58        82.03317
203.04        75.84104
203.50        70.21349
203.96        67.54139
204.42        68.19973
204.88          70.773
205.34        74.24055
205.80        78.13713
206.26        83.21563
206.72        92.25384
207.18        108.1658
207.64        120.3901
208.10        108.8532
208.55         87.9936
209.01         75.3169
209.47        71.59015
209.93        73.04713
210.39        78.04779
210.85        83.91393
211.31        84.80452
211.77        78.93849
212.23        68.58639
212.69        58.06525
213.14        53.96305
213.60        57.41802
214.06        66.76674
214.52        77.99124
214.98        84.84357
215.44        85.64928
215.90        82.22731
216.36        77.57278
216.81         75.7831
217.27        77.70571
217.73        81.58949
218.19        84.74483
218.65        83.70968
219.11           77.28
219.57        64.76743
220.02         47.8111
220.48        36.53636
220.94        37.35322
221.40        48.04041
221.86        59.51249
222.32         61.9159
222.77        55.91088
223.23        46.59617
223.69         38.7952
224.15        37.41731
224.61        41.90422
225.06        49.65244
225.52        57.25189
225.98        60.43753
226.44        58.43898
226.90        53.16546
227.36        46.90968
227.81        42.69233
228.27        41.55577
228.73        42.32287
229.19        44.08082
229.65        45.51195
230.10        46.17599
230.56        46.53806
231.02        46.85713
231.48        47.36797
231.93        48.08038
232.39        48.86121
232.85        49.49631
233.31        49.76019
233.77        49.60069
234.22        49.07762
234.68        48.46052
235.14        48.20257
235.60        48.47236
236.05         49.2051
236.51        50.07079
236.97        50.55827
237.43        50.60429
237.88        50.38161
238.34        50.30485
238.80        51.56151
239.26        54.54879
239.71        58.94754
240.17        63.51918
240.63        66.67274
241.08        67.98281
241.54        67.79573
242.00        66.92768
242.46        66.54451
242.91        67.43803
243.37        70.11161
243.83        80.29669
244.28        121.8906
244.74        184.1657
245.20        169.0341
245.66        146.3809
246.11        141.0242
246.57        147.9689
247.03        173.8687
247.48        246.8831
247.94        199.1678
248.40        118.5958
248.85        94.86063
249.31        88.39307
249.77        88.40594
250.22        92.16293
250.68         100.031
251.14        111.2809
251.59        117.0201
252.05        109.7313
252.51        94.31346
252.96        79.46742
253.42        72.90514
253.88        73.81133
254.33        79.10307
254.79        87.16904
255.25        95.01889
255.70        100.9322
256.16        105.7735
256.62        108.3779
257.07        107.5045
257.53        104.2323
257.99        98.91677
258.44        93.26955
258.90        90.40498
259.35        89.38647
259.81        89.34266
260.27         88.3788
260.72        84.63451
261.18        79.02437
261.63        72.34933
262.09        66.32522
262.55        62.16128
263.00        59.76791
263.46        58.61529
263.91        57.73978
264.37        56.49829
264.83        54.63127
265.28        52.27627
265.74        49.91796
266.19        48.01408
266.65        46.85371
267.11        46.16824
267.56        45.54747
268.02        44.50671
268.47        42.90163
268.93        40.91517
269.38        38.83644
269.84        37.40372
270.30        36.81525
270.75        36.85423
271.21        37.11944
271.66        37.00402
272.12         36.3389
272.57        35.30766
273.03        34.19323
273.48        33.32935
273.94        32.84161
274.39        32.57187
274.85        32.37023
275.31        32.01001
275.76        31.42862
276.22        30.73635
276.67        30.04747
277.13        29.61869
277.58        29.42761
278.04        29.41534
278.49        29.35813
278.95        29.01944
279.40        28.33727
279.86        27.46508
280.31        26.55324
280.77         25.9467
281.22         25.6634
281.68        25.61691
282.13        25.64643
282.59        25.56323
283.04        25.31725
283.50        25.02426
283.95        24.71423
284.41        24.45284
284.86        24.25987
285.32        24.11149
285.77        24.07026
286.22        24.30051
286.68        24.77312
287.13        25.39415
287.59        25.94445
288.04        26.08552
288.50        25.79134
288.95        25.15857
289.41        24.43031
289.86        23.86342
290.32        23.59562
290.77        23.54791
291.22        23.68058
291.68        23.88481
292.13        24.14191
292.59        24.51002
293.04        25.04132
293.50        25.80773
293.95        26.79523
294.40        27.92817
294.86        29.12534
295.31        30.28482
295.77        31.38361
296.22        32.45541
296.68        33.50627
297.13        34.51446
297.58        35.50761
298.04        36.51068
298.49        37.61379
298.95        39.01031
299.40        40.71795
299.85         42.6755
300.31        44.73658
300.76        46.65522
301.21        48.33385
301.67        49.86666
302.12        51.26633
302.58        52.66629
303.03        54.08495
303.48        55.51246
303.94        57.05222
304.39        58.80008
304.84        60.77034
305.30        62.92781
305.75        65.06001
306.20        66.86406
306.66        68.30043
307.11        69.40672
307.57          70.422
308.02        71.58533
308.47        73.01447
308.93        74.63935
309.38        76.30639
309.83        77.82944
310.29        79.13886
310.74         80.2507
311.19         81.2711
311.65         82.3591
312.10        83.53709
312.55        84.77408
313.00        85.89255
313.46        86.61634
313.91        86.88723
314.36        86.81744
314.82        86.72171
315.27        87.02353
315.72        87.84782
316.18        89.07057
316.63        90.40822
317.08        91.34512
317.53        91.73572
317.99        91.71022
318.44        91.57743
318.89        91.84293
319.35        92.60086
319.80        93.72153
320.25        94.83234
320.70        95.32063
321.16        95.05436
321.61        94.25237
322.06        93.32937
322.51        92.92587
322.97        93.17676
323.42        93.92206
323.87        94.84695
324.32        95.41199
324.78        95.44234
325.23        95.15239
325.68        94.73191
326.13        94.51479
326.59        94.58736
327.04        94.86328
327.49        95.26423
327.94        95.70415
328.39        96.13339
328.85        96.57233
329.30        97.02928
329.75        97.33372
330.20        97.47872
330.66        97.48888
331.11         97.5548
331.56        97.91515
332.01        98.64119
332.46        99.64479
332.92         100.773
333.37        101.9384
333.82        102.9594
334.27        103.8546
334.72        104.5154
335.17        104.7858
335.63        104.6719
336.08        104.2871
336.53        103.8391
336.98        103.7126
337.43        104.0182
337.88        104.6533
338.34        105.5177
338.79        106.5233
339.24        107.5499
339.69        108.6461
340.14        109.6118
340.59        110.1022
341.05        110.0755
341.50        109.6111
341.95        109.0831
342.40        109.0846
342.85        109.7377
343.30        110.8808
343.75        112.1681
344.20        112.9783
344.66        113.1384
345.11        112.8201
345.56        112.2962
346.01        111.9791
346.46        111.9904
346.91        112.1986
347.36        112.4728
347.81        112.6207
348.26        112.5964
348.72        112.5022
349.17        112.4012
349.62        112.4295
350.07        112.6087
350.52        112.8604
350.97        113.1147
351.42        113.2806
351.87        113.3265
352.32         113.291
352.77        113.1582
353.22        112.9032
353.67        112.5444
354.13        112.1055
354.58         111.658
355.03        111.3789
355.48         111.287
355.93        111.3203
356.38        111.3436
356.83        111.1372
357.28        110.6465
357.73        109.9466
358.18        109.1227
358.63        108.3124
359.08        107.5754
359.53        106.8821
359.98        106.2372
360.43        105.6462
360.88        105.0915
361.33        104.5628
361.78        104.0374
362.23        103.4717
362.68        102.8586
363.13        102.2277
363.58        101.5465
364.03        100.7637
364.48        99.88889
364.93        98.93566
365.38        98.03766
365.83        97.41393
366.28        97.08479
366.73        96.95882
367.18        96.84366
367.63        96.42489
368.08        95.63718
368.53        94.61421
368.98        93.47972
369.43        92.41345
369.88        91.48862
370.33        90.64947
370.78        89.96084
371.23        89.53419
371.68        89.36476
372.13        89.41901
372.58        89.52348
373.03        89.37399
373.48        88.89653
373.93        88.18103
374.38        87.37195
374.83         86.6981
375.28        86.22399
375.72        85.86724
376.17        85.60279
376.62        85.36684
377.07        85.11886
377.52        84.86629
377.97         84.5788
378.42        84.20104
378.87        83.73361
379.32        83.21235
379.77        82.64048
380.22        82.02064
380.67        81.36097
381.11        80.65536
381.56         79.9983
382.01         79.5514
382.46        79.34961
382.91        79.36876
383.36        79.41951
383.81         79.1953
384.26        78.64326
384.71        77.84903
385.15        77.04822
385.60        76.66689
386.05         76.7225
386.50        77.06609
386.95        77.40907
387.40        77.27369
387.85         76.5956
388.29        75.57076
388.74         74.5649
389.19        73.79049
389.64        73.29556
390.09        72.95577
390.54        72.79252
390.98        72.84703
391.43        73.07712
391.88        73.44394
392.33        73.72852
392.78        73.54382
393.23        72.87738
393.67        72.00623
394.12        71.24848
394.57        70.48708
395.02        69.95838
395.47        70.33839
395.91        71.43013
396.36        72.03683
396.81        71.98237
397.26        71.82306
397.71        71.62913
398.15        71.21889
398.60        70.73017
399.05        70.25076
399.50        69.80335
399.95        69.16387
400.39        68.69459
400.84        68.30846
401.29        68.12009
401.74        68.13801
402.18         68.3194
402.63        68.41698
403.08        68.46063
403.53        68.66283
403.97          69.007
404.42        69.33224
404.87        69.48717
405.32        69.29956
405.76        68.74551
406.21        67.94608
406.66        67.15211
407.11        66.74994
407.55        66.82561
408.00        67.21936
408.45        67.73984
408.90        68.04918
409.34        67.98303
409.79        67.54163
410.24        66.94549
410.68        66.62788
411.13        66.67855
411.58        66.88461
412.03        67.20123
412.47        67.61534
412.92        68.01928
413.37        68.43974
413.81        68.75211
414.26        68.80744
414.71        68.57421
415.15        68.08741
415.60         67.5146
416.05        67.15319
416.49        67.08888
416.94        67.26669
417.39        67.50853
417.83        67.49026
418.28        67.15424
418.73        66.61263
419.17        66.10732
419.62        66.02383
420.07        66.40192
420.51        67.10833
420.96        67.87138
421.41        68.21932
421.85        68.02156
422.30        67.58417
422.74        67.06944
423.19        66.70119
423.64        66.57034
424.08        66.88258
424.53        67.51222
424.98        67.96886
425.42          68.153
425.87        68.54239
426.31        69.04413
426.76        68.82499
427.21        68.18578
427.65        68.48591
428.10        69.61607
428.54        70.65808
428.99        71.04458
429.44        71.45015
429.88        71.68282
430.33        72.34365
430.77        72.89992
431.22        71.62804
431.66        69.15609
432.11        67.99688
432.56        68.37607
433.00        69.38665
433.45        70.84593
433.89        72.48493
434.34        72.95042
434.78        74.71845
435.23        71.32462
435.67        68.94834
436.12        71.64569
436.57        72.67548
437.01        73.33521
437.46        73.56126
437.90        73.51196
438.35        73.47148
438.79        73.68548
439.24        73.67628
439.68        73.54604
440.13         73.3544
440.57         73.3483
441.02        74.13451
441.46        75.40645
441.91        76.30789
442.35        76.54263
442.80        75.88304
443.24         74.8004
443.69        75.50646
444.13        77.49625
444.58        77.89114
445.02        75.75771
445.47        75.33809
445.91         76.2825
446.36        76.53508
446.80        76.05611
447.24        75.98957
447.69         76.3656
448.13        76.64947
448.58        76.90986
449.02        77.22687
449.47        77.58526
449.91         77.8745
450.36        78.07809
450.80        78.21814
451.25        78.27319
451.69        78.17186
452.13        77.94315
452.58        77.62077
453.02        77.32255
453.47        77.27245
453.91        77.48328
454.36        77.90237
454.80        78.38126
455.24        78.48406
455.69        78.13674
456.13        77.74651
456.58        77.56169
457.02        76.59789
457.46        76.64218
457.91        76.94669
458.35        77.69215
458.79        77.99841
459.24         77.8147
459.68        77.45132
460.13        76.99773
460.57        76.74376
461.01        76.66056
461.46        76.16635
461.90        75.73808
462.34        76.54271
462.79         75.7097
463.23        75.82084
463.68        76.27969
464.12        76.58959
464.56         76.7933
465.01        76.97416
465.45        76.89418
465.89        77.11391
466.34        76.54626
466.78        75.34197
467.22        73.79304
467.67        73.67125
468.11        74.91019
468.55        75.72663
468.99        75.76414
469.44        75.41494
469.88        74.89571
470.32        74.88469
470.77        75.30908
471.21        75.29738
471.65        74.81056
472.10        74.52177
472.54        74.52383
472.98         74.5751
473.42         74.6574
473.87        75.09374
474.31        75.62849
474.75        75.34983
475.20         74.4919
475.64        74.32583
476.08        74.84132
476.52        74.92901
476.97        74.55415
477.41        74.54169
477.85        74.90776
478.29        74.68192
478.74        74.75761
479.18        74.99184
479.62        74.00772
480.06        74.70364
480.50        74.98821
480.95        75.37963
481.39         75.4271
481.83        74.43035
482.27        74.80064
482.72        74.36252
483.16        73.35569
483.60        73.35162
484.04         75.1506
484.48        75.37249
484.93        74.80032
485.37        76.93634
485.81        77.29633
486.25        76.36823
486.69        103.4237
487.14        84.14352
487.58        52.13384
488.02        63.97731
488.46        72.69044
488.90        72.44608
489.34        73.51169
489.79        72.58403
490.23        74.89409
490.67        75.72298
491.11        74.46135
491.55        74.51398
491.99        75.38721
492.43        75.37388
492.88        74.54115
493.32         74.4525
493.76        74.59422
494.20        74.80892
494.64        74.85624
495.08        74.93063
495.52        75.07983
495.96        75.12051
496.41        74.99253
496.85        75.36185
497.29        75.99039
497.73        74.78516
498.17        72.79288
498.61        73.15099
499.05        75.81361
499.49        76.35184
499.93        76.37169
500.37        75.97641
500.82        75.15614
501.26        75.14501
501.70        75.70429
502.14        76.11287
502.58         76.1384
503.02        76.06053
503.46        75.85053
503.90        75.30338
504.34        74.65727
504.78        74.38711
505.22        74.54948
505.66        75.08868
506.10        75.85224
506.54        76.06472
506.98        75.51026
507.42        75.72533
507.86        75.68273
508.30        74.01611
508.74        75.23158
509.18        75.37714
509.62        75.70959
510.06        75.85298
510.50        75.78384
510.94         75.5368
511.38        75.20977
511.82        75.07643
512.26        75.18491
512.70        75.45004
513.14        75.76102
513.58        75.96666
514.02        76.01476
514.46        75.90647
514.90        75.69936
515.34        75.71014
515.78        75.57341
516.22        75.61729
516.66        75.68311
517.10        75.57317
517.54        75.27244
517.98         75.3315
518.42        75.09421
518.86        75.13653
519.30         75.2555
519.74        75.47742
520.18        75.74143
520.62        75.94324
521.06         76.0597
521.50        76.11792
521.93        76.12627
522.37        76.09707
522.81        76.04855
523.25        75.97935
523.69        75.94518
524.13        75.98988
524.57        76.11205
525.01        76.37434
525.45        76.72839
525.89        76.64777
526.32            76.8
526.76        76.65126
527.20        76.45731
527.64        76.29514
528.08        76.21604
528.52        76.12538
528.96        75.97092
529.40        75.90441
529.83        75.95734
530.27        75.32271
530.71        75.52203
531.15        75.40525
531.59        75.42844
532.03        75.52856
532.46        75.71149
532.90         75.9514
533.34        76.20712
533.78        76.47215
534.22        76.68462
534.66        76.76314
535.09         76.6843
535.53        76.50212
535.97         76.2555
536.41        76.03326
536.85        75.87312
537.28        75.76144
537.72        75.69758
538.16        75.69049
538.60        75.73426
539.04        75.76968
539.47        75.77361
539.91        75.91197
540.35        76.09229
540.79        76.00278
541.22        75.70462
541.66        75.60442
542.10        75.71955
542.54        75.82547
542.97        75.89395
543.41        75.99963
543.85        76.11746
544.29        76.25648
544.72        76.33282
545.16        76.23357
545.60        75.93971
546.04        75.52268
546.47        75.15864
546.91        75.04325
547.35        75.25743
547.79        75.96714
548.22        76.82455
548.66        77.03796
549.10        76.52859
549.53        75.71393
549.97        74.94654
550.41         74.5397
550.84        74.60246
551.28        75.08933
551.72        75.78473
552.15        76.17456
552.59        76.12226
553.03        76.20632
553.46        75.77914
553.90        75.69232
554.34         75.7756
554.77        75.87683
555.21         75.9306
555.65        76.09673
556.08        76.39635
556.52        75.87282
556.96        76.28885
557.39        76.13849
557.83        75.99911
558.27        75.89594
558.70        75.89403
559.14        76.01524
559.57        76.22819
560.01        76.53951
560.45        76.83765
560.88         76.9696
561.32        76.90936
561.75        76.60539
562.19        76.20983
562.63        75.83566
563.06        75.58854
563.50        75.68169
563.93        76.01066
564.37        76.21591
564.80        76.22372
565.24         76.2738
565.68        76.34259
566.11        76.30124
566.55        76.21473
566.98        76.12022
567.42         76.0782
567.85        76.19188
568.29        76.49388
568.72        76.64042
569.16        76.78082
569.60        77.31843
570.03        77.86825
570.47        77.80534
570.90         77.4654
571.34        75.61181
571.77        76.66646
572.21         76.6581
572.64        76.00531
573.08        75.20863
573.51        71.90412
573.95        74.77922
574.38        79.47234
574.82        77.44845
