SpectraSmart Spectrum 2.9.0.0
--------- Device Information -----------
Spectrum Name :  反射率_0
Saving Time :  2024/04/26 01:59:40
Spectro-Module Model Name : SE2030-DUVN
Spectro-Module Serial Number : OS361AC55029948
Wavelength Start : 200
Wavelength End : 1025
Wavelength Unit : Wavelength(nm)
Spectrum Unit : Reflectance(%)
-----------Spectrum Setting ------------
Integration Time : 20ms
Average : 10
Boxcar : 0
Background removal :  enabled
linearity correction :  enabled
SC :  disabled
Intensity correction :  disabled
DWT denoise :  enabled
savitzky-golay :  disabled
FFT :  disabled
Running average :  disabled
Kalman :  disabled
High pass :  disabled
---------------BEGIN--------------------
Wavelength(nm)             Reflectance(%)
200.29               0
200.75        95.19719
201.21        86.81018
201.67         76.3038
202.13         69.4218
202.58        67.01466
203.04        67.55551
203.50        69.72106
203.96        71.35857
204.42        71.68748
204.88        71.61146
205.34        71.44096
205.80        71.34774
206.26        71.48758
206.72        71.77434
207.18        72.32355
207.64        73.54288
208.10        74.29764
208.55        73.57968
209.01        72.92522
209.47        73.03795
209.93         73.6393
210.39        74.84643
210.85        75.16244
211.31        71.65491
211.77        64.17924
212.23        54.16849
212.69        45.26812
213.14        43.07891
213.60         48.2989
214.06        59.54566
214.52        72.84145
214.98        81.85062
215.44        84.67694
215.90        82.95708
216.36        78.97643
216.81        75.95946
217.27        75.02522
217.73        75.05853
218.19        74.51344
218.65        71.21715
219.11        64.12267
219.57        52.37127
220.02        37.05657
220.48        26.44634
220.94        25.91087
221.40        34.12333
221.86        43.37556
222.32        45.10154
222.77        39.81281
223.23        31.70772
223.69        25.11973
224.15        24.51542
224.61        29.31701
225.06        37.17085
225.52        44.73577
225.98        47.84529
226.44        45.79736
226.90         40.4938
227.36        34.30227
227.81        30.36708
228.27        29.73988
228.73        31.21845
229.19        33.80396
229.65         36.0219
230.10        37.35166
230.56         38.2194
231.02        38.93782
231.48        39.81391
231.93        40.88659
232.39         42.0035
232.85        42.90718
233.31        43.29142
233.77        43.09376
234.22        42.39221
234.68        41.55656
235.14        41.21312
235.60        41.57914
236.05        42.54198
236.51        43.63527
236.97        44.14499
237.43        43.94927
237.88        43.22349
238.34         42.5017
238.80        43.27377
239.26        46.14985
239.71        50.78122
240.17        55.80213
240.63        59.30168
241.08        60.71405
241.54         60.4136
242.00        59.35574
242.46        58.92446
242.91        59.94929
243.37        63.12088
243.83        74.04621
244.28        112.8733
244.74        162.6475
245.20         143.238
245.66        121.9445
246.11        116.7616
246.57        122.2474
247.03        143.8269
247.48        207.9058
247.94        177.7214
248.40        109.7621
248.85        88.60265
249.31        82.51997
249.77         82.3698
250.22        85.73988
250.68        92.84782
251.14        103.3004
251.59        109.7723
252.05        105.4049
252.51         93.6612
252.96        81.69473
253.42        76.35248
253.88        76.94253
254.33        80.79037
254.79        86.24215
255.25        90.43903
255.70        92.47643
256.16         93.7542
256.62        93.89674
257.07        92.36346
257.53        89.87411
257.99        86.26526
258.44        82.60854
258.90        81.19881
259.35         81.0169
259.81        81.35915
260.27        80.59177
260.72        77.11488
261.18        71.80456
261.63        65.40562
262.09        59.49482
262.55          55.184
263.00        52.46725
263.46        50.91463
263.91        49.71254
264.37        48.29173
264.83        46.40619
265.28        44.14533
265.74        41.94854
266.19        40.23637
266.65        39.24311
267.11        38.71615
267.56        38.24006
268.02        37.29681
268.47        35.76812
268.93        33.84072
269.38        31.83142
269.84        30.52456
270.30        30.12423
270.75        30.39833
271.21        30.92383
271.66        31.06661
272.12        30.64399
272.57        29.84503
273.03         28.9412
273.48        28.26306
273.94        27.92646
274.39        27.76602
274.85        27.64181
275.31        27.35278
275.76        26.84108
276.22        26.21366
276.67        25.55169
277.13        25.05124
277.58        24.70159
278.04        24.46948
278.49        24.21711
278.95        23.80648
279.40        23.19739
279.86        22.50892
280.31        21.81741
280.77         21.3407
281.22        21.08286
281.68          20.994
282.13        21.00114
282.59         21.0312
283.04        21.04808
283.50        21.10257
283.95        21.14382
284.41        21.11102
284.86        20.99462
285.32        20.81343
285.77        20.67348
286.22        20.79995
286.68        21.18914
287.13        21.73508
287.59        22.22906
288.04        22.35372
288.50        22.08253
288.95         21.5202
289.41        20.87926
289.86        20.37369
290.32        20.12825
290.77        20.06942
291.22        20.19068
291.68        20.43947
292.13        20.80028
292.59        21.30383
293.04        21.94235
293.50        22.69359
293.95        23.52985
294.40        24.41487
294.86        25.33415
295.31        26.28575
295.77        27.27951
296.22        28.33136
296.68        29.41511
297.13        30.45478
297.58        31.45675
298.04        32.44933
298.49        33.55127
298.95         34.9979
299.40        36.80474
299.85        38.88674
300.31        41.02158
300.76        42.85181
301.21        44.27259
301.67        45.42969
302.12        46.44942
302.58        47.61798
303.03        48.99032
303.48        50.50825
303.94        52.19458
304.39        54.02449
304.84         55.9774
305.30        58.05196
305.75         60.0889
306.20        61.86311
306.66        63.34774
307.11        64.54871
307.57        65.64922
308.02        66.82107
308.47        68.16586
308.93        69.63784
309.38        71.13939
309.83        72.56255
310.29        73.86201
310.74        75.04623
311.19        76.16315
311.65        77.28385
312.10        78.41497
312.55        79.53983
313.00        80.57592
313.46        81.39961
313.91        81.96838
314.36        82.33572
314.82        82.64988
315.27        83.08964
315.72        83.73805
316.18        84.55194
316.63        85.42902
317.08        86.15411
317.53         86.6619
317.99        86.99413
318.44        87.30264
318.89        87.84237
319.35        88.63941
319.80        89.63789
320.25        90.57475
320.70         91.0191
321.16        90.88764
321.61        90.32816
322.06        89.66351
322.51        89.40294
322.97        89.65006
323.42         90.2933
323.87        91.08295
324.32        91.58272
324.78        91.65385
325.23        91.47794
325.68        91.20412
326.13        91.10162
326.59        91.23552
327.04        91.53554
327.49        91.94916
327.94        92.43069
328.39        92.93812
328.85        93.47347
329.30        94.00838
329.75        94.31917
330.20        94.38857
330.66        94.26775
331.11        94.18536
331.56         94.4379
332.01        95.11903
332.46        96.13197
332.92        97.32107
333.37        98.57966
333.82        99.71735
334.27        100.7525
334.72        101.5638
335.17        101.9747
335.63        101.9747
336.08        101.6609
336.53        101.2357
336.98        101.0833
337.43        101.3182
337.88        101.8497
338.34        102.5735
338.79        103.3914
339.24        104.1932
339.69        105.0356
340.14        105.7809
340.59        106.1857
341.05        106.2239
341.50        105.9414
341.95         105.613
342.40         105.683
342.85        106.2439
343.30         107.178
343.75        108.2194
344.20        108.8903
344.66        109.0614
345.11        108.8565
345.56        108.4962
346.01        108.3143
346.46         108.406
346.91        108.6662
347.36        108.9723
347.81        109.1419
348.26        109.1349
348.72        109.0435
349.17        108.9397
349.62        108.9787
350.07        109.1871
350.52        109.4873
350.97        109.7924
351.42        109.9829
351.87        110.0217
352.32        109.9503
352.77         109.779
353.22        109.5267
353.67        109.2133
354.13        108.8432
354.58        108.4454
355.03        108.1278
355.48        107.9042
355.93         107.755
356.38        107.5871
356.83        107.2447
357.28        106.6981
357.73        105.9971
358.18        105.2474
358.63         104.618
359.08        104.1486
359.53        103.7839
359.98        103.4322
360.43        102.9513
360.88        102.2982
361.33        101.5115
361.78        100.6623
362.23        99.86507
362.68        99.16555
363.13        98.55368
363.58        97.96174
364.03        97.27916
364.48        96.48808
364.93        95.61911
365.38        94.79964
365.83         94.2317
366.28        93.93618
366.73        93.82813
367.18        93.71411
367.63        93.28651
368.08        92.48792
368.53        91.44518
368.98        90.32671
369.43        89.38156
369.88        88.68366
370.33        88.15369
370.78        87.76063
371.23        87.45445
371.68        87.19659
372.13        87.00603
372.58        86.81759
373.03        86.51429
373.48        86.07993
373.93        85.54711
374.38        84.99429
374.83        84.54916
375.28        84.23611
375.72        83.99603
376.17        83.80592
376.62        83.60197
377.07        83.34821
377.52        83.05016
377.97        82.67813
378.42        82.18702
378.87         81.5926
379.32        80.94015
379.77        80.27063
380.22        79.63469
380.67        79.04327
381.11        78.47571
381.56        77.97359
382.01        77.60805
382.46        77.39258
382.91        77.32906
383.36        77.27697
383.81        77.01352
384.26        76.50296
384.71        75.79289
385.15        75.08897
385.60        74.77294
386.05        74.85021
386.50        75.19615
386.95        75.50972
387.40         75.2915
387.85        74.49296
388.29        73.32937
388.74         72.2224
389.19        71.46534
389.64         71.1101
390.09        71.00453
390.54        71.10619
390.98        71.34214
391.43        71.63419
391.88        71.97491
392.33        72.18909
392.78        71.96837
393.23         71.3207
393.67        70.47018
394.12         69.7229
394.57        69.01376
395.02        68.54554
395.47        68.86464
395.91        69.80864
396.36        70.37414
396.81        70.40798
397.26        70.35938
397.71        70.26936
398.15        69.96772
398.60        69.58248
399.05        69.16363
399.50        68.74152
399.95        68.20461
400.39        67.88076
400.84         67.4437
401.29        67.05209
401.74        67.11233
402.18        67.53941
402.63         67.6151
403.08        67.39994
403.53        67.51619
403.97        67.96417
404.42         68.3603
404.87        68.54102
405.32        68.40767
405.76        67.92836
406.21        67.21142
406.66        66.47915
407.11        66.06936
407.55        66.07397
408.00         66.3502
408.45        66.74772
408.90        67.04691
409.34        67.06365
409.79        66.62463
410.24        65.93675
410.68        65.54176
411.13        65.52454
411.58        65.60085
412.03        65.74316
412.47         66.0196
412.92        66.34572
413.37        66.72431
413.81        67.03591
414.26        67.13757
414.71        66.98983
415.15         66.6253
415.60        66.17612
416.05        65.88129
416.49        65.81266
416.94        65.92828
417.39         66.0889
417.83        66.03577
418.28        65.73397
418.73         65.2854
419.17         64.8895
419.62        64.86671
420.07        65.23394
420.51        65.86456
420.96        66.54626
421.41        66.85661
421.85        66.66616
422.30        66.39888
422.74        66.09212
423.19        65.46736
423.64        64.75984
424.08        64.96649
424.53        65.94153
424.98        66.47987
425.42        66.44257
425.87        66.68852
426.31        67.18426
426.76        67.07545
427.21        66.59893
427.65        66.90916
428.10        67.89336
428.54        68.62368
428.99        69.03147
429.44        69.16988
429.88         69.0891
430.33        69.71209
430.77        70.48615
431.22        69.39626
431.66        66.95947
432.11        65.81136
432.56        66.19492
433.00        66.75256
433.45        67.43062
433.89        69.40821
434.34        71.24912
434.78        72.40092
435.23        68.38577
435.67        66.51965
436.12        69.01251
436.57        70.20882
437.01         70.5974
437.46        70.95716
437.90        71.49236
438.35        70.23196
438.79        71.01025
439.24        70.76576
439.68        70.66573
440.13        70.44469
440.57        70.39931
441.02         71.4227
441.46        73.06287
441.91        73.94721
442.35        73.81681
442.80        72.90416
443.24         71.6767
443.69        72.08281
444.13        73.78684
444.58        73.86401
445.02        72.45367
445.47        72.20982
445.91        73.07633
446.36        73.35256
446.80        72.98925
447.24        72.83681
447.69        72.98443
448.13        73.23687
448.58        73.60235
449.02          74.064
449.47        74.53418
449.91        74.88771
450.36        75.08362
450.80        75.14367
451.25        75.07682
451.69        74.86516
452.13        74.56256
452.58        74.20109
453.02        73.89241
453.47        73.84877
453.91         74.0724
454.36        74.49359
454.80        74.97736
455.24        75.15691
455.69        74.95948
456.13        74.74865
456.58        74.59993
457.02        73.86873
457.46        72.96053
457.91        73.28139
458.35        74.51105
458.79        74.96474
459.24         74.5806
459.68        74.15337
460.13        73.81479
460.57        73.59751
461.01        73.65366
461.46        72.86141
461.90        73.06245
462.34        73.23115
462.79        73.04433
463.23        73.25217
463.68        73.54308
464.12        73.86008
464.56        74.07198
465.01        74.07267
465.45        73.75932
465.89         73.4997
466.34        73.23248
466.78        72.19035
467.22        70.90247
467.67        70.56724
468.11        71.87623
468.55        72.65308
468.99        72.76897
469.44        72.46513
469.88        71.95179
470.32        71.94206
470.77        72.38073
471.21        72.43552
471.65        72.07078
472.10        71.93822
472.54        72.06664
472.98        72.15661
473.42        72.18393
473.87        72.38899
474.31        72.63155
474.75        72.40753
475.20        71.83521
475.64        71.67369
476.08        71.97119
476.52        71.89698
476.97        71.38747
477.41        71.96913
477.85         71.9591
478.29         71.6544
478.74        72.23268
479.18        72.02264
479.62         71.2019
480.06         71.8196
480.50        72.27214
480.95        72.71674
481.39        72.62405
481.83        72.24059
482.27        72.00227
482.72        71.86932
483.16         70.4289
483.60        70.63899
484.04        72.01498
484.48        72.44338
484.93         72.4696
485.37        73.40632
485.81        74.57289
486.25         73.0048
486.69        98.05302
487.14        79.66125
487.58        49.86101
488.02        61.56076
488.46        69.80355
488.90        69.61691
489.34          71.133
489.79        70.01336
490.23         72.3965
490.67         73.0594
491.11        71.74917
491.55        71.69836
491.99         72.4557
492.43        72.39444
492.88        71.57388
493.32        71.51008
493.76        71.70129
494.20        71.95477
494.64        72.01729
495.08         72.1404
495.52        72.35639
495.96        72.28646
496.41        71.95536
496.85        72.44977
497.29        73.43005
497.73         72.2841
498.17        70.04961
498.61        70.15406
499.05        72.65339
499.49        73.31933
499.93        73.61262
500.37        73.41479
500.82         72.6435
501.26        72.47338
501.70        72.75916
502.14         73.1036
502.58        73.26615
503.02        73.23213
503.46        72.98094
503.90        72.33076
504.34        71.87566
504.78        71.66366
505.22        71.86855
505.66        72.40319
506.10        73.05563
506.54        73.31169
506.98        73.03182
507.42         72.6724
507.86        72.36731
508.30        71.53744
508.74        72.07626
509.18        72.38452
509.62        72.82228
510.06        73.04356
510.50        72.98066
510.94        72.71801
511.38          72.389
511.82        72.24364
512.26        72.33882
512.70        72.59161
513.14        72.88852
513.58        73.05249
514.02        73.02771
514.46        72.87027
514.90        72.66928
515.34        72.54395
515.78        72.52034
516.22        72.61964
516.66        72.77409
517.10        72.71902
517.54          72.432
517.98         72.5257
518.42        72.28745
518.86        72.40346
519.30        72.64967
519.74        73.03447
520.18        73.45316
520.62        73.73352
521.06         73.8358
521.50         73.8092
521.93        73.69044
522.37        73.54062
522.81        73.40044
523.25        73.25649
523.69        73.15636
524.13         73.1729
524.57        73.31271
525.01        73.55955
525.45        73.83511
525.89        74.00624
526.32        74.02748
526.76        73.92554
527.20         73.7628
527.64        73.66244
528.08         73.6712
528.52        73.69455
528.96        73.64399
529.40         73.5901
529.83        73.55889
530.27        72.79829
530.71        72.84509
531.15        72.68935
531.59        72.78928
532.03        73.04482
532.46        73.40712
532.90        73.75755
533.34        74.02884
533.78        74.25467
534.22        74.38712
534.66        74.36547
535.09        74.18384
535.53        73.88223
535.97        73.55245
536.41        73.36919
536.85        73.37344
537.28        73.52327
537.72        73.71272
538.16         73.7771
538.60        73.67738
539.04        73.41548
539.47         73.0815
539.91        73.00518
540.35        73.13963
540.79        73.13612
541.22        72.98758
541.66        72.97839
542.10        73.09669
542.54        73.16611
542.97        73.19376
543.41        73.30276
543.85        73.47804
544.29        73.69442
544.72        73.85672
545.16        73.83706
545.60          73.607
546.04        73.25928
546.47        72.93797
546.91        72.76603
547.35        72.84097
547.79        73.38483
548.22        74.10719
548.66        74.31103
549.10        73.90404
549.53        73.17751
549.97        72.45472
550.41        72.10378
550.84        72.22708
551.28         72.7009
551.72        73.33236
552.15        73.69512
552.59        73.66499
553.03        73.54497
553.46        73.48813
553.90        72.87546
554.34        73.24804
554.77        73.26223
555.21        73.28123
555.65        73.38583
556.08        73.59111
556.52        72.98727
556.96         73.3151
557.39        73.18565
557.83        73.13204
558.27        73.39516
558.70        73.42767
559.14        73.65562
559.57        73.85899
560.01        73.99582
560.45        74.05258
560.88        74.11205
561.32        74.12311
561.75        73.91744
562.19        73.57644
562.63         72.9492
563.06        72.30502
563.50        72.53761
563.93        73.43443
564.37        73.85332
564.80        73.73357
565.24        73.51906
565.68        73.32325
566.11         73.1817
566.55        73.18675
566.98        73.15744
567.42        73.12565
567.85        73.40216
568.29        73.91373
568.72        73.93312
569.16        73.69026
569.60        74.01931
570.03        74.58066
570.47        74.55689
570.90         74.2264
571.34        72.42419
571.77        73.23475
572.21        73.15382
572.64         72.8981
573.08        71.78512
573.51        68.80788
573.95        71.37506
574.38        75.70431
574.82        73.60046
