SpectraSmart Spectrum 2.9.0.0
--------- Device Information -----------
Spectrum Name :  反射率_0
Saving Time :  2024/04/26 02:01:31
Spectro-Module Model Name : SE2030-DUVN
Spectro-Module Serial Number : OS361AC55029948
Wavelength Start : 200
Wavelength End : 1025
Wavelength Unit : Wavelength(nm)
Spectrum Unit : Reflectance(%)
-----------Spectrum Setting ------------
Integration Time : 20ms
Average : 10
Boxcar : 0
Background removal :  enabled
linearity correction :  enabled
SC :  disabled
Intensity correction :  disabled
DWT denoise :  enabled
savitzky-golay :  disabled
FFT :  disabled
Running average :  disabled
Kalman :  disabled
High pass :  disabled
---------------BEGIN--------------------
Wavelength(nm)             Reflectance(%)
200.29               0
200.75        76.00247
201.21        68.75049
201.67        62.17384
202.13        58.96577
202.58        59.15125
203.04        62.17984
203.50        66.82581
203.96        70.65107
204.42        72.59245
204.88        73.21564
205.34        73.24456
205.80        73.56698
206.26        74.67995
206.72        77.13477
207.18        81.47515
207.64        84.07532
208.10        79.16943
208.55        71.72886
209.01        67.86403
209.47        67.88646
209.93         70.3813
210.39         75.2859
210.85        79.72158
211.31         77.5146
211.77        67.48152
212.23         52.0466
212.69        37.86503
213.14        35.14419
213.60        45.41466
214.06        65.78609
214.52         88.4269
214.98        101.1113
215.44        100.9224
215.90        91.86236
216.36        79.63442
216.81        72.31541
217.27        71.84318
217.73        75.19083
218.19        78.65987
218.65        77.49113
219.11        70.02991
219.57        55.98091
220.02        37.27002
220.48        25.07288
220.94        26.41063
221.40        38.39135
221.86        51.07477
222.32         53.9071
222.77        47.59261
223.23        37.58798
223.69        28.92754
224.15        26.65254
224.61        30.25834
225.06        37.09747
225.52        43.88283
225.98        46.61004
226.44        44.55814
226.90           39.61
227.36        33.82061
227.81        29.85617
228.27        28.68959
228.73        29.23141
229.19        30.87401
229.65        32.73264
230.10        34.33221
230.56        35.83078
231.02        37.09814
231.48        37.93113
231.93        38.35067
232.39        38.38042
232.85        38.15588
233.31        37.96093
233.77        37.86406
234.22        37.80096
234.68        37.71802
235.14         37.4262
235.60        36.93648
236.05        36.42514
236.51        36.03394
236.97        35.88129
237.43        36.06563
237.88        36.67127
238.34        37.86765
238.80        39.91185
239.26         42.7076
239.71        46.09556
240.17        49.48059
240.63        52.43085
241.08        54.81245
241.54        56.47682
242.00        57.68063
242.46        59.04753
242.91        61.34295
243.37        65.81281
243.83        78.77578
244.28        121.0994
244.74        170.4266
245.20        145.3586
245.66        121.4688
246.11        115.0579
246.57        119.3137
247.03        138.8059
247.48        199.5385
247.94        176.8208
248.40        113.7527
248.85        93.40435
249.31        87.50382
249.77        87.52998
250.22        91.10986
250.68        98.27911
251.14        108.4764
251.59        113.9741
252.05        108.0346
252.51        95.12084
252.96        82.17016
253.42        75.33967
253.88        74.04362
254.33        75.83627
254.79        80.66455
255.25        87.68231
255.70        95.04364
256.16        102.2855
256.62        106.8599
257.07        106.2152
257.53        101.6414
257.99        94.32781
258.44        86.76211
258.90        82.87591
259.35        81.74574
259.81        81.94456
260.27         81.3151
260.72        77.78294
261.18        72.17628
261.63        65.43484
262.09        59.22092
262.55        54.71438
263.00        51.92647
263.46        50.38742
263.91        49.23668
264.37        47.86437
264.83        46.03424
265.28        43.85048
265.74         41.8186
266.19        40.44316
266.65        39.90706
267.11        39.85836
267.56        39.78197
268.02        39.07762
268.47        37.61818
268.93        35.61743
269.38         33.4091
269.84        31.81413
270.30          31.078
270.75         30.9981
271.21        31.17097
271.66        30.97619
272.12        30.25459
272.57        29.21398
273.03        28.19264
273.48        27.60903
273.94         27.5635
274.39        27.82817
274.85        28.13431
275.31        28.09661
275.76         27.6194
276.22        26.87243
276.67        26.01528
277.13        25.36668
277.58        24.95573
278.04        24.71388
278.49        24.49615
278.95        24.15705
279.40        23.64185
279.86        23.06943
280.31         22.4882
280.77        22.07006
281.22        21.80768
281.68        21.66393
282.13        21.57957
282.59        21.50614
283.04        21.41835
283.50         21.3658
283.95        21.30757
284.41        21.19798
284.86        21.03169
285.32        20.82803
285.77        20.68697
286.22        20.81968
286.68        21.22102
287.13        21.79258
287.59        22.32628
288.04         22.5062
288.50        22.30506
288.95        21.81887
289.41        21.26872
289.86        20.88368
290.32        20.78334
290.77        20.88281
291.22        21.14445
291.68        21.46954
292.13        21.83664
292.59        22.29602
293.04        22.87378
293.50        23.60112
293.95        24.46826
294.40        25.42805
294.86        26.44974
295.31         27.5054
295.77        28.59368
296.22        29.73102
296.68        30.90019
297.13        32.03821
297.58        33.14856
298.04          34.253
298.49        35.43595
298.95        36.88378
299.40        38.61046
299.85        40.55244
300.31        42.54565
300.76        44.32531
301.21        45.80107
301.67        47.07948
302.12        48.22984
302.58        49.45759
303.03        50.79409
303.48        52.21054
303.94         53.7441
304.39        55.38984
304.84        57.14481
305.30        59.00612
305.75        60.84058
306.20        62.46685
306.66        63.86496
307.11        65.02895
307.57        66.11612
308.02        67.25157
308.47        68.52761
308.93        69.91786
309.38        71.32816
309.83         72.6601
310.29        73.87276
310.74        74.95898
311.19        75.99643
311.65        77.10412
312.10        78.28851
312.55        79.52312
313.00         80.6465
313.46        81.40403
313.91          81.739
314.36         81.7572
314.82        81.72704
315.27        82.00954
315.72        82.72383
316.18        83.76664
316.63        84.93871
317.08        85.86185
317.53         86.4184
317.99        86.69824
318.44        86.89964
318.89        87.35306
319.35        88.11022
319.80        89.08284
320.25        90.00372
320.70        90.44132
321.16        90.30801
321.61        89.76335
322.06        89.10938
322.51        88.81507
322.97        88.97944
323.42         89.4989
323.87        90.16244
324.32        90.60417
324.78        90.70064
325.23        90.60921
325.68        90.43305
326.13        90.36442
326.59        90.44884
327.04        90.64443
327.49        90.92851
327.94        91.30447
328.39        91.75294
328.85        92.26322
329.30        92.81526
329.75        93.20065
330.20        93.39527
330.66        93.44051
331.11        93.52773
331.56        93.89599
332.01         94.6182
332.46        95.59969
332.92        96.70171
333.37        97.85506
333.82        98.88972
334.27        99.82814
334.72        100.5365
335.17        100.8145
335.63        100.6557
336.08        100.1723
336.53        99.62723
336.98        99.49098
337.43        99.88802
337.88        100.7003
338.34        101.7236
338.79        102.6949
339.24        103.4617
339.69        104.1182
340.14        104.6327
340.59        104.9552
341.05        105.1048
341.50        105.0557
341.95        104.9771
342.40        105.1606
342.85        105.6657
343.30        106.4367
343.75        107.2608
344.20        107.7494
344.66        107.8152
345.11        107.5538
345.56        107.1986
346.01        107.1031
346.46        107.3524
346.91        107.8361
347.36        108.3682
347.81        108.6657
348.26        108.6633
348.72        108.4674
349.17        108.2145
349.62        108.1756
350.07         108.402
350.52        108.7801
350.97        109.1481
351.42        109.2688
351.87        109.0911
352.32        108.7152
352.77        108.2329
353.22         107.785
353.67        107.4289
354.13        107.1298
354.58        106.8815
355.03        106.7358
355.48         106.675
355.93        106.6834
356.38        106.6507
356.83         106.396
357.28        105.8827
357.73         105.161
358.18        104.3444
358.63        103.6216
359.08        103.0495
359.53        102.5849
359.98        102.1591
360.43        101.6572
360.88        101.0474
361.33        100.3667
361.78        99.67504
362.23         99.0665
362.68        98.56461
363.13        98.13731
363.58        97.71158
364.03        97.17455
364.48        96.50222
364.93        95.73181
365.38        94.94055
365.83        94.25464
366.28         93.6978
366.73        93.21423
367.18        92.74566
367.63        92.20208
368.08        91.56626
368.53        90.89804
368.98         90.1973
369.43        89.44647
369.88        88.66164
370.33        87.84718
370.78         87.1087
371.23         86.6276
371.68        86.43364
372.13        86.46712
372.58        86.58099
373.03        86.52007
373.48        86.21413
373.93        85.74502
374.38        85.20358
374.83        84.73163
375.28         84.3718
375.72        84.05576
376.17        83.79944
376.62        83.61082
377.07        83.46469
377.52        83.34515
377.97        83.17303
378.42        82.81697
378.87        82.26891
379.32        81.60242
379.77        80.88093
380.22        80.18978
380.67        79.55476
381.11        78.94233
381.56        78.40822
382.01        78.05016
382.46        77.87978
382.91        77.88842
383.36        77.90295
383.81        77.64429
384.26        77.06756
384.71        76.24722
385.15        75.41124
385.60         74.9725
386.05        74.95191
386.50        75.21781
386.95        75.49618
387.40        75.33074
387.85        74.66542
388.29        73.68457
388.74        72.75409
389.19        72.09987
389.64        71.76271
390.09        71.60703
390.54        71.61637
390.98        71.76446
391.43        71.99467
391.88        72.30016
392.33        72.50505
392.78        72.25445
393.23        71.54441
393.67         70.6898
394.12        70.04109
394.57        69.18588
395.02        68.95702
395.47        69.46702
395.91        70.44225
396.36         71.0509
396.81        71.04646
397.26        70.86739
397.71        70.62543
398.15        70.24931
398.60        69.87006
399.05        69.62511
399.50        69.45164
399.95        68.77248
400.39        68.03821
400.84        67.75424
401.29        67.97435
401.74        68.00814
402.18        67.82683
402.63        67.78112
403.08        67.93026
403.53        68.15461
403.97        68.42966
404.42        68.75355
404.87        68.97853
405.32        68.82509
405.76        68.25741
406.21         67.5338
406.66        66.84003
407.11        66.26011
407.55        66.00141
408.00        66.35866
408.45        67.13918
408.90        67.77334
409.34        67.89721
409.79        67.12487
410.24        65.85342
410.68        65.21696
411.13        65.35172
411.58        65.64712
412.03        65.97655
412.47        66.38657
412.92        66.74358
413.37        67.05253
413.81        67.25729
414.26        67.31668
414.71        67.21091
415.15        66.93591
415.60        66.57081
416.05         66.2711
416.49        66.09421
416.94        66.03903
417.39        66.01086
417.83        65.82706
418.28        65.47307
418.73        65.01005
419.17        64.63921
419.62        64.68504
420.07        65.16354
420.51         65.9627
420.96        66.77791
421.41        67.09556
421.85         66.7832
422.30          66.122
422.74        65.36123
423.19        64.90907
423.64        64.85395
424.08        65.24158
424.53        65.87221
424.98        66.31683
425.42        66.46916
425.87         66.5595
426.31        66.66154
426.76        66.66654
427.21        66.70742
427.65        67.08217
428.10        67.71057
428.54        68.38657
428.99        69.05314
429.44        69.37428
429.88        69.33768
430.33        69.87723
430.77        70.45592
431.22        69.23854
431.66        66.77376
432.11        65.44809
432.56         65.5719
433.00        66.35728
433.45        67.69118
433.89        69.69043
434.34        70.85289
434.78        72.03481
435.23        68.46503
435.67        65.67595
436.12        68.41908
436.57        69.55054
437.01        70.35468
437.46        70.62326
437.90         70.4742
438.35        70.35159
438.79        70.44905
439.24        70.35792
439.68        70.18729
440.13        69.81519
440.57         69.5805
441.02        70.63723
441.46        72.51652
441.91        73.37169
442.35        73.00882
442.80        72.14481
443.24        71.18526
443.69         71.6543
444.13        73.18416
444.58        73.20681
445.02        71.53294
445.47        71.43684
445.91        72.65732
446.36        73.06313
446.80        72.56355
447.24        72.28233
447.69        72.34233
448.13        72.46892
448.58        72.69056
449.02        73.02602
449.47        73.39439
449.91        73.67902
450.36        73.84367
450.80        73.89965
451.25         73.8726
451.69        73.77251
452.13        73.64048
452.58        73.48487
453.02        73.35085
453.47        73.35593
453.91        73.49325
454.36        73.72215
454.80        73.97764
455.24        74.05966
455.69        73.94239
456.13        73.81351
456.58        73.71164
457.02        73.24917
457.46        72.65195
457.91        72.65282
458.35        73.14014
458.79        73.34452
459.24        73.26334
459.68         73.2331
460.13        73.19474
460.57        73.07104
461.01        72.95926
461.46        71.91605
461.90        71.42352
462.34        71.71867
462.79        71.38585
463.23        71.78882
463.68        72.22831
464.12        72.57492
464.56        72.72347
465.01        72.70039
465.45        72.43229
465.89        72.35527
466.34        72.33453
466.78        71.19054
467.22        69.56695
467.67         69.3721
468.11        71.21129
468.55        72.10251
468.99        71.89535
469.44        71.47686
469.88        71.06756
470.32         71.0117
470.77        71.26336
471.21         71.1843
471.65        70.76176
472.10        70.60205
472.54        70.71119
472.98        70.77451
473.42        70.76662
473.87        70.88142
474.31        71.03117
474.75        70.93174
475.20        70.66843
475.64        70.60278
476.08        70.73792
476.52        70.74519
476.97        70.61517
477.41        70.58952
477.85        70.68522
478.29        70.66573
478.74        70.94418
479.18        71.04559
479.62        70.01343
480.06        70.57462
480.50        70.88719
480.95        71.28927
481.39        71.33604
481.83        70.29408
482.27        70.71123
482.72        70.15566
483.16        69.04881
483.60        69.27793
484.04        70.68012
484.48        71.19417
484.93        71.33756
485.37        72.27129
485.81        72.71725
486.25        71.64725
486.69        96.51044
487.14        77.70201
487.58         48.6118
488.02        60.16539
488.46        68.53053
488.90        67.76447
489.34        69.45508
489.79        68.82964
490.23        70.49649
490.67        71.29209
491.11        70.32996
491.55        70.37607
491.99        70.95333
492.43        70.83411
492.88        70.10242
493.32        70.02729
493.76        70.14214
494.20        70.35838
494.64        70.43203
495.08        70.65261
495.52        71.00567
495.96        70.87768
496.41        70.35124
496.85        70.89582
497.29        72.14286
497.73         71.0899
498.17        68.76285
498.61        68.87267
499.05        71.44556
499.49        72.04247
499.93        72.12913
500.37        71.75311
500.82         70.8874
501.26        70.81612
501.70        71.30102
502.14        71.54096
502.58        71.37683
503.02        71.25695
503.46        71.17288
503.90        70.86184
504.34        70.46148
504.78        70.30503
505.22        70.43496
505.66        70.77272
506.10        71.19196
506.54        71.32301
506.98        71.06873
507.42        70.81808
507.86        70.81287
508.30        69.92038
508.74         70.5935
509.18         70.8271
509.62        71.18343
510.06        71.36446
510.50        71.32216
510.94         71.1129
511.38        70.83281
511.82        70.69273
512.26        70.73919
512.70        70.90888
513.14        71.11939
513.58        71.24023
514.02         71.2296
514.46        71.12955
514.90        71.00529
515.34        70.93902
515.78        70.94417
516.22        71.05193
516.66        71.20932
517.10        71.16831
517.54        70.90858
517.98        71.05999
518.42        70.84299
518.86        70.93931
519.30        71.10923
519.74        71.38501
520.18        71.68385
520.62        71.86599
521.06        71.90499
521.50        71.83902
521.93        71.71209
522.37        71.59519
522.81        71.52293
523.25        71.47769
523.69        71.46867
524.13        71.51004
524.57        71.59854
525.01        71.73203
525.45         71.8808
525.89        71.99312
526.32        72.04382
526.76        72.03825
527.20        71.98931
527.64        71.94048
528.08         71.9205
528.52        71.86168
528.96        71.72482
529.40        71.65116
529.83        71.68006
530.27        71.05018
530.71         71.2149
531.15        71.11974
531.59        71.19759
532.03        71.37663
532.46        71.64207
532.90        71.93369
533.34        72.20078
533.78         72.4482
534.22        72.62138
534.66        72.63963
535.09        72.48813
535.53        72.21459
535.97        71.88997
536.41         71.6519
536.85        71.54417
537.28        71.54417
537.72        71.59246
538.16        71.59949
538.60        71.54366
539.04        71.40084
539.47        71.22911
539.91        71.30512
540.35        71.56253
540.79         71.6647
541.22        71.58842
541.66        71.59267
542.10        71.66225
542.54        71.62397
542.97        71.51318
543.41        71.49708
543.85        71.58321
544.29        71.75436
544.72        71.89027
545.16        71.83546
545.60        71.56015
546.04        71.10757
546.47        70.69106
546.91        70.66557
547.35        71.06737
547.79        71.80286
548.22        72.53869
548.66        72.71674
549.10        72.26521
549.53        71.46217
549.97        70.65587
550.41        70.23135
550.84        70.30956
551.28         70.7821
551.72         71.4222
552.15        71.83745
552.59        71.90048
553.03        71.69583
553.46        71.35135
553.90        71.18278
554.34        71.24496
554.77        71.33356
555.21        71.38747
555.65        71.54406
556.08        71.80978
556.52        71.33958
556.96        71.77017
557.39        71.55614
557.83        71.28361
558.27        71.20005
558.70        71.34412
559.14        71.49593
559.57        71.61616
560.01        71.87891
560.45        72.16431
560.88        72.20565
561.32        72.01628
561.75        71.63984
562.19        71.24612
562.63        71.00768
563.06        70.95793
563.50        71.03809
563.93         71.1604
564.37        71.27983
564.80        71.31845
565.24        71.23409
565.68        71.06764
566.11        70.98934
566.55        71.06833
566.98        71.15228
567.42        71.22222
567.85        71.45563
568.29        71.85091
568.72        71.82297
569.16        71.54948
569.60        72.32155
570.03        72.47929
570.47        72.50144
570.90        72.33124
571.34         70.3578
571.77        71.51659
572.21        71.38276
572.64        70.95021
573.08        69.74083
573.51        66.72623
573.95        69.38859
574.38        73.99869
574.82         71.7535
