SpectraSmart Spectrum 2.9.0.0
--------- Device Information -----------
Spectrum Name :  反射率_0
Saving Time :  2024/04/26 02:10:30
Spectro-Module Model Name : SE2030-DUVN
Spectro-Module Serial Number : OS361AC55029948
Wavelength Start : 200
Wavelength End : 1025
Wavelength Unit : Wavelength(nm)
Spectrum Unit : Reflectance(%)
-----------Spectrum Setting ------------
Integration Time : 20ms
Average : 10
Boxcar : 0
Background removal :  enabled
linearity correction :  enabled
SC :  disabled
Intensity correction :  disabled
DWT denoise :  enabled
savitzky-golay :  disabled
FFT :  disabled
Running average :  disabled
Kalman :  disabled
High pass :  disabled
---------------BEGIN--------------------
Wavelength(nm)             Reflectance(%)
200.29               0
200.75        96.82762
201.21        89.01727
201.67        79.99321
202.13        73.88013
202.58         71.2589
203.04        71.49236
203.50        73.48305
203.96        75.28783
204.42        76.14465
204.88        76.45186
205.34        77.01637
205.80        79.03256
206.26        83.54685
206.72        93.01736
207.18        110.7114
207.64        125.0381
208.10        112.9411
208.55        90.22681
209.01        76.55235
209.47        72.94758
209.93        75.32079
210.39        81.95145
210.85        89.25882
211.31        89.51397
211.77        80.59527
212.23        65.53819
212.69        50.82423
213.14        46.31176
213.60        53.66916
214.06        70.07986
214.52        88.93339
214.98        99.91629
215.44        100.5049
215.90        94.18994
216.36        85.51163
216.81        80.76904
217.27        81.53064
217.73         85.2031
218.19        89.04868
218.65        89.79819
219.11         86.2981
219.57        78.30365
220.02        66.88424
220.48        58.81089
220.94        58.26786
221.40        63.99935
221.86        69.24734
222.32        66.69528
222.77        57.45456
223.23        45.97614
223.69        36.98033
224.15        35.28094
224.61        40.06319
225.06        48.66813
225.52        57.15222
225.98        60.43931
226.44        57.70685
226.90        51.15605
227.36         43.7389
227.81        39.46674
228.27        39.47962
228.73        42.12947
229.19         45.8938
229.65        48.54853
230.10        49.45538
230.56        49.50431
231.02        49.19516
231.48        49.00374
231.93        49.05267
232.39        49.14652
232.85        49.23445
233.31        49.37379
233.77        49.55299
234.22        49.78068
234.68        50.10098
235.14        50.46873
235.60         50.8561
236.05         51.3007
236.51        51.66214
236.97        51.72752
237.43        51.49805
237.88        51.03144
238.34        50.67172
238.80        51.49068
239.26        53.90157
239.71        57.79379
240.17        61.98944
240.63        64.90017
241.08        66.12357
241.54        65.92207
242.00        65.36015
242.46        66.15122
242.91        69.71139
243.37        78.57574
243.83        104.5294
244.28        180.0269
244.74        249.1943
245.20        191.0903
245.66        147.4485
246.11        135.4851
246.57        140.8087
247.03        169.1092
247.48        257.3536
247.94        218.8907
248.40        125.8914
248.85        96.92302
249.31        88.56793
249.77        88.37794
250.22        93.03123
250.68        102.5625
251.14        116.9364
251.59        127.6644
252.05        125.4674
252.51        114.0168
252.96        100.5209
253.42        92.21512
253.88          88.913
254.33        88.05175
254.79        89.98438
255.25        94.57973
255.70        100.2867
256.16        106.5236
256.62        110.7363
257.07         110.307
257.53        106.3659
257.99        100.0028
258.44         93.2614
258.90        89.61971
259.35        88.21688
259.81        87.92616
260.27        86.98496
260.72         83.6945
261.18        78.81351
261.63        73.00712
262.09        67.62367
262.55        63.44381
263.00        60.48134
263.46        58.49281
263.91        56.87693
264.37        55.35163
264.83         53.6504
265.28        51.76316
265.74        49.93826
266.19         48.2741
266.65        47.00843
267.11        46.02312
267.56        45.12529
268.02        44.07738
268.47        42.75191
268.93        41.24162
269.38        39.66278
269.84        38.44504
270.30        37.70557
270.75        37.34351
271.21        37.15594
271.66        36.82887
272.12        36.26376
272.57        35.54509
273.03        34.82411
273.48        34.24002
273.94        33.85732
274.39         33.5699
274.85        33.29475
275.31        32.89708
275.76        32.33495
276.22         31.6881
276.67        31.00215
277.13        30.44597
277.58        29.99738
278.04        29.64515
278.49        29.27568
278.95        28.79776
279.40         28.1647
279.86        27.48138
280.31        26.77772
280.77        26.21714
281.22        25.79294
281.68        25.48752
282.13        25.26269
282.59        25.10585
283.04        24.98652
283.50        24.93953
283.95        24.89317
284.41        24.76076
284.86        24.52748
285.32        24.23624
285.77        23.99344
286.22        24.02682
286.68        24.33887
287.13        24.81463
287.59        25.27617
288.04        25.44785
288.50        25.30052
288.95        24.91337
289.41        24.43705
289.86         23.9881
290.32        23.67979
290.77        23.46809
291.22        23.41194
291.68        23.55792
292.13        23.91235
292.59        24.47746
293.04         25.1973
293.50        25.97512
293.95        26.76197
294.40        27.54457
294.86        28.34282
295.31        29.20611
295.77         30.1514
296.22        31.16709
296.68        32.19347
297.13        33.10466
297.58         33.8989
298.04        34.63573
298.49        35.45477
298.95        36.61746
299.40        38.15748
299.85        39.98875
300.31        41.91541
300.76        43.62328
301.21        45.00126
301.67        46.16096
302.12        47.17982
302.58        48.27472
303.03        49.47522
303.48        50.74148
303.94        52.08995
304.39        53.48999
304.84        54.94096
305.30        56.45898
305.75         57.9495
306.20        59.28652
306.66         60.4675
307.11        61.47813
307.57        62.44959
308.02        63.47126
308.47        64.61654
308.93        65.85732
309.38        67.11391
309.83        68.30984
310.29        69.40546
310.74        70.39078
311.19        71.30315
311.65        72.20017
312.10        73.08842
312.55        73.96877
313.00        74.76204
313.46        75.34601
313.91        75.69468
314.36        75.87064
314.82        76.05415
315.27        76.47603
315.72        77.21218
316.18        78.18477
316.63        79.23975
317.08        80.07985
317.53        80.60845
317.99        80.88942
318.44        81.07128
318.89        81.40704
319.35        81.94283
319.80        82.62967
320.25        83.27805
320.70        83.58103
321.16         83.4832
321.61        83.09834
322.06        82.66845
322.51         82.5694
322.97         82.8671
323.42        83.47933
323.87        84.18887
324.32         84.6216
324.78        84.66118
325.23        84.45836
325.68        84.15894
326.13        84.02948
326.59        84.13293
327.04        84.40799
327.49        84.78742
327.94        85.19144
328.39        85.57549
328.85        85.95473
329.30        86.33665
329.75        86.57226
330.20        86.66434
330.66        86.64731
331.11        86.69928
331.56        87.03981
332.01        87.73589
332.46        88.70047
332.92        89.82291
333.37         91.0617
333.82        92.25347
334.27        93.40132
334.72        94.31515
335.17         94.7049
335.63        94.53954
336.08        93.95023
336.53        93.25713
336.98        93.02358
337.43        93.40229
337.88        94.25484
338.34        95.34316
338.79        96.33939
339.24         97.0769
339.69        97.67548
340.14        98.13824
340.59        98.46826
341.05        98.69731
341.50        98.77657
341.95        98.84258
342.40        99.14688
342.85        99.73322
343.30        100.5466
343.75        101.3886
344.20        101.8942
344.66        101.9792
345.11        101.7385
345.56        101.3684
346.01        101.1672
346.46        101.2236
346.91        101.4565
347.36        101.7641
347.81        101.9892
348.26        102.0923
348.72        102.1458
349.17        102.1992
349.62        102.3752
350.07        102.6884
350.52         103.075
350.97        103.4403
351.42        103.6569
351.87        103.6931
352.32        103.5862
352.77        103.3973
353.22        103.2248
353.67        103.0984
354.13        103.0043
354.58        102.8778
355.03        102.6749
355.48        102.3826
355.93        102.0242
356.38        101.6336
356.83        101.2587
357.28        100.9098
357.73        100.5705
358.18        100.2094
358.63        99.77668
359.08        99.26927
359.53        98.71752
359.98        98.15063
360.43        97.61229
360.88        97.10787
361.33        96.60416
361.78         96.1117
362.23        95.65034
362.68        95.21761
363.13        94.82505
363.58        94.38416
364.03        93.75035
364.48        92.91273
364.93        91.91595
365.38        90.93464
365.83        90.25491
366.28        89.92487
366.73        89.84113
367.18        89.80686
367.63        89.49708
368.08        88.83939
368.53        87.97004
368.98        87.01108
369.43        86.13969
369.88        85.42227
370.33        84.79276
370.78        84.30007
371.23        84.03218
371.68        83.97968
372.13        84.12138
372.58        84.28867
373.03        84.18743
373.48        83.75256
373.93        83.06963
374.38        82.31538
374.83        81.76743
375.28        81.49382
375.72          81.399
376.17        81.39193
376.62        81.29893
377.07        81.05331
377.52        80.68912
377.97        80.25459
378.42        79.82328
378.87        79.42455
379.32         79.0555
379.77        78.64165
380.22        78.07082
380.67         77.3341
381.11        76.47064
381.56        75.65199
382.01        75.16167
382.46        75.06602
382.91        75.29874
383.36        75.60499
383.81        75.57475
384.26        75.12115
384.71        74.35571
385.15        73.55396
385.60        73.19978
386.05        73.32734
386.50        73.76839
386.95        74.20076
387.40        74.09182
387.85        73.37099
388.29        72.26869
388.74        71.19092
389.19        70.40804
389.64        69.97762
390.09        69.75859
390.54        69.74004
390.98        69.90579
391.43        70.18953
391.88        70.56524
392.33         70.8398
392.78        70.65025
393.23        69.98981
393.67        69.17183
394.12        68.48067
394.57        67.66412
395.02        67.00542
395.47        67.41831
395.91        68.69084
396.36        69.39367
396.81        69.32369
397.26        69.16494
397.71         69.0146
398.15        68.63227
398.60        68.14773
399.05        67.78275
399.50        67.49753
399.95        66.71388
400.39         65.9139
400.84        65.66072
401.29        65.99541
401.74         66.2224
402.18        66.23067
402.63         66.1571
403.08        66.10215
403.53        66.24033
403.97        66.57607
404.42        66.92915
404.87        67.15516
405.32        67.10079
405.76        66.73335
406.21         66.1694
406.66        65.56114
407.11        65.19703
407.55        65.16937
408.00        65.19514
408.45        65.22671
408.90        65.63982
409.34        66.11843
409.79        65.55262
410.24        64.26285
410.68        63.68359
411.13        63.92176
411.58        64.19621
412.03        64.41796
412.47        64.78401
412.92        65.18459
413.37        65.57996
413.81        65.86088
414.26        65.90562
414.71         65.6847
415.15        65.23277
415.60        64.69685
416.05        64.33395
416.49        64.22319
416.94        64.32831
417.39        64.49626
417.83        64.43925
418.28        64.11456
418.73        63.62872
419.17        63.19882
419.62        63.16951
420.07        63.55822
420.51        64.23014
420.96        64.94302
421.41        65.21056
421.85        64.89577
422.30        64.49303
422.74        64.08088
423.19        63.32079
423.64        62.51211
424.08        62.88713
424.53        64.20487
424.98        64.85651
425.42        64.64555
425.87        64.59663
426.31        64.78792
426.76        64.55879
427.21        64.14687
427.65        64.46198
428.10        65.37405
428.54        66.13976
428.99        66.68788
429.44        66.89593
429.88        66.79764
430.33        67.52779
430.77         68.4567
431.22        67.12781
431.66        64.22073
432.11        63.04071
432.56        63.77855
433.00        64.45667
433.45        64.97308
433.89        66.80105
434.34        68.56547
434.78        69.79021
435.23        66.03681
435.67        63.93172
436.12        66.14963
436.57        67.26305
437.01        67.95004
437.46        68.16316
437.90        68.03146
438.35        67.84854
438.79        68.09287
439.24        68.00958
439.68        67.77639
440.13        67.31262
440.57        67.00478
441.02        67.95584
441.46         69.7281
441.91        70.77464
442.35        70.76675
442.80         69.7705
443.24        68.33422
443.69        68.87713
444.13        70.98189
444.58        71.03738
445.02        69.24896
445.47        68.93528
445.91        70.03181
446.36        70.36997
446.80        69.88645
447.24        69.68674
447.69        69.83599
448.13        69.99552
448.58        70.17115
449.02        70.39275
449.47        70.62879
449.91         70.8371
450.36        70.99734
450.80        71.12711
451.25        71.18869
451.69        71.02708
452.13        70.70195
452.58        70.40927
453.02        70.22842
453.47        70.18817
453.91        70.28566
454.36        70.55774
454.80        70.91652
455.24        70.97472
455.69        70.66948
456.13        70.46819
456.58        70.48617
457.02        69.51932
457.46        69.07212
457.91        69.39346
458.35        70.52323
458.79        70.96307
459.24        70.64025
459.68        70.24171
460.13        69.89174
460.57        69.60488
461.01        69.50904
461.46        69.06673
461.90        68.82068
462.34        69.29025
462.79        68.37074
463.23        68.58949
463.68        69.13989
464.12        69.57263
464.56        69.70802
465.01        69.49993
465.45        69.03202
465.89        68.85019
466.34        68.88377
466.78        68.00526
467.22        66.65818
467.67        66.55603
468.11        67.61577
468.55        68.30947
468.99        68.32907
469.44         67.9929
469.88        67.50754
470.32        67.55154
470.77        68.03017
471.21        68.05265
471.65        67.56784
472.10        67.22655
472.54        67.12616
472.98        67.07865
473.42        67.08528
473.87        67.39365
474.31        67.79321
474.75        67.57861
475.20         66.9066
475.64        66.74654
476.08        67.13877
476.52        67.21789
476.97        66.94558
477.41        67.38213
477.85        67.60494
478.29        67.52704
478.74        67.89465
479.18        67.57394
479.62        66.46017
480.06         66.8479
480.50        67.17994
480.95        67.71584
481.39        67.95203
481.83        67.14532
482.27        67.24486
482.72        67.00443
483.16        65.55089
483.60        65.74023
484.04        67.08638
484.48        67.65853
484.93        67.83139
485.37        68.86115
485.81        69.11729
486.25        68.24297
486.69        91.88208
487.14        74.76128
487.58        46.56754
488.02        57.35733
488.46        65.22809
488.90        64.72195
489.34        66.30036
489.79        65.07188
490.23        67.12099
490.67        67.83479
491.11        66.91286
491.55        66.90907
491.99        67.39214
492.43        67.22614
492.88        66.48305
493.32        66.35333
493.76        66.39297
494.20        66.55575
494.64         66.6181
495.08        66.79411
495.52        67.08432
495.96        67.03528
496.41        66.64887
496.85        67.08449
497.29        68.04263
497.73        66.82009
498.17        64.48434
498.61        64.84772
499.05        67.80974
499.49         68.3739
499.93        67.98214
500.37        67.58698
500.82        67.17979
501.26        67.31311
501.70        67.67495
502.14        68.17351
502.58        67.76817
503.02        67.66535
503.46        67.59206
503.90        67.26469
504.34        66.81632
504.78        66.57601
505.22        66.61504
505.66        67.00906
506.10         67.5874
506.54        67.73496
506.98        67.32133
507.42        67.33659
507.86        66.60789
508.30        66.46626
508.74        66.63602
509.18        67.00595
509.62        67.41639
510.06        67.60361
510.50        67.51331
510.94        67.23232
511.38        66.89396
511.82        66.70052
512.26        66.71082
512.70        66.85194
513.14        67.06742
513.58        67.27335
514.02        67.42603
514.46        67.53668
514.90        67.57138
515.34        67.56696
515.78        67.53497
516.22         67.3372
516.66        66.94875
517.10        67.24519
517.54        66.50932
517.98        66.82228
518.42        66.70987
518.86        66.89901
519.30        67.07652
519.74        67.32806
520.18        67.61025
520.62        67.79452
521.06        67.86642
521.50        67.84975
521.93         67.7647
522.37        67.65131
522.81         67.5389
523.25        67.42354
523.69        67.34624
524.13        67.36781
524.57         67.4939
525.01        67.70736
525.45        67.94621
525.89        68.10613
526.32        68.14824
526.76        68.09319
527.20        67.98112
527.64        67.89751
528.08        67.88134
528.52        67.85515
528.96        67.76025
529.40        67.69693
529.83        67.69585
530.27        67.05116
530.71        67.15602
531.15        67.04626
531.59        67.13576
532.03        67.34372
532.46        67.63673
532.90        67.92733
533.34        68.15822
533.78        68.34789
534.22         68.4525
534.66        68.41649
535.09        68.23363
535.53        67.95033
535.97        67.63249
536.41        67.40791
536.85        67.31782
537.28        67.33858
537.72        67.42541
538.16        67.51135
538.60        67.56873
539.04        67.55787
539.47        67.49673
539.91        67.59522
540.35        67.78275
540.79        67.76193
541.22        67.54414
541.66        67.42509
542.10        67.41294
542.54        67.33908
542.97        67.23501
543.41        67.25288
543.85        67.39139
544.29        67.62737
544.72        67.84346
545.16        67.88677
545.60        67.71928
546.04        67.37569
546.47        67.02485
546.91        66.96241
547.35        67.22243
547.79        67.71758
548.22        68.19093
548.66        68.24902
549.10        67.82637
549.53        67.06902
549.97        66.28807
550.41        65.89568
550.84        65.99513
551.28        66.45044
551.72        67.06374
552.15        67.48537
552.59        67.59576
553.03        67.54089
553.46         67.4057
553.90        67.26982
554.34        67.15322
554.77          67.394
555.21        67.14738
555.65        67.25501
556.08          67.493
556.52        67.05953
556.96        67.47625
557.39        67.29394
557.83        67.06541
558.27        67.00245
558.70        67.12299
559.14        67.25755
559.57        67.37641
560.01        67.49522
560.45        67.59451
560.88        67.84441
561.32        68.11841
561.75         67.8415
562.19        67.19669
562.63         66.7604
563.06        66.64667
563.50        66.80968
563.93        67.11423
564.37        67.25257
564.80        67.16082
565.24        67.08096
565.68        67.01204
566.11        66.88989
566.55        66.80463
566.98          66.634
567.42        66.60261
567.85        66.90454
568.29        67.49254
568.72        67.54821
569.16        67.28589
569.60        67.68362
570.03        68.23846
570.47        68.29374
570.90         68.0627
571.34        66.34418
571.77        67.34406
572.21        67.19248
572.64        66.77342
573.08        65.81934
573.51        63.13631
573.95        65.61884
574.38        69.69631
574.82        67.75263
