SpectraSmart Spectrum 2.9.0.0
--------- Device Information -----------
Spectrum Name :  反射率_0
Saving Time :  2024/04/26 01:48:14
Spectro-Module Model Name : SE2030-DUVN
Spectro-Module Serial Number : OS361AC55029948
Wavelength Start : 200
Wavelength End : 1025
Wavelength Unit : Wavelength(nm)
Spectrum Unit : Reflectance(%)
-----------Spectrum Setting ------------
Integration Time : 20ms
Average : 10
Boxcar : 0
Background removal :  enabled
linearity correction :  enabled
SC :  disabled
Intensity correction :  disabled
DWT denoise :  enabled
savitzky-golay :  disabled
FFT :  disabled
Running average :  disabled
Kalman :  disabled
High pass :  disabled
---------------BEGIN--------------------
Wavelength(nm)             Reflectance(%)
200.29               0
200.75        94.18159
201.21        84.72112
201.67        74.80893
202.13        69.93311
202.58        70.56833
203.04         75.5065
203.50         81.9532
203.96        84.94417
204.42        83.43464
204.88        79.45643
205.34        75.53804
205.80        74.14857
206.26        76.09927
206.72        82.84554
207.18        97.09646
207.64        109.3468
208.10        100.3837
208.55        82.99018
209.01        72.95512
209.47        71.64175
209.93        75.86021
210.39        83.98193
210.85        92.88237
211.31        95.32702
211.77        89.00497
212.23        76.96439
212.69        64.36159
213.14        59.02458
213.60        62.43465
214.06        72.29937
214.52        84.75313
214.98        93.76056
215.44        97.23641
215.90         96.8669
216.36        94.07128
216.81        90.63641
217.27        87.76427
217.73        85.03547
218.19        81.77319
218.65        76.84669
219.11        69.43062
219.57        58.46354
220.02        45.21144
220.48        37.58446
220.94         39.9872
221.40        50.44523
221.86        60.62135
222.32        61.75214
222.77        54.76417
223.23        44.45399
223.69        35.49575
224.15        32.64176
224.61         35.4269
225.06        41.47085
225.52        47.65198
225.98        50.17294
226.44        48.33873
226.90        43.83002
227.36        38.73496
227.81        35.78873
228.27        35.87235
228.73        37.83749
229.19        40.54749
229.65        42.36678
230.10        42.89809
230.56        42.77512
231.02        42.58532
231.48        42.96115
231.93        43.92796
232.39        45.16768
232.85        46.32555
233.31        46.94511
233.77        46.89257
234.22        46.32861
234.68        45.43402
235.14        44.51476
235.60        43.79829
236.05        43.31281
236.51        43.06828
236.97        42.99456
237.43        43.13548
237.88        43.68401
238.34        44.87438
238.80        47.14012
239.26        50.43837
239.71        54.49656
240.17        58.57462
240.63        62.06226
241.08        64.77322
241.54        66.66129
242.00        67.96902
242.46        69.31109
242.91        71.51899
243.37        75.50887
243.83        87.93962
244.28        135.1101
244.74        201.5357
245.20        181.0004
245.66        154.0603
246.11        145.3797
246.57        147.2794
247.03        160.8492
247.48        194.3477
247.94        142.8501
248.40        98.38695
248.85        88.63352
249.31        87.58439
249.77        89.67131
250.22         94.0841
250.68        101.8289
251.14        112.4866
251.59        118.2079
252.05        112.0642
252.51        98.29072
252.96        84.49384
253.42        77.56905
253.88        76.91348
254.33        80.00531
254.79        86.10828
255.25        93.39439
255.70        100.0773
256.16        106.2079
256.62        110.0872
257.07        109.9862
257.53        106.9873
257.99        101.7371
258.44        95.84486
258.90        92.34612
259.35        90.45503
259.81        89.41322
260.27        87.72285
260.72        83.89655
261.18          78.695
261.63        72.68785
262.09         67.1588
262.55        62.82911
263.00        59.71583
263.46        57.60295
263.91        55.89934
264.37        54.32467
264.83        52.59835
265.28        50.68033
265.74        48.82428
266.19        47.14188
266.65        45.87093
267.11        44.91153
267.56        44.01075
268.02        42.85013
268.47        41.30386
268.93        39.46819
269.38        37.59183
269.84        36.34514
270.30        35.88462
270.75        36.02746
271.21        36.32298
271.66        36.08495
272.12        35.15647
272.57         33.7544
273.03        32.29491
273.48        31.32138
273.94        30.98261
274.39        31.03875
274.85        31.20269
275.31        31.04067
275.76        30.44936
276.22        29.62485
276.67        28.74163
277.13        28.14385
277.58        27.84514
278.04        27.74155
278.49         27.6547
278.95        27.41294
279.40        26.94123
279.86        26.36701
280.31        25.71879
280.77        25.14853
281.22        24.66215
281.68        24.25654
282.13        23.91713
282.59        23.66184
283.04        23.47748
283.50        23.39597
283.95        23.36511
284.41         23.3214
284.86         23.2425
285.32         23.1501
285.77        23.10883
286.22        23.28209
286.68        23.65835
287.13        24.14557
287.59        24.58227
288.04        24.72311
288.50        24.55357
288.95        24.14476
289.41        23.67228
289.86        23.29051
290.32         23.1132
290.77        23.08906
291.22        23.22771
291.68        23.49825
292.13        23.89634
292.59        24.44988
293.04        25.16508
293.50        26.04215
293.95         27.0554
294.40        28.16483
294.86         29.3305
295.31        30.51125
295.77        31.70255
296.22        32.91403
296.68        34.14392
297.13        35.35789
297.58        36.56472
298.04        37.78495
298.49        39.07432
298.95        40.57483
299.40        42.29971
299.85        44.20877
300.31         46.1919
300.76          48.064
301.21         49.7481
301.67        51.32092
302.12        52.79271
302.58        54.29398
303.03        55.83067
303.48        57.39184
303.94        59.04614
304.39        60.83394
304.84        62.76145
305.30        64.80784
305.75        66.80159
306.20        68.50872
306.66         69.9071
307.11        71.01525
307.57        72.03936
308.02        73.16435
308.47        74.49889
308.93        75.99393
309.38        77.52759
309.83        78.96205
310.29         80.2407
310.74        81.36465
311.19        82.41165
311.65        83.49883
312.10        84.63645
312.55        85.80235
313.00        86.84853
313.46        87.54597
313.91        87.84721
314.36        87.85323
314.82         87.8322
315.27        88.13801
315.72        88.88373
316.18        89.96128
316.63         91.1567
317.08        92.06743
317.53        92.57011
317.99        92.76298
318.44        92.85497
318.89        93.19434
319.35        93.84254
319.80        94.71497
320.25        95.55475
320.70         95.9471
321.16         95.8072
321.61        95.28711
322.06        94.67991
322.51        94.43895
322.97        94.65519
323.42        95.23342
323.87        95.94434
324.32        96.39362
324.78         96.4549
325.23        96.29141
325.68        96.05177
326.13        96.00727
326.59        96.21348
327.04        96.60327
327.49        97.08408
327.94        97.54365
328.39        97.92951
328.85          98.261
329.30        98.57583
329.75         98.7598
330.20        98.82836
330.66        98.80225
331.11        98.85613
331.56        99.19417
332.01        99.87755
332.46        100.8277
332.92        101.9093
333.37         103.067
333.82        104.1255
334.27        105.0917
334.72         105.824
335.17        106.1139
335.63        105.9535
336.08        105.4694
336.53        104.9087
336.98          104.72
337.43        105.0285
337.88        105.7147
338.34        106.6376
338.79        107.6416
339.24        108.5902
339.69        109.5542
340.14        110.3746
340.59        110.7785
341.05         110.742
341.50        110.3114
341.95        109.8266
342.40        109.8329
342.85        110.4335
343.30        111.4817
343.75        112.6273
344.20        113.2446
344.66        113.1782
345.11        112.6179
345.56        111.8731
346.01        111.4074
346.46        111.3533
346.91        111.5633
347.36        111.8934
347.81        112.1277
348.26        112.2017
348.72        112.2145
349.17        112.1963
349.62        112.2336
350.07        112.3378
350.52        112.4396
350.97        112.5112
351.42        112.5283
351.87        112.4782
352.32        112.3881
352.77        112.2116
353.22        111.8714
353.67        111.3758
354.13        110.7659
354.58        110.1532
355.03        109.7759
355.48        109.6619
355.93        109.7265
356.38        109.7814
356.83        109.5245
357.28         108.885
357.73        107.9661
358.18        106.9058
358.63        105.9259
359.08        105.1046
359.53        104.3803
359.98        103.7222
360.43        103.0791
360.88        102.4204
361.33        101.7671
361.78        101.1017
362.23        100.3876
362.68         99.6299
363.13        98.84937
363.58        98.06266
364.03        97.29659
364.48        96.56472
364.93        95.85868
365.38        95.21207
365.83        94.68022
366.28         94.2515
366.73        93.88293
367.18        93.50044
367.63        92.98832
368.08         92.3271
368.53        91.57959
368.98        90.76509
369.43        89.90462
369.88        89.02534
370.33        88.12004
370.78        87.30232
371.23         86.7624
371.68        86.52779
372.13        86.54387
372.58        86.62421
373.03        86.44585
373.48        85.93361
373.93        85.19495
374.38        84.39286
374.83        83.77883
375.28        83.41273
375.72        83.18699
376.17        83.04966
376.62        82.89632
377.07        82.67101
377.52        82.39732
377.97        82.03448
378.42        81.51425
378.87        80.85461
379.32         80.1077
379.77        79.34257
380.22        78.65429
380.67        78.06136
381.11        77.52886
381.56        77.07862
382.01        76.74807
382.46        76.53758
382.91        76.45775
383.36        76.37355
383.81        76.07003
384.26        75.51998
384.71        74.77586
385.15        74.04404
385.60        73.70694
386.05        73.77097
386.50        74.10577
386.95        74.43087
387.40        74.27773
387.85        73.58955
388.29        72.56063
388.74        71.55337
389.19        70.79205
389.64        70.32001
390.09        69.99984
390.54        69.85531
390.98        69.93176
391.43        70.19129
391.88        70.60253
392.33        70.90877
392.78        70.70992
393.23        70.00603
393.67        68.97059
394.12        68.01703
394.57        67.44059
395.02        67.35986
395.47         67.7942
395.91        68.57985
396.36        69.16127
396.81        69.38306
397.26        69.40559
397.71        69.26192
398.15        68.85823
398.60        68.31682
399.05        67.81089
399.50        67.35101
399.95        66.46893
400.39        65.63412
400.84        65.30981
401.29        65.53625
401.74         65.6758
402.18        65.64053
402.63        65.59748
403.08        65.63174
403.53        65.83281
403.97        66.19367
404.42        66.59318
404.87        66.85098
405.32        66.72719
405.76        66.18204
406.21        65.36806
406.66        64.53442
407.11        64.04418
407.55        64.00375
408.00        64.28892
408.45        64.73425
408.90        65.05856
409.34        65.07262
409.79        64.65092
410.24        64.00693
410.68        63.66551
411.13        63.71023
411.58        63.86228
412.03        64.07771
412.47        64.38882
412.92        64.70358
413.37        65.03904
413.81        65.28536
414.26        65.31383
414.71        65.09344
415.15        64.65243
415.60        64.14255
416.05        63.83184
416.49        63.79708
416.94        63.99535
417.39        64.24529
417.83        64.21962
418.28        63.86542
418.73        63.29241
419.17        62.76977
419.62        62.72349
420.07        63.19275
420.51        64.02593
420.96        64.90492
421.41        65.26761
421.85        64.96701
422.30        64.37711
422.74        63.70187
423.19        63.13665
423.64        62.82991
424.08        63.14517
424.53        63.92059
424.98        64.45639
425.42        64.62235
425.87        64.94128
426.31        65.36618
426.76        65.22418
427.21        64.74443
427.65        64.95785
428.10        65.79987
428.54        66.49384
428.99        66.98813
429.44         67.2806
429.88        67.36283
430.33        68.07232
430.77        68.83091
431.22        67.66438
431.66        65.15282
432.11        63.93404
432.56         64.2919
433.00        65.07666
433.45        66.12856
433.89          68.035
434.34        69.37763
434.78        70.22773
435.23        66.31004
435.67        64.16254
436.12         66.8763
436.57        68.09738
437.01        68.63747
437.46        68.87283
437.90        68.91195
438.35        68.98524
438.79        69.09467
439.24        69.06405
439.68          68.925
440.13        68.69028
440.57        68.63502
441.02        69.41615
441.46        70.73052
441.91        71.73457
442.35         72.0602
442.80        71.28385
443.24        69.87791
443.69        70.26947
444.13        72.10954
444.58        72.09244
445.02        70.35664
445.47        70.14341
445.91        71.30901
446.36        71.67271
446.80        71.15688
447.24        70.88271
447.69        70.96027
448.13        71.11668
448.58         71.3738
449.02        71.73673
449.47         72.1393
449.91        72.49278
450.36         72.7584
450.80        72.93629
451.25        73.00008
451.69        72.88374
452.13        72.61938
452.58        72.24012
453.02        71.87249
453.47        71.75581
453.91        71.91187
454.36        72.27245
454.80        72.68646
455.24        72.81763
455.69        72.60815
456.13        72.26398
456.58        71.92965
457.02         71.4312
457.46        70.99034
457.91        71.16119
458.35         71.7503
458.79        71.98171
459.24        71.83604
459.68        71.59179
460.13        71.27702
460.57        71.09949
461.01        71.12031
461.46        70.12091
461.90        69.93114
462.34        70.28242
462.79        69.81734
463.23        69.96526
463.68        70.12543
464.12        70.36861
464.56         70.6042
465.01         70.7632
465.45        70.71037
465.89        70.67653
466.34        70.52929
466.78        69.49239
467.22        68.15986
467.67        67.51198
468.11        69.00419
468.55        69.72057
468.99        69.76509
469.44        69.46321
469.88        69.01567
470.32        69.05004
470.77        69.47663
471.21        69.47321
471.65        69.00106
472.10        68.70386
472.54        68.64507
472.98         68.6011
473.42        68.57038
473.87        68.75363
474.31        69.00542
474.75        68.86765
475.20        68.45043
475.64        68.33462
476.08        68.53427
476.52        68.56841
476.97        68.43556
477.41        68.46012
477.85        68.61758
478.29        68.56934
478.74        68.81586
479.18        68.53395
479.62        67.64961
480.06          68.132
480.50        68.42331
480.95        68.85989
481.39        68.99558
481.83        68.29812
482.27        68.09904
482.72        68.52306
483.16         66.8552
483.60        67.19326
484.04        68.58636
484.48        68.98175
484.93        68.86202
485.37        70.00932
485.81        70.85303
486.25        69.51079
486.69        93.89522
487.14         76.1581
487.58        47.60382
488.02         58.6283
488.46        66.16579
488.90        65.66498
489.34        67.47218
489.79        66.46959
490.23        68.67286
490.67         69.2403
491.11        67.97292
491.55        67.96315
491.99        68.75815
492.43        68.70876
492.88        67.86356
493.32        67.74361
493.76         67.9083
494.20        68.16623
494.64        68.28194
495.08        68.53693
495.52        68.89243
495.96        68.80602
496.41        68.31958
496.85        68.63715
497.29        69.49053
497.73        68.39794
498.17        66.31403
498.61        66.42971
499.05        68.77504
499.49        69.28514
499.93        69.37649
500.37        69.16103
500.82        68.57467
501.26        68.26265
501.70        68.58229
502.14        68.95737
502.58        69.07657
503.02        69.09486
503.46        68.90629
503.90        68.52967
504.34        68.11688
504.78        67.92307
505.22        68.01078
505.66        68.30185
506.10        68.65709
506.54        68.86956
506.98        68.84544
507.42         68.5685
507.86        68.19672
508.30        67.99683
508.74        68.13673
509.18        68.38757
509.62        68.65849
510.06        68.78304
510.50        68.71375
510.94        68.51157
511.38        68.27872
511.82        68.17005
512.26        68.22755
512.70        68.40237
513.14        68.61956
513.58        68.76108
514.02        68.78553
514.46        68.72164
514.90        68.63152
515.34        68.59412
515.78        68.61954
516.22        68.74951
516.66        68.91395
517.10        68.82342
517.54         68.4577
517.98        68.50864
518.42        68.17066
518.86        68.24831
519.30        68.48918
519.74        68.90854
520.18        69.36596
520.62        69.62698
521.06        69.64367
521.50        69.48457
521.93        69.23753
522.37        69.04765
522.81        68.97186
523.25         68.9652
523.69        69.01984
524.13        69.12576
524.57        69.26647
525.01        69.44827
525.45        69.62845
525.89        69.73115
526.32        69.73183
526.76        69.64595
527.20        69.50982
527.64        69.40675
528.08         69.3756
528.52        69.33439
528.96        69.23882
529.40        69.22094
529.83        69.30478
530.27        68.73796
530.71        68.91161
531.15        68.79638
531.59        68.81048
532.03        68.88585
532.46        69.03053
532.90        69.22984
533.34        69.44941
533.78        69.68712
534.22        69.88033
534.66        69.94378
535.09        69.85533
535.53        69.66502
535.97        69.42748
536.41        69.25398
536.85        69.18013
537.28        69.18078
537.72        69.21679
538.16        69.23556
538.60         69.2187
539.04        69.13025
539.47        68.99255
539.91        69.02151
540.35        69.14867
540.79        69.07539
541.22         68.8224
541.66        68.70348
542.10        68.72386
542.54        68.69869
542.97        68.64513
543.41        68.69719
543.85        68.84522
544.29        69.07224
544.72        69.25442
545.16        69.23109
545.60        68.97425
546.04        68.52833
546.47        68.09465
546.91        68.03401
547.35         68.3929
547.79        69.01808
548.22        69.62469
548.66        69.88363
549.10        69.65461
549.53        68.84628
549.97        67.84306
550.41        67.37932
550.84        67.58625
551.28        68.17008
551.72        68.86901
552.15        69.29047
552.59        69.30717
553.03        69.09852
553.46        68.73054
553.90        68.56985
554.34        68.65529
554.77        68.81551
555.21        68.94872
555.65        69.12209
556.08        69.33374
556.52        68.73508
556.96        68.97751
557.39        68.80817
557.83        68.74835
558.27        68.72302
558.70        68.75523
559.14        68.86695
559.57        69.01984
560.01        69.21327
560.45        69.38007
560.88        69.43967
561.32         69.3895
561.75        69.17597
562.19        68.90895
562.63        68.64819
563.06        68.46154
563.50        68.51337
563.93        68.71744
564.37        68.81516
564.80        68.75298
565.24        68.69578
565.68        68.66092
566.11        68.63261
566.55        68.66408
566.98        68.71225
567.42        68.77332
567.85        68.90691
568.29        69.11695
568.72        69.05305
569.16        68.93179
569.60        69.31139
570.03        69.86819
570.47        69.93794
570.90        69.76001
571.34        68.25744
571.77        69.01245
572.21         69.0407
572.64        68.36856
573.08        67.21953
573.51        64.52808
573.95        67.11126
574.38          71.308
574.82        69.58735
