SpectraSmart Spectrum 2.9.0.0
--------- Device Information -----------
Spectrum Name :  反射率_0
Saving Time :  2024/04/26 01:36:04
Spectro-Module Model Name : SE2030-DUVN
Spectro-Module Serial Number : OS361AC55029948
Wavelength Start : 200
Wavelength End : 1025
Wavelength Unit : Wavelength(nm)
Spectrum Unit : Reflectance(%)
-----------Spectrum Setting ------------
Integration Time : 20ms
Average : 10
Boxcar : 0
Background removal :  enabled
linearity correction :  enabled
SC :  disabled
Intensity correction :  disabled
DWT denoise :  enabled
savitzky-golay :  disabled
FFT :  disabled
Running average :  disabled
Kalman :  disabled
High pass :  disabled
---------------BEGIN--------------------
Wavelength(nm)             Reflectance(%)
200.29               0
200.75        99.19092
201.21        95.14777
201.67        88.85439
202.13        84.27973
202.58        82.28915
203.04        82.05056
203.50        82.76143
203.96        83.36703
204.42        83.48808
204.88        83.45383
205.34        83.95712
205.80        85.97072
206.26        90.44485
206.72        99.90467
207.18        117.5807
207.64        131.5098
208.10        118.8185
208.55        95.96633
209.01        82.27723
209.47        78.46009
209.93        80.43967
210.39        86.37476
210.85        93.30694
211.31        94.76997
211.77        88.73829
212.23        77.69616
212.69        66.48251
213.14        62.49837
213.60        66.98549
214.06        77.88371
214.52        90.57011
214.98        97.89321
215.44        98.04425
215.90        93.38445
216.36        87.21362
216.81        84.00069
217.27         84.9342
217.73        88.26012
218.19        91.54843
218.65        91.82038
219.11        88.11387
219.57        79.96732
220.02        69.17989
220.48        64.17981
220.94        69.07084
221.40        80.97932
221.86        90.77542
222.32        89.37004
222.77        78.54147
223.23        64.26755
223.69        52.32723
224.15        48.54385
224.61        52.23047
225.06        60.33011
225.52        69.00254
225.98         73.3121
226.44         72.3251
226.90        68.14697
227.36        63.17349
227.81        60.61208
228.27        61.45052
228.73        64.15438
229.19        67.63485
229.65        70.35646
230.10        71.75387
230.56        72.57188
231.02        72.88843
231.48        72.72791
231.93        72.22646
232.39        71.43155
232.85        70.75406
233.31        70.97356
233.77        72.22572
234.22        74.37679
234.68        76.84858
235.14        78.39709
235.60        78.61682
236.05        77.88366
236.51        76.86845
236.97        76.57503
237.43        77.34109
237.88        79.08617
238.34        81.59414
238.80        84.45694
239.26          87.125
239.71        89.86241
240.17        91.89172
240.63        92.70145
241.08        92.45962
241.54        91.19627
242.00         90.1511
242.46        91.28796
242.91        96.53045
243.37        110.0384
243.83        149.5259
244.28        260.9836
244.74        354.5628
245.20        261.5529
245.66        196.4591
246.11        179.6196
246.57        189.1054
247.03        235.0448
247.48        374.9291
247.94        305.2988
248.40        155.8316
248.85        110.1255
249.31        96.49126
249.77        94.64014
250.22        99.23806
250.68        110.2208
251.14        127.8666
251.59        142.9433
252.05         144.255
252.51        134.6904
252.96        122.6887
253.42        117.8192
253.88         120.032
254.33         125.715
254.79         133.116
255.25        139.1955
255.70        142.7646
256.16           145.6
256.62        147.3187
257.07        147.2985
257.53        146.4461
257.99        144.3259
258.44        141.4966
258.90        140.1372
259.35        139.0443
259.81        138.1587
260.27        136.1263
260.72         131.588
261.18        125.6926
261.63        118.7935
262.09        112.3907
262.55        107.1491
263.00        103.0247
263.46        99.98627
263.91        97.35982
264.37        95.09863
264.83        92.76143
265.28        90.23443
265.74        87.62479
266.19        84.71201
266.65        81.96033
267.11        79.45879
267.56        77.18686
268.02        75.17439
268.47        73.20019
268.93        71.26694
269.38        69.46291
269.84        68.18998
270.30        67.52472
270.75        67.33767
271.21        67.27853
271.66        66.79482
272.12        65.76657
272.57        64.32998
273.03        62.81036
273.48        61.58249
273.94        60.80048
274.39        60.26703
274.85        59.84513
275.31        59.26772
275.76         58.4445
276.22        57.52268
276.67        56.54783
277.13        55.74849
277.58        55.07875
278.04        54.53943
278.49        53.95928
278.95        53.25387
279.40         52.3409
279.86        51.36136
280.31        50.34897
280.77        49.53555
281.22         48.8964
281.68        48.42308
282.13        48.02262
282.59        47.66132
283.04        47.28582
283.50        46.98872
283.95        46.69471
284.41        46.35412
284.86        45.94702
285.32        45.50265
285.77        45.15998
286.22        45.22898
286.68        45.70149
287.13        46.40565
287.59        47.03264
288.04        47.07201
288.50        46.49469
288.95         45.4557
289.41        44.29949
289.86        43.38696
290.32        42.90905
290.77        42.73329
291.22        42.81958
291.68        43.05257
292.13        43.38656
292.59        43.88872
293.04        44.55535
293.50        45.37971
293.95        46.32673
294.40        47.34022
294.86        48.40284
295.31        49.50734
295.77        50.65824
296.22        51.86228
296.68        53.07057
297.13        54.17048
297.58        55.16258
298.04        56.09679
298.49        57.11113
298.95        58.48727
299.40        60.24594
299.85        62.28676
300.31        64.39175
300.76        66.20121
301.21         67.6007
301.67        68.74579
302.12        69.69884
302.58        70.69642
303.03        71.76961
303.48        72.89227
303.94        74.16249
304.39        75.64957
304.84        77.36438
305.30        79.28445
305.75        81.17321
306.20        82.70517
306.66        83.84085
307.11        84.60486
307.57        85.27518
308.02        86.12309
308.47        87.27611
308.93         88.6589
309.38        90.06522
309.83        91.23685
310.29        92.11001
310.74        92.73879
311.19        93.31335
311.65        94.11305
312.10        95.17858
312.55        96.43363
313.00        97.64325
313.46        98.43748
313.91        98.71851
314.36        98.62235
314.82        98.45809
315.27        98.63323
315.72        99.28617
316.18        100.2949
316.63        101.4271
317.08        102.2555
317.53        102.6545
317.99        102.7293
318.44        102.7398
318.89        103.1114
319.35        103.9055
319.80        105.0093
320.25        106.0584
320.70        106.4608
321.16        106.0971
321.61        105.1834
322.06        104.1329
322.51        103.5854
322.97          103.68
323.42        104.2738
323.87        105.0809
324.32        105.6046
324.78        105.6815
325.23        105.5193
325.68        105.2715
326.13        105.2171
326.59        105.4143
327.04         105.774
327.49        106.2339
327.94        106.7468
328.39        107.2648
328.85        107.7895
329.30         108.277
329.75        108.4535
330.20        108.3074
330.66         107.917
331.11        107.5874
331.56        107.7228
332.01        108.4468
332.46        109.6368
332.92        111.0709
333.37        112.5489
333.82        113.8189
334.27        114.9073
334.72        115.7154
335.17        116.1145
335.63        116.1127
336.08        115.8088
336.53        115.3656
336.98        115.1138
337.43        115.1712
337.88        115.4702
338.34        116.0137
338.79        116.8845
339.24        117.9974
339.69        119.3505
340.14        120.6296
340.59        121.2851
341.05        121.2106
341.50        120.5433
341.95        119.7242
342.40        119.4466
342.85        119.8663
343.30        120.7905
343.75        121.8791
344.20        122.5308
344.66        122.5823
345.11        122.2168
345.56        121.6895
346.01        121.3714
346.46        121.3767
346.91        121.5845
347.36        121.8775
347.81        122.0906
348.26        122.1765
348.72        122.2093
349.17        122.2423
349.62        122.3971
350.07        122.6782
350.52        123.0064
350.97        123.2731
351.42        123.3305
351.87        123.1488
352.32        122.7918
352.77        122.3214
353.22        121.8345
353.67        121.3812
354.13        120.9594
354.58        120.5718
355.03         120.284
355.48        120.0854
355.93        119.9449
356.38        119.7837
356.83        119.4727
357.28        118.9723
357.73        118.3158
358.18        117.5278
358.63        116.6563
359.08        115.7417
359.53        114.7933
359.98        113.8607
360.43        113.0143
360.88         112.263
361.33        111.5839
361.78        110.9516
362.23        110.3174
362.68        109.6662
363.13        109.0241
363.58        108.3499
364.03        107.5774
364.48        106.7032
364.93        105.7344
365.38        104.7816
365.83        104.0333
366.28        103.5089
366.73        103.1313
367.18        102.7482
367.63         102.111
368.08          101.18
368.53        100.0826
368.98        98.92073
369.43        97.83429
369.88        96.88236
370.33        96.01543
370.78        95.31583
371.23        94.92299
371.68        94.83515
372.13        95.00778
372.58         95.2245
373.03         95.1139
373.48        94.58943
373.93        93.76017
374.38        92.83366
374.83          92.138
375.28        91.75133
375.72         91.5518
376.17        91.44512
376.62        91.25547
377.07        90.91357
377.52        90.47047
377.97        89.93661
378.42        89.32338
378.87        88.66454
379.32        87.98161
379.77        87.29586
380.22        86.63261
380.67        85.99635
381.11        85.37959
381.56         84.8308
382.01        84.43159
382.46        84.19743
382.91        84.11868
383.36        84.05973
383.81        83.80656
384.26        83.32201
384.71        82.65589
385.15        81.98009
385.60        81.63383
386.05        81.61506
386.50        81.80805
386.95        81.97489
387.40        81.72355
387.85        81.02155
388.29        80.03862
388.74        79.11334
389.19        78.40897
389.64        77.96425
390.09        77.66541
390.54        77.55434
390.98        77.70244
391.43        78.05611
391.88        78.54772
392.33        78.91525
392.78        78.69079
393.23        77.86108
393.67        76.81259
394.12        75.89435
394.57        74.86662
395.02        74.05148
395.47        74.44367
395.91        75.81509
396.36        76.59204
396.81        76.55624
397.26        76.47548
397.71        76.40147
398.15        76.02486
398.60        75.48371
399.05        74.91016
399.50        74.37384
399.95        73.65218
400.39        73.15534
400.84        72.90713
401.29        72.94794
401.74        72.93686
402.18         72.8521
402.63         72.8154
403.08        72.89817
403.53        73.11939
403.97        73.45686
404.42        73.85027
404.87        74.14019
405.32        74.01897
405.76        73.43842
406.21        72.71802
406.66        72.00912
407.11        71.26569
407.55         70.7355
408.00        70.88548
408.45        71.58414
408.90        72.24178
409.34        72.48545
409.79        71.90063
410.24        70.80559
410.68        70.25803
411.13        70.37208
411.58          70.521
412.03        70.65026
412.47        70.96893
412.92        71.38216
413.37         71.8475
413.81        72.22311
414.26        72.34199
414.71        72.15611
415.15        71.70156
415.60        71.14148
416.05        70.76328
416.49        70.65224
416.94        70.76161
417.39        70.90929
417.83        70.76127
418.28        70.27704
418.73        69.59341
419.17        68.98466
419.62        68.88081
420.07         69.3111
420.51        70.10594
420.96        70.98164
421.41        71.39127
421.85        71.16976
422.30        70.80135
422.74        70.35479
423.19        69.58005
423.64        68.73418
424.08        68.83997
424.53        69.76733
424.98        70.29178
425.42        70.27602
425.87         70.6431
426.31        71.28986
426.76        71.15883
427.21        70.49693
427.65        70.64965
428.10        71.58261
428.54        72.33893
428.99        72.86298
429.44        73.28654
429.88        73.53643
430.33        74.22852
430.77        74.81753
431.22        73.56102
431.66        71.03575
432.11        69.76297
432.56        69.95905
433.00        70.56208
433.45        71.56227
433.89        73.33996
434.34         74.3722
434.78        76.65578
435.23        72.68156
435.67        70.26388
436.12        72.49012
436.57        73.59029
437.01        74.53619
437.46          74.882
437.90        74.81788
438.35        74.21635
438.79        74.80174
439.24        74.69788
439.68        74.43555
440.13        74.04297
440.57        73.86626
441.02        74.70933
441.46        76.20454
441.91        77.30446
442.35        77.58258
442.80        76.64162
443.24        75.02303
443.69         75.3622
444.13        77.27792
444.58        77.38663
445.02        75.40939
445.47        75.22462
445.91         76.5508
446.36        77.00883
446.80         76.4986
447.24        76.26189
447.69        76.39211
448.13        76.49447
448.58        76.61562
449.02        76.89143
449.47        77.26885
449.91        77.58386
450.36         77.8018
450.80        77.97542
451.25         78.0652
451.69        77.95024
452.13        77.65431
452.58        77.22789
453.02        76.79768
453.47         76.6064
453.91        76.67664
454.36        76.93865
454.80        77.25621
455.24        77.30284
455.69        77.02988
456.13        76.68716
456.58        76.39997
457.02        75.86409
457.46        75.34137
457.91        75.59332
458.35        76.40443
458.79        76.76871
459.24        76.62355
459.68        76.45822
460.13        76.30097
460.57        75.99915
461.01        75.65292
461.46        75.08372
461.90        74.31592
462.34        74.81989
462.79        74.31621
463.23        74.72752
463.68         75.2411
464.12         75.7048
464.56        75.93288
465.01        75.93927
465.45        75.67119
465.89        75.19695
466.34        74.53259
466.78        73.61993
467.22        72.96968
467.67        71.87133
468.11        73.43027
468.55        73.88123
468.99        73.88462
469.44        73.45093
469.88         72.8232
470.32        72.79951
470.77        73.25755
471.21        73.27153
471.65        72.78258
472.10        72.47645
472.54        72.44322
472.98        72.45142
473.42        72.49422
473.87        72.85182
474.31        73.28548
474.75        73.00822
475.20        72.25789
475.64         71.9609
476.08        72.59852
476.52         72.6335
476.97        72.16204
477.41        72.10796
477.85        72.53938
478.29        71.93851
478.74        72.21191
479.18         72.3975
479.62        71.56514
480.06        72.25066
480.50        72.41943
480.95        72.80018
481.39        73.00167
481.83        71.73618
482.27        71.77772
482.72        72.12538
483.16        70.50311
483.60        70.72749
484.04        72.37246
484.48        72.72125
484.93        72.38422
485.37        74.04284
485.81        74.58436
486.25        73.50325
486.69        100.6647
487.14        81.67146
487.58        50.22345
488.02        61.39621
488.46        69.57526
488.90        69.25443
489.34        70.77301
489.79        69.54205
490.23        71.80885
490.67        72.55348
491.11        71.46878
491.55        71.34609
491.99        71.77221
492.43        71.55008
492.88        70.77885
493.32        70.75715
493.76        70.97826
494.20        71.27734
494.64        71.38438
495.08        71.62208
495.52        71.96919
495.96        71.77445
496.41        71.12009
496.85        71.53258
497.29        72.66303
497.73         71.4304
498.17        68.91328
498.61        69.05414
499.05        71.84454
499.49        72.44503
499.93        72.35083
500.37        72.07919
500.82        71.53663
501.26        71.47932
501.70        71.71106
502.14        71.93261
502.58        71.96502
503.02        71.86993
503.46        71.63181
503.90         71.1991
504.34        70.73417
504.78        70.51948
505.22        70.59789
505.66        70.91228
506.10         71.3271
506.54        71.49499
506.98        71.31318
507.42        71.31632
507.86        70.87453
508.30        70.63671
508.74         70.6575
509.18        70.71548
509.62        70.81483
510.06        70.87257
510.50        70.87249
510.94        70.83786
511.38        70.81033
511.82        70.84956
512.26        70.96601
512.70        71.13381
513.14        71.30019
513.58        71.39153
514.02        71.38889
514.46        71.28619
514.90        71.13725
515.34         71.0769
515.78         71.1295
516.22        71.07462
516.66        71.29984
517.10        71.16024
517.54        70.77277
517.98        70.77332
518.42         70.4242
518.86        70.47769
519.30          70.695
519.74        71.08636
520.18        71.52029
520.62        71.77872
521.06        71.81369
521.50        71.69054
521.93         71.4705
522.37        71.25529
522.81        71.09787
523.25        70.97048
523.69        70.90799
524.13        70.96528
524.57        71.13837
525.01        71.41174
525.45        71.70468
525.89        71.87864
526.32        71.89011
526.76        71.77364
527.20        71.58723
527.64        71.44805
528.08        71.40744
528.52         71.3739
528.96        71.29607
529.40        71.29493
529.83        71.39603
530.27        70.84489
530.71        71.07214
531.15         70.9965
531.59        71.04633
532.03        71.15832
532.46        71.33817
532.90        71.56387
533.34        71.79706
533.78        72.03432
534.22        72.21249
534.66        72.24633
535.09        72.11538
535.53        71.87539
535.97        71.57956
536.41        71.33703
536.85        71.18723
537.28         71.1083
537.72        71.08065
538.16        71.08108
538.60        71.09647
539.04        71.08251
539.47        71.03056
539.91        71.11555
540.35        71.25697
540.79        71.15587
541.22        70.86884
541.66        70.77652
542.10        70.89215
542.54        71.00366
542.97        71.07867
543.41        71.17883
543.85        71.28029
544.29        71.39359
544.72         71.4426
545.16        71.34038
545.60        71.07821
546.04        70.67912
546.47        70.31394
546.91        70.29109
547.35        70.63889
547.79        71.23333
548.22        71.80669
548.66        72.01381
549.10        71.74267
549.53         70.9901
549.97        70.08871
550.41        69.61446
550.84        69.68738
551.28          70.082
551.72        70.61633
552.15        71.00959
552.59        71.15614
553.03        71.15638
553.46        71.06191
553.90        70.94897
554.34        70.96531
554.77          70.904
555.21        70.78561
555.65        70.78609
556.08        71.00835
556.52        70.48633
556.96        70.87219
557.39        70.79234
557.83        70.75819
558.27        70.72429
558.70        70.73936
559.14         70.8658
559.57        71.06924
560.01        71.31728
560.45        71.52979
560.88        71.60918
561.32        71.53472
561.75        71.28938
562.19        70.98386
562.63        70.56031
563.06        70.16779
563.50        70.28404
563.93        70.76257
564.37        70.96452
564.80        70.81223
565.24        70.68958
565.68        70.63596
566.11        70.58363
566.55        70.60039
566.98        70.64291
567.42        70.72742
567.85        70.97682
568.29        71.38131
568.72        71.49019
569.16        71.47237
569.60        71.98156
570.03        72.59857
570.47        72.58218
570.90        72.16203
571.34        70.82299
571.77        71.24386
572.21        71.48788
572.64        70.90079
573.08        69.92839
573.51        66.69721
573.95        69.37884
574.38        74.01482
574.82         72.1654
