SpectraSmart Spectrum 2.9.0.0
--------- Device Information -----------
Spectrum Name :  反射率_0
Saving Time :  2024/04/26 01:26:01
Spectro-Module Model Name : SE2030-DUVN
Spectro-Module Serial Number : OS361AC55029948
Wavelength Start : 200
Wavelength End : 1025
Wavelength Unit : Wavelength(nm)
Spectrum Unit : Reflectance(%)
-----------Spectrum Setting ------------
Integration Time : 20ms
Average : 10
Boxcar : 0
Background removal :  enabled
linearity correction :  enabled
SC :  disabled
Intensity correction :  disabled
DWT denoise :  enabled
savitzky-golay :  disabled
FFT :  disabled
Running average :  disabled
Kalman :  disabled
High pass :  disabled
---------------BEGIN--------------------
Wavelength(nm)             Reflectance(%)
200.29               0
200.75        98.50439
201.21        88.37607
201.67         75.7254
202.13        66.97443
202.58        63.19896
203.04        63.05187
203.50        65.33351
203.96         67.9455
204.42        69.79201
204.88        71.22878
205.34        72.77377
205.80        75.33824
206.26        79.93443
206.72        88.85307
207.18        104.4722
207.64        114.4456
208.10        99.41331
208.55        77.23748
209.01        65.03758
209.47        62.85776
209.93        66.75233
210.39        75.09992
210.85        84.93842
211.31        89.15046
211.77        85.16543
212.23        75.70615
212.69        65.34132
213.14        61.13807
213.60        64.43451
214.06         73.1279
214.52        83.77944
214.98        91.12608
215.44        93.47313
215.90        92.43414
216.36        89.59937
216.81        86.95832
217.27        85.52544
217.73        84.62537
218.19         83.2574
218.65        80.01096
219.11        74.04747
219.57        64.37535
220.02         52.0006
220.48        44.01157
220.94        44.57963
221.40         52.4117
221.86        60.03411
222.32        59.34425
222.77        51.37119
223.23        40.66768
223.69        31.98364
224.15        30.19565
224.61        34.62453
225.06        42.67017
225.52        50.73006
225.98        54.24368
226.44         52.4149
226.90        47.25018
227.36        41.20509
227.81        37.57807
228.27        37.39155
228.73        39.23583
229.19        42.03043
229.65        44.21689
230.10        45.26095
230.56        45.75893
231.02         45.8902
231.48        45.76067
231.93         45.4683
232.39        44.96809
232.85        44.39714
233.31         44.0821
233.77        44.07089
234.22        44.26168
234.68        44.58081
235.14        44.76645
235.60        44.74184
236.05        44.67813
236.51        44.50867
236.97        44.06577
237.43        43.36892
237.88        42.42497
238.34        41.71732
238.80        42.61902
239.26        45.64716
239.71        50.53342
240.17        55.89185
240.63        59.69412
241.08        61.36887
241.54        61.33225
242.00        60.49952
242.46        60.29924
242.91        61.62627
243.37        65.04939
243.83        77.20492
244.28        124.8303
244.74        194.0403
245.20        176.1367
245.66        149.2923
246.11        139.7207
246.57          139.53
247.03        146.0846
247.48        158.4086
247.94        114.7623
248.40        91.88963
248.85        89.34527
249.31        90.23573
249.77        91.29189
250.22         92.4379
250.68        94.17139
251.14        95.87637
251.59         94.4647
252.05        88.59335
252.51         80.6151
252.96         73.5828
253.42        70.12114
253.88        69.38608
254.33        70.34804
254.79        72.87691
255.25        76.06983
255.70        79.06304
256.16        81.89026
256.62        83.27614
257.07        81.94356
257.53        78.64832
257.99        73.80285
258.44        68.90169
258.90        66.57198
259.35        65.99313
259.81        66.26507
260.27        65.70573
260.72        62.67696
261.18        57.92875
261.63        52.24144
262.09        47.14039
262.55        43.75757
263.00        42.02464
263.46        41.39107
263.91        41.02075
264.37        40.27529
264.83        38.97145
265.28         37.2572
265.74        35.57088
266.19        34.32696
266.65        33.72045
267.11        33.48967
267.56        33.28834
268.02        32.68522
268.47        31.58683
268.93        30.15312
269.38        28.60559
269.84        27.53874
270.30         27.1015
270.75        27.13282
271.21        27.32275
271.66        27.20986
272.12        26.66841
272.57        25.85385
273.03         25.0055
273.48        24.40543
273.94        24.14629
274.39        24.08236
274.85        24.07765
275.31        23.93539
275.76        23.59493
276.22        23.15133
276.67        22.65675
277.13        22.26444
277.58        21.96468
278.04        21.73076
278.49        21.48219
278.95        21.15488
279.40        20.71467
279.86        20.24498
280.31        19.75149
280.77        19.34014
281.22        19.00124
281.68        18.72713
282.13        18.51468
282.59        18.38273
283.04        18.31677
283.50        18.33152
283.95        18.34339
284.41        18.23749
284.86        17.99435
285.32        17.65726
285.77        17.34995
286.22        17.31451
286.68        17.55826
287.13         17.9765
287.59        18.36767
288.04        18.43272
288.50        18.14088
288.95        17.59056
289.41        16.97717
289.86        16.49688
290.32        16.25905
290.77         16.1887
291.22        16.26577
291.68        16.42373
292.13        16.64017
292.59         16.9347
293.04        17.30712
293.50        17.75062
293.95         18.2416
294.40        18.74244
294.86        19.21238
295.31        19.60915
295.77        19.93427
296.22        20.21494
296.68         20.4785
297.13        20.73912
297.58        21.03345
298.04        21.38015
298.49        21.83495
298.95        22.51383
299.40        23.41747
299.85        24.50284
300.31        25.65191
300.76        26.68492
301.21        27.53044
301.67        28.25106
302.12        28.87538
302.58        29.51047
303.03        30.17515
303.48        30.85376
303.94        31.59999
304.39        32.45791
304.84        33.43548
305.30        34.51867
305.75        35.59529
306.20        36.49905
306.66        37.21671
307.11        37.77469
307.57        38.30886
308.02        38.94694
308.47        39.75905
308.93        40.70568
309.38        41.71743
309.83        42.71757
310.29        43.65956
310.74        44.53923
311.19        45.37541
311.65          46.202
312.10        47.02296
312.55        47.83532
313.00        48.56605
313.46        49.10303
313.91        49.42318
314.36        49.58315
314.82        49.75214
315.27        50.16487
315.72        50.88768
316.18        51.84872
316.63        52.89104
317.08         53.7172
317.53        54.23466
317.99        54.51048
318.44         54.6984
318.89        55.05662
319.35        55.63754
319.80        56.37754
320.25         57.0943
320.70        57.48836
321.16        57.49623
321.61        57.22565
322.06          56.891
322.51        56.82393
322.97          57.092
323.42        57.61803
323.87        58.22668
324.32        58.61589
324.78        58.69044
325.23        58.56749
325.68        58.36495
326.13         58.2905
326.59        58.39751
327.04        58.64121
327.49        58.96265
327.94        59.28631
328.39        59.57846
328.85        59.85387
329.30        60.14766
329.75        60.40801
330.20        60.63837
330.66        60.83196
331.11        61.06067
331.56          61.386
332.01        61.83254
332.46        62.36923
332.92        62.96053
333.37        63.64745
333.82        64.35978
334.27        65.09358
334.72        65.73243
335.17        66.09261
335.63        66.14552
336.08        65.96981
336.53        65.75176
336.98        65.82389
337.43        66.26877
337.88        66.99518
338.34        67.82838
338.79         68.5443
339.24        69.03191
339.69        69.37756
340.14        69.62126
340.59         69.8311
341.05        70.03986
341.50         70.1982
341.95        70.37079
342.40        70.68151
342.85        71.15086
343.30        71.76899
343.75        72.39079
344.20        72.75002
344.66        72.79208
345.11        72.57095
345.56        72.29147
346.01        72.26708
346.46        72.56322
346.91        73.08904
347.36         73.6446
347.81        73.91698
348.26        73.84975
348.72        73.57531
349.17        73.26817
349.62         73.2702
350.07        73.65665
350.52        74.29415
350.97        75.00867
351.42        75.54522
351.87        75.82879
352.32        75.94186
352.77        75.93633
353.22        75.89347
353.67        75.85046
354.13        75.78288
354.58        75.69729
355.03        75.66336
355.48        75.68458
355.93        75.75277
356.38        75.79935
356.83        75.70514
357.28        75.44635
357.73         75.0601
358.18        74.62064
358.63        74.24602
359.08        73.97372
359.53        73.77969
359.98        73.61269
360.43        73.39111
360.88        73.09168
361.33        72.73121
361.78        72.37012
362.23        72.10424
362.68         71.9482
363.13        71.87064
363.58        71.76752
364.03        71.47784
364.48        70.97798
364.93        70.32566
365.38        69.65501
365.83        69.18294
366.28        68.95603
366.73        68.89523
367.18        68.88958
367.63        68.75598
368.08        68.44479
368.53        68.03474
368.98        67.56084
369.43         67.0679
369.88        66.58703
370.33        66.09671
370.78         65.6715
371.23        65.44356
371.68        65.42783
372.13        65.58534
372.58        65.78374
373.03        65.79034
373.48        65.54778
373.93        65.13272
374.38        64.65288
374.83        64.27547
375.28        64.05077
375.72         63.9148
376.17        63.86237
376.62        63.85474
377.07         63.8606
377.52         63.8795
377.97        63.87015
378.42        63.76258
378.87        63.54712
379.32        63.25321
379.77        62.90458
380.22        62.53723
380.67        62.16814
381.11        61.79145
381.56        61.45051
382.01        61.22073
382.46        61.11874
382.91        61.13686
383.36        61.18373
383.81        61.10825
384.26        60.88131
384.71        60.53974
385.15        60.18358
385.60        60.02406
386.05        60.05826
386.50        60.20931
386.95        60.34344
387.40        60.24055
387.85        59.87764
388.29        59.34475
388.74        58.83323
389.19        58.39862
389.64        58.06764
390.09        57.79229
390.54        57.63284
390.98        57.68839
391.43        57.94039
391.88        58.32183
392.33        58.65749
392.78        58.60707
393.23        58.14676
393.67        57.60617
394.12        57.18169
394.57         56.4846
395.02        55.80608
395.47        56.18948
395.91        57.45863
396.36        58.16294
396.81        58.12676
397.26        58.09237
397.71        58.10199
398.15        57.85865
398.60          57.473
399.05        57.04705
399.50        56.65371
399.95        56.18942
400.39        55.95016
400.84        55.85852
401.29        55.93382
401.74        55.97915
402.18        55.97093
402.63        55.94535
403.08        55.97422
403.53        56.12328
403.97         56.3955
404.42        56.75199
404.87        57.03708
405.32        56.99344
405.76        56.57803
406.21        55.92875
406.66        55.27119
407.11        54.93766
407.55        55.00909
408.00        55.37486
408.45         55.8711
408.90        56.14244
409.34        56.07209
409.79        55.79672
410.24        55.46255
410.68        55.26371
411.13        55.26775
411.58        55.38762
412.03        55.60181
412.47         55.8923
412.92        56.18466
413.37        56.50393
413.81        56.76582
414.26         56.8763
414.71        56.80609
415.15        56.57054
415.60        56.26231
416.05         56.0575
416.49        56.00829
416.94        56.09034
417.39        56.19102
417.83        56.10195
418.28        55.80301
418.73        55.37878
419.17        55.01227
419.62        54.99112
420.07        55.33355
420.51        55.93147
420.96        56.58577
421.41        56.90105
421.85        56.75706
422.30        56.52323
422.74        56.25762
423.19        55.75971
423.64         55.2383
424.08        55.54146
424.53        56.50404
424.98        57.02199
425.42         56.9585
425.87        57.05582
426.31        57.33556
426.76        57.19508
427.21        56.83595
427.65        57.10937
428.10        57.91953
428.54        58.58255
428.99        59.03904
429.44        59.24919
429.88        59.23597
430.33        59.84343
430.77        60.55611
431.22        59.52415
431.66        57.27522
432.11        56.23097
432.56         56.6347
433.00        57.41544
433.45        58.40578
433.89        60.08207
434.34        61.25723
434.78        62.02628
435.23        58.88001
435.67        57.12221
436.12        59.10602
436.57        60.13984
437.01        60.76703
437.46        61.11012
437.90         61.2929
438.35         60.8736
438.79        61.37757
439.24        61.33565
439.68        61.22436
440.13        61.04392
440.57        61.02872
441.02        61.74025
441.46        62.89421
441.91        63.69643
442.35        63.87668
442.80        63.25175
443.24        62.18831
443.69        62.57291
444.13        64.09381
444.58        63.99537
445.02        62.49132
445.47        62.26466
445.91        63.24584
446.36        63.56713
446.80        63.15439
447.24        63.17188
447.69        63.30735
448.13        63.54505
448.58        63.78004
449.02        64.05676
449.47        64.33316
449.91        64.56377
450.36        64.73597
450.80        64.83589
451.25        64.86929
451.69        64.82039
452.13        64.71559
452.58        64.56857
453.02        64.42838
453.47        64.40501
453.91        64.49643
454.36        64.67487
454.80        64.87244
455.24        64.87098
455.69        64.64574
456.13        64.44344
456.58        64.34805
457.02        63.88019
457.46        63.43752
457.91        63.82619
458.35        64.81584
458.79        65.22428
459.24        65.01551
459.68        64.65125
460.13        64.25459
460.57        64.09219
461.01        64.32972
461.46         63.3919
461.90        63.88789
462.34        63.93336
462.79         63.5071
463.23        63.65184
463.68        64.08344
464.12        64.32364
464.56        64.42843
465.01        64.54642
465.45        64.57209
465.89        64.49509
466.34         64.2488
466.78        63.33995
467.22         62.2474
467.67         61.8597
468.11        62.99501
468.55         63.6038
468.99        63.64941
469.44        63.33883
469.88        62.86571
470.32        62.87172
470.77        63.28212
471.21        63.32351
471.65         62.9515
472.10        62.74364
472.54        62.78908
472.98        62.88884
473.42        63.02373
473.87        63.49762
474.31        64.06059
474.75        63.79826
475.20        62.94834
475.64        62.80965
476.08        63.37234
476.52        63.48289
476.97        63.10112
477.41        63.11457
477.85        63.57213
478.29        63.19782
478.74        63.38444
479.18         63.5314
479.62        62.84504
480.06        63.06037
480.50        63.60005
480.95        63.97778
481.39          64.129
481.83        63.20071
482.27        63.47525
482.72        63.25107
483.16         62.1454
483.60        62.33894
484.04        63.54845
484.48        63.96541
484.93        64.04354
485.37        65.57909
485.81        66.20151
486.25        65.52573
486.69        89.37777
487.14        72.11558
487.58        44.46528
488.02        55.22875
488.46        62.30701
488.90        61.70607
489.34        63.06279
489.79        63.04465
490.23        64.38853
490.67         65.0592
491.11        63.96126
491.55        64.01438
491.99        64.76913
492.43        64.74291
492.88        64.01817
493.32        63.99036
493.76        64.23149
494.20        64.53841
494.64        64.67989
495.08         64.9054
495.52        65.21916
495.96        65.19822
496.41        64.85606
496.85        65.27805
497.29        66.17092
497.73        65.01581
498.17        62.81506
498.61        63.02677
499.05        65.61714
499.49        66.18736
499.93        66.12358
500.37         65.8673
500.82        65.38065
501.26        65.58832
501.70        66.20258
502.14        66.44297
502.58        66.18169
503.02        65.98816
503.46         65.8756
503.90         65.4951
504.34        64.99502
504.78        64.78841
505.22        64.92917
505.66        65.28629
506.10        65.72507
506.54        65.98579
506.98        65.95184
507.42        65.74884
507.86        65.56532
508.30        65.01023
508.74        65.39293
509.18        65.56754
509.62        65.81234
510.06        65.98406
510.50         66.0475
510.94        66.03731
511.38        65.98149
511.82         65.9491
512.26        65.95932
512.70        65.98629
513.14        66.02757
513.58        66.08749
514.02        66.15333
514.46        66.21642
514.90        66.26281
515.34        66.24999
515.78        66.16129
516.22        66.08716
516.66        66.02793
517.10         65.7903
517.54        65.38584
517.98        65.53194
518.42        65.28806
518.86        65.44678
519.30         65.7071
519.74        66.11518
520.18        66.54562
520.62        66.78474
521.06        66.79416
521.50        66.63103
521.93        66.38088
522.37        66.19028
522.81        66.11451
523.25        66.10965
523.69        66.16932
524.13         66.2821
524.57        66.43267
525.01          66.632
525.45        66.82852
525.89        66.93301
526.32        66.91893
526.76        66.79953
527.20        66.63927
527.64        66.56443
528.08        66.61614
528.52        66.70496
528.96        66.73066
529.40        66.72317
529.83        66.69781
530.27        65.98089
530.71        65.98033
531.15         65.8043
531.59        65.87737
532.03        66.10606
532.46        66.43893
532.90        66.75886
533.34        66.99984
533.78        67.18983
534.22        67.30109
534.66        67.30128
535.09        67.18517
535.53         66.9851
535.97        66.74335
536.41        66.55251
536.85        66.44686
537.28        66.41701
537.72        66.43825
538.16        66.47562
538.60        66.51385
539.04        66.50671
539.47        66.46972
539.91        66.60472
540.35        66.83923
540.79         66.8835
541.22        66.73962
541.66        66.68386
542.10        66.72062
542.54        66.68362
542.97         66.6136
543.41        66.67866
543.85        66.87669
544.29        67.17702
544.72        67.45103
545.16        67.51362
545.60        67.32317
546.04        66.97202
546.47        66.63399
546.91        66.51302
547.35        66.70111
547.79        67.32111
548.22        68.06793
548.66        68.30708
549.10        67.92651
549.53        67.13914
549.97        66.30363
550.41         65.8902
550.84        66.01128
551.28        66.59969
551.72        67.22871
552.15        67.64867
552.59        67.67786
553.03        67.51924
553.46        67.31658
553.90        67.00561
554.34        67.20947
554.77        67.31614
555.21        67.42315
555.65        67.60519
556.08        67.86461
556.52        67.39843
556.96        67.80113
557.39        67.57915
557.83        67.62882
558.27        67.57411
558.70        67.57331
559.14        67.67703
559.57        67.86136
560.01        68.08491
560.45         68.2706
560.88         68.3932
561.32        68.41253
561.75        68.15005
562.19        67.76107
562.63        67.46507
563.06        67.35373
563.50         67.5554
563.93        67.92558
564.37        68.09041
564.80        67.98141
565.24        67.83019
565.68         67.6953
566.11        67.61392
566.55        67.66058
566.98         67.7483
567.42        67.87867
567.85        68.18807
568.29        68.64053
568.72        68.73221
569.16        68.66379
569.60        69.15289
570.03        69.61147
570.47        69.66988
570.90        69.57204
571.34        67.71541
571.77         68.6731
572.21         68.9195
572.64        68.49109
573.08        67.45168
573.51        64.42903
573.95        67.04369
574.38           71.62
574.82        69.59849
