SpectraSmart Spectrum 2.9.0.0
--------- Device Information -----------
Spectrum Name :  反射率_0
Saving Time :  2024/04/26 01:29:40
Spectro-Module Model Name : SE2030-DUVN
Spectro-Module Serial Number : OS361AC55029948
Wavelength Start : 200
Wavelength End : 1025
Wavelength Unit : Wavelength(nm)
Spectrum Unit : Reflectance(%)
-----------Spectrum Setting ------------
Integration Time : 20ms
Average : 10
Boxcar : 0
Background removal :  enabled
linearity correction :  enabled
SC :  disabled
Intensity correction :  disabled
DWT denoise :  enabled
savitzky-golay :  disabled
FFT :  disabled
Running average :  disabled
Kalman :  disabled
High pass :  disabled
---------------BEGIN--------------------
Wavelength(nm)             Reflectance(%)
200.29               0
200.75        105.7329
201.21        93.46278
201.67        78.54936
202.13        69.44358
202.58         67.3588
203.04        70.22652
203.50        75.36375
203.96        78.16409
204.42        77.44083
204.88        75.07987
205.34         72.9828
205.80        73.09756
206.26        76.34052
206.72        84.35422
207.18        100.1095
207.64        113.5584
208.10        103.7844
208.55        84.77697
209.01        73.01202
209.47        69.28818
209.93        70.29243
210.39        74.40516
210.85        79.52545
211.31        81.16609
211.77        77.84858
212.23         71.2525
212.69        64.81683
213.14        63.87508
213.60        69.11284
214.06        78.92395
214.52         89.4874
214.98        95.04803
215.44        94.26161
215.90        89.10065
216.36        82.53107
216.81        78.60564
217.27        78.42956
217.73         80.4623
218.19         82.4388
218.65        81.41962
219.11        76.28977
219.57        66.38509
220.02        52.98956
220.48        44.28854
220.94        45.10018
221.40        53.57077
221.86        61.71667
222.32        60.97232
222.77         52.4801
223.23        41.23967
223.69        32.08617
224.15        29.93093
224.61         34.0845
225.06        41.79476
225.52         49.6554
225.98        53.43293
226.44        52.27111
226.90         48.0414
227.36        42.64202
227.81        38.54694
228.27        36.78822
228.73        36.41179
229.19         37.1188
229.65        38.49631
230.10        40.13058
230.56        41.98079
231.02        43.75658
231.48        45.08646
231.93        45.92822
232.39        46.37565
232.85        46.45017
233.31        46.25899
233.77        45.84731
234.22         45.1718
234.68        44.37292
235.14        43.69215
235.60        43.27996
236.05        43.21284
236.51        43.35048
236.97        43.38614
237.43        43.28403
237.88        43.15522
238.34        43.32458
238.80         44.6495
239.26        47.37603
239.71        51.28473
240.17        55.32171
240.63        58.19281
241.08        59.59042
241.54        59.74204
242.00         59.4431
242.46        59.98531
242.91        62.38858
243.37        68.12086
243.83        85.83649
244.28        144.0447
244.74        211.5778
245.20        177.0454
245.66        143.3687
246.11        132.0578
246.57        132.0532
247.03        141.9157
247.48        168.1816
247.94        129.0718
248.40        94.27711
248.85        87.01115
249.31        86.43147
249.77         88.0097
250.22        91.19363
250.68        96.49855
251.14        103.9447
251.59        108.9895
252.05        106.8551
252.51        99.65984
252.96        90.86446
253.42        84.10938
253.88        79.18213
254.33        75.09998
254.79         73.4205
255.25        75.59554
255.70        80.56261
256.16        86.91839
256.62        91.74545
257.07        92.20587
257.53        89.14579
257.99        83.63426
258.44        77.76116
258.90        74.87747
259.35        74.15366
259.81        74.42921
260.27        73.75843
260.72          70.283
261.18        64.83498
261.63        58.30031
262.09        52.41954
262.55        48.50784
263.00         46.4933
263.46        45.77346
263.91        45.30371
264.37        44.25317
264.83        42.42988
265.28        40.03986
265.74         37.7632
266.19        36.38342
266.65        36.09506
267.11        36.42731
267.56         36.7125
268.02        36.16753
268.47        34.67057
268.93        32.51424
269.38        30.13333
269.84        28.52032
270.30        27.96716
270.75        28.19562
271.21        28.73058
271.66        28.85644
272.12        28.36741
272.57        27.48938
273.03        26.54158
273.48        25.91566
273.94        25.72806
274.39        25.78496
274.85        25.86253
275.31        25.64674
275.76         25.0704
276.22        24.28391
276.67        23.47305
277.13        22.98101
277.58        22.81769
278.04         22.8849
278.49        22.95123
278.95        22.74605
279.40        22.20555
279.86        21.49183
280.31        20.73846
280.77        20.24554
281.22        20.03487
281.68        20.02049
282.13          20.094
282.59        20.13279
283.04        20.09394
283.50        20.05195
283.95        19.98041
284.41        19.85045
284.86         19.6645
285.32        19.43082
285.77         19.2533
286.22         19.3501
286.68        19.71761
287.13        20.26227
287.59        20.76715
288.04        20.90385
288.50        20.64206
288.95        20.08095
289.41        19.45653
289.86        19.02326
290.32        18.90054
290.77        18.99632
291.22        19.24186
291.68        19.49295
292.13        19.72015
292.59        19.98214
293.04        20.34244
293.50        20.89314
293.95        21.63424
294.40        22.49541
294.86        23.39671
295.31          24.234
295.77        24.99065
296.22        25.71377
296.68        26.43167
297.13        27.15678
297.58        27.92121
298.04        28.72752
298.49        29.64462
298.95         30.8267
299.40        32.27362
299.85        33.92908
300.31        35.62781
300.76        37.10539
301.21        38.27655
301.67        39.24599
302.12        40.08538
302.58        40.99014
303.03        41.99306
303.48        43.05315
303.94        44.22077
304.39        45.52203
304.84        46.94987
305.30        48.49207
305.75         49.9784
306.20        51.16205
306.66        52.02479
307.11        52.61035
307.57        53.13492
308.02         53.8255
308.47        54.78444
308.93        55.94405
309.38        57.18142
309.83        58.34356
310.29        59.36261
310.74        60.25056
311.19        61.05698
311.65         61.8594
312.10         62.6657
312.55        63.45422
313.00        64.12408
313.46        64.52688
313.91        64.63487
314.36        64.52821
314.82        64.40785
315.27        64.53631
315.72        64.99923
316.18        65.72364
316.63        66.55341
317.08        67.18929
317.53        67.53844
317.99        67.66602
318.44        67.73524
318.89        68.01743
319.35        68.55624
319.80        69.28381
320.25        69.97147
320.70        70.24949
321.16        70.04486
321.61        69.48766
322.06        68.85825
322.51        68.59032
322.97        68.77001
323.42        69.29816
323.87        69.93821
324.32        70.28243
324.78        70.20774
325.23        69.87101
325.68        69.44721
326.13        69.23991
326.59        69.32423
327.04        69.62569
327.49        70.03866
327.94        70.41496
328.39        70.69592
328.85        70.91682
329.30        71.13728
329.75        71.32848
330.20        71.50942
330.66        71.66251
331.11        71.87386
331.56        72.22491
332.01        72.74131
332.46        73.38559
332.92        74.09041
333.37         74.8626
333.82        75.60456
334.27        76.31808
334.72        76.89578
335.17        77.17589
335.63        77.14349
336.08        76.88342
336.53        76.58854
336.98        76.60329
337.43        77.01604
337.88        77.73717
338.34         78.5961
338.79        79.37997
339.24        79.97182
339.69        80.45134
340.14        80.83265
340.59        81.13898
341.05        81.39457
341.50        81.56301
341.95        81.73107
342.40         82.0612
342.85        82.58672
343.30         83.2823
343.75        84.00806
344.20        84.50379
344.66        84.70547
345.11        84.65974
345.56        84.52622
346.01         84.5517
346.46        84.79546
346.91        85.18792
347.36        85.58911
347.81        85.78204
348.26        85.73229
348.72        85.54385
349.17        85.34251
349.62        85.38466
350.07        85.72173
350.52        86.24854
350.97        86.82748
351.42        87.25818
351.87        87.47949
352.32        87.55368
352.77        87.51399
353.22        87.41368
353.67        87.28577
354.13        87.12598
354.58        86.94904
355.03        86.83799
355.48        86.80224
355.93        86.82457
356.38        86.85075
356.83        86.78468
357.28        86.59993
357.73         86.3259
358.18         85.9907
358.63           85.64
359.08        85.29966
359.53        84.96574
359.98        84.64508
360.43        84.35091
360.88        84.07469
361.33        83.79503
361.78        83.51736
362.23        83.24667
362.68        82.97865
363.13        82.72779
363.58        82.41235
364.03        81.90395
364.48        81.19831
364.93        80.33431
365.38        79.49746
365.83        78.98933
366.28        78.85703
366.73         78.9945
367.18        79.16932
367.63        78.99695
368.08        78.39358
368.53        77.51122
368.98        76.52406
369.43        75.69294
369.88        75.10329
370.33        74.66736
370.78        74.38456
371.23        74.25729
371.68        74.25561
372.13        74.38959
372.58        74.53715
373.03        74.48024
373.48        74.17532
373.93        73.67767
374.38        73.13557
374.83         72.7896
375.28        72.69089
375.72        72.75031
376.17        72.87726
376.62        72.89264
377.07        72.73405
377.52        72.44643
377.97        72.07179
378.42        71.67737
378.87        71.29732
379.32          70.925
379.77        70.53826
380.22        70.10252
380.67         69.6106
381.11         69.0756
381.56        68.56285
382.01        68.18087
382.46        67.95856
382.91        67.88203
383.36        67.82941
383.81        67.60498
384.26        67.18017
384.71        66.61369
385.15        66.06564
385.60        65.83767
386.05        65.93134
386.50        66.23293
386.95        66.53388
387.40        66.48692
387.85        66.04026
388.29         65.3296
388.74        64.61094
389.19        64.00271
389.64        63.54032
390.09        63.13818
390.54        62.86729
390.98        62.85214
391.43        63.08392
391.88        63.50205
392.33        63.86015
392.78        63.75975
393.23        63.18107
393.67         62.3326
394.12        61.55352
394.57         60.9612
395.02        60.70924
395.47        61.05459
395.91        61.84494
396.36        62.36135
396.81        62.46533
397.26        62.44879
397.71        62.35368
398.15        62.05933
398.60        61.67362
399.05        61.31229
399.50        60.99205
399.95        60.38333
400.39        59.86136
400.84        59.66754
401.29        59.84245
401.74        59.92798
402.18        59.89381
402.63        59.94658
403.08        60.12555
403.53        60.35508
403.97        60.61864
404.42        60.90966
404.87        61.10163
405.32        60.98027
405.76        60.51462
406.21        59.85501
406.66         59.1965
407.11        58.76413
407.55        58.66293
408.00        58.94697
408.45        59.45156
408.90        59.67454
409.34        59.49881
409.79        59.15263
410.24         58.8026
410.68        58.63102
411.13        58.70346
411.58        58.92848
412.03        59.25058
412.47        59.59136
412.92        59.85633
413.37        60.09122
413.81        60.23715
414.26        60.24273
414.71        60.09673
415.15        59.80787
415.60        59.47947
416.05        59.30264
416.49        59.33004
416.94        59.53464
417.39        59.78451
417.83        59.83057
418.28        59.63927
418.73        59.30341
419.17        59.01163
419.62        59.07122
420.07        59.50037
420.51        60.17469
420.96        60.90335
421.41        61.28872
421.85        61.20105
422.30        61.06362
422.74        60.88243
423.19        60.28674
423.64        59.53094
424.08        59.72064
424.53        60.72288
424.98        61.26335
425.42        61.20835
425.87        61.46214
426.31        62.00096
426.76        61.98278
427.21        61.63511
427.65        62.06573
428.10        63.15234
428.54        63.98805
428.99        64.49659
429.44        64.72028
429.88        64.72368
430.33        65.39588
430.77        66.17192
431.22        65.19672
431.66         62.9822
432.11        61.69241
432.56        61.67797
433.00          62.773
433.45        64.74149
433.89        66.53492
434.34        66.85726
434.78        68.45046
435.23         64.9939
435.67        63.65223
436.12        65.77989
436.57        66.85944
437.01        67.35226
437.46        67.64599
437.90         67.9676
438.35        67.13301
438.79        67.84117
439.24        67.75357
439.68        67.70178
440.13        67.52689
440.57        67.54769
441.02        68.66428
441.46        70.43906
441.91        71.51801
442.35        71.59846
442.80        70.75528
443.24        69.49458
443.69        70.05247
444.13        72.03553
444.58        72.06506
445.02        70.36375
445.47         70.1244
445.91        71.28696
446.36        71.72392
446.80        71.36242
447.24         71.3289
447.69        71.65627
448.13        71.87834
448.58          72.029
449.02        72.31387
449.47        72.70139
449.91         73.0254
450.36        73.26571
450.80        73.48187
451.25        73.65429
451.69        73.68559
452.13        73.59513
452.58        73.42519
453.02        73.24586
453.47        73.20665
453.91        73.31046
454.36        73.52347
454.80        73.80797
455.24        73.84473
455.69        73.57731
456.13         73.5237
456.58        73.80204
457.02        72.63916
457.46        72.59927
457.91        72.71527
458.35        73.46325
458.79        73.74955
459.24        73.56496
459.68        73.33982
460.13        73.04421
460.57        72.86993
461.01        72.95343
461.46        71.99184
461.90        71.77016
462.34        72.44353
462.79         71.6052
463.23        72.07955
463.68        72.83504
464.12        73.32901
464.56        73.42083
465.01        73.46702
465.45        73.35088
465.89        73.17313
466.34        72.87561
466.78         71.6663
467.22        70.12434
467.67        69.93449
468.11        71.27618
468.55        72.06429
468.99         72.0215
469.44        71.65742
469.88        71.18157
470.32        71.14646
470.77        71.49493
471.21        71.48889
471.65        71.10703
472.10        70.86707
472.54        70.99339
472.98        71.06352
473.42        71.13302
473.87        71.36679
474.31        71.60423
474.75        71.51844
475.20        71.24363
475.64         70.7103
476.08        71.32085
476.52        71.22849
476.97        70.74218
477.41        71.38487
477.85        71.65836
478.29        71.10691
478.74        71.37308
479.18         71.6144
479.62         70.7076
480.06        71.37699
480.50        71.56922
480.95        72.03295
481.39        72.33636
481.83        70.97743
482.27        71.40475
482.72        71.08025
483.16        69.72846
483.60        69.95025
484.04        71.50083
484.48        72.08431
484.93        72.12958
485.37         73.5116
485.81         74.2326
486.25        72.83862
486.69        99.22892
487.14        80.67509
487.58        49.68246
488.02        61.06642
488.46        69.92985
488.90        69.08841
489.34         70.4087
489.79        69.97426
490.23         71.4213
490.67        72.37527
491.11        71.55817
491.55        71.64877
491.99        72.15739
492.43         72.0107
492.88         71.3241
493.32        71.28859
493.76        71.40054
494.20        71.61256
494.64        71.68404
495.08        71.76201
495.52        71.91853
495.96        71.98975
496.41        71.91408
496.85         72.4213
497.29        73.19241
497.73        71.87472
498.17        69.56675
498.61        69.73662
499.05        72.37761
499.49        72.97514
499.93        73.01474
500.37        72.70132
500.82         71.9914
501.26        71.93922
501.70        72.33298
502.14        72.68685
502.58        72.81621
503.02        72.66563
503.46        72.62461
503.90        72.23465
504.34        71.78463
504.78        71.58504
505.22        71.68676
505.66        72.02052
506.10        72.44754
506.54        72.56335
506.98        72.25803
507.42        72.10005
507.86        71.89471
508.30        71.11789
508.74        71.59029
509.18        71.73621
509.62        71.99201
510.06        72.12408
510.50        72.09814
510.94        71.95863
511.38        71.78249
511.82        71.73461
512.26        71.84681
512.70         72.0598
513.14        72.29935
513.58        72.45776
514.02        72.49546
514.46        72.43161
514.90        72.30852
515.34        72.23727
515.78        72.13275
516.22        72.11947
516.66        72.14505
517.10        72.01583
517.54        71.72536
517.98        71.87472
518.42        71.69725
518.86        71.83554
519.30        72.04724
519.74        72.36948
520.18        72.70735
520.62         72.9022
521.06        72.92632
521.50         72.8209
521.93        72.65546
522.37        72.54559
522.81        72.53288
523.25        72.58265
523.69        72.67428
524.13        72.77576
524.57        72.87232
525.01        72.97758
525.45         73.0759
525.89        73.13902
526.32        73.15188
526.76        73.11242
527.20        73.03877
527.64        72.98291
528.08        72.97339
528.52        72.94173
528.96        72.83261
529.40        72.76349
529.83        72.76907
530.27        72.08275
530.71        72.19906
531.15        72.07885
531.59        72.16918
532.03        72.39185
532.46        72.71024
532.90        73.02715
533.34        73.28217
533.78        73.49005
534.22        73.62268
534.66        73.65109
535.09        73.56476
535.53        73.39758
535.97        73.17229
536.41        72.95053
536.85        72.76581
537.28        72.62423
537.72        72.52863
538.16        72.49104
538.60        72.50864
539.04        72.51306
539.47        72.50796
539.91        72.69324
540.35        72.97777
540.79        73.04856
541.22        72.89183
541.66         72.7856
542.10        72.73288
542.54         72.5592
542.97        72.33691
543.41        72.29522
543.85        72.44665
544.29        72.74728
544.72        73.03786
545.16        73.10022
545.60         72.8851
546.04        72.45399
546.47        72.01208
546.91        71.92641
547.35        72.24914
547.79        72.82603
548.22        73.38221
548.66        73.60387
549.10        73.35943
549.53        72.56673
549.97        71.60139
550.41        71.17265
550.84        71.40489
551.28        72.00161
551.72        72.71042
552.15        73.16251
552.59        73.23269
553.03         73.0556
553.46        72.76964
553.90        72.56506
554.34        72.48754
554.77        72.53217
555.21        72.71901
555.65        72.39381
556.08        73.15653
556.52        72.54871
556.96         72.7724
557.39        72.57343
557.83        72.53425
558.27        72.58015
558.70        72.70883
559.14        72.89629
559.57        73.09811
560.01        73.33248
560.45        73.52341
560.88         73.6405
561.32        73.63839
561.75        73.26196
562.19        72.71087
562.63        72.37935
563.06        72.34159
563.50        72.54243
563.93        72.85396
564.37        73.05608
564.80        73.07661
565.24        73.06733
565.68        73.02554
566.11        72.94026
566.55        72.88357
566.98        72.74388
567.42         72.6203
567.85        72.86179
568.29        73.50177
568.72        73.59149
569.16        73.41039
569.60        73.84099
570.03        74.50764
570.47        74.76722
570.90        74.59235
571.34        72.72595
571.77        73.65042
572.21        73.77716
572.64        72.68755
573.08        71.85329
573.51          68.868
573.95        71.64458
574.38        76.03761
574.82        74.08299
