SpectraSmart Spectrum 2.9.0.0
--------- Device Information -----------
Spectrum Name :  反射率_0
Saving Time :  2024/04/26 01:26:32
Spectro-Module Model Name : SE2030-DUVN
Spectro-Module Serial Number : OS361AC55029948
Wavelength Start : 200
Wavelength End : 1025
Wavelength Unit : Wavelength(nm)
Spectrum Unit : Reflectance(%)
-----------Spectrum Setting ------------
Integration Time : 20ms
Average : 10
Boxcar : 0
Background removal :  enabled
linearity correction :  enabled
SC :  disabled
Intensity correction :  disabled
DWT denoise :  enabled
savitzky-golay :  disabled
FFT :  disabled
Running average :  disabled
Kalman :  disabled
High pass :  disabled
---------------BEGIN--------------------
Wavelength(nm)             Reflectance(%)
200.29               0
200.75        92.84776
201.21         83.1531
201.67        72.50877
202.13        66.95449
202.58        67.13322
203.04        71.52396
203.50        77.62885
203.96        81.03475
204.42        80.62895
204.88        78.20908
205.34         75.7366
205.80        75.18264
206.26        77.33219
206.72        83.38704
207.18        95.87434
207.64        107.5437
208.10        101.3669
208.55        86.98042
209.01        77.88883
209.47         75.2645
209.93        76.53453
210.39        80.46371
210.85        84.74287
211.31        84.54782
211.77        78.63202
212.23        68.94916
212.69        59.82613
213.14        57.88791
213.60        64.05521
214.06         76.4201
214.52        90.20428
214.98        98.04807
215.44        98.10894
215.90        92.75025
216.36        85.37782
216.81        80.71744
217.27        80.09181
217.73        81.76234
218.19        83.30835
218.65        81.54809
219.11        75.24653
219.57        63.73766
220.02        48.52409
220.48        38.76761
220.94        40.01266
221.40        50.12106
221.86        60.26323
222.32        61.02299
222.77        53.38296
223.23         42.5029
223.69        33.48269
224.15        31.49772
224.61        35.90677
225.06         43.9528
225.52        51.98206
225.98        55.39627
226.44        53.35793
226.90        47.88468
227.36        41.41716
227.81        37.19681
228.27        36.28535
228.73        37.38543
229.19        39.44864
229.65        40.98651
230.10        41.52126
230.56        41.57095
231.02        41.48254
231.48        41.55823
231.93        41.83436
232.39        42.18885
232.85        42.35831
233.31          42.027
233.77        41.16376
234.22        39.86299
234.68        38.64098
235.14        38.39364
235.60        39.37103
236.05        41.31371
236.51        43.54369
236.97        45.10384
237.43        45.85674
237.88        46.11533
238.34        46.33612
238.80        47.77411
239.26        50.85765
239.71        55.10008
240.17        59.54343
240.63        63.13332
241.08        65.49454
241.54        66.82531
242.00        67.34318
242.46        67.33976
242.91        67.12983
243.37        66.02768
243.83        65.13071
244.28        78.94876
244.74        125.4213
245.20        138.3092
245.66        132.4411
246.11        132.6499
246.57        140.7115
247.03        164.2154
247.48        227.6551
247.94         185.345
248.40        115.6557
248.85        95.35132
249.31        89.72657
249.77        89.22392
250.22         91.4996
250.68        96.61706
251.14        104.4796
251.59        110.0572
252.05         108.206
252.51        101.1171
252.96        92.84946
253.42        87.81496
253.88        85.64355
254.33        84.72875
254.79        85.45974
255.25        87.78608
255.70        90.82876
256.16        94.37453
256.62        96.56686
257.07        95.47932
257.53        91.97459
257.99        86.70837
258.44        81.33926
258.90         78.7975
259.35        78.13273
259.81        78.27702
260.27        77.51278
260.72        74.18455
261.18        69.07701
261.63        62.96144
262.09        57.25224
262.55        52.88061
263.00        49.90868
263.46        48.01735
263.91        46.57905
264.37        45.20213
264.83        43.63633
265.28        41.87992
265.74        40.24157
266.19        38.93249
266.65        38.12366
267.11        37.63912
267.56        37.14815
268.02        36.23276
268.47         34.7947
268.93        32.97842
269.38         31.0727
269.84        29.81266
270.30        29.38888
270.75        29.60771
271.21        30.04887
271.66        30.07588
272.12        29.51822
272.57        28.56271
273.03        27.54413
273.48        26.89105
273.94        26.71839
274.39        26.82173
274.85         26.9452
275.31         26.7177
275.76        26.06026
276.22        25.14723
276.67        24.17989
277.13        23.52484
277.58        23.21286
278.04         23.1554
278.49        23.13471
278.95        22.90049
279.40        22.38465
279.86        21.72748
280.31        21.06347
280.77        20.69252
281.22        20.61975
281.68        20.75448
282.13        20.92584
282.59        20.92699
283.04        20.71453
283.50        20.39606
283.95         20.0461
284.41        19.79205
284.86        19.66314
285.32        19.61657
285.77        19.65224
286.22        19.82951
286.68        20.11345
287.13        20.46638
287.59        20.75566
288.04        20.77702
288.50        20.52824
288.95        20.06398
289.41        19.56261
289.86        19.19671
290.32        19.06699
290.77        19.11127
291.22        19.30131
291.68        19.55051
292.13         19.8418
292.59        20.21261
293.04        20.69168
293.50        21.31814
293.95         22.0819
294.40         22.9346
294.86        23.83014
295.31        24.71575
295.77        25.58603
296.22        26.46664
296.68        27.36358
297.13        28.25321
297.58        29.15329
298.04        30.07966
298.49        31.10185
298.95        32.37506
299.40        33.90978
299.85         35.6576
300.31        37.47425
300.76        39.12724
301.21        40.53354
301.67        41.78102
302.12        42.93024
302.58        44.16568
303.03        45.51113
303.48        46.93461
303.94        48.46075
304.39        50.07167
304.84        51.76286
305.30        53.53866
305.75          55.283
306.20         56.8367
306.66        58.18876
307.11        59.33527
307.57        60.42852
308.02         61.5957
308.47        62.91857
308.93        64.35864
309.38        65.81919
309.83        67.19405
310.29        68.43344
310.74        69.53371
311.19        70.54459
311.65        71.54462
312.10        72.54341
312.55        73.53165
313.00        74.41116
313.46         75.0299
313.91        75.35654
314.36        75.46812
314.82        75.56634
315.27        75.91222
315.72        76.59365
316.18         77.5301
316.63        78.56275
317.08        79.38531
317.53        79.89738
317.99        80.16295
318.44         80.3371
318.89        80.68203
319.35        81.24168
319.80        81.96081
320.25        82.62491
320.70        82.88808
321.16         82.6896
321.61        82.15813
322.06        81.57311
322.51         81.3659
322.97        81.61633
323.42        82.22849
323.87        82.95646
324.32        83.37659
324.78         83.3559
325.23        83.05449
325.68        82.64346
326.13         82.4299
326.59        82.48623
327.04        82.74003
327.49        83.08944
327.94        83.39648
328.39        83.60885
328.85        83.76631
329.30        83.92947
329.75        84.04518
330.20        84.13715
330.66        84.19876
331.11        84.35958
331.56        84.76164
332.01        85.44139
332.46        86.33828
332.92        87.32202
333.37        88.31715
333.82        89.17312
334.27        89.90186
334.72        90.42063
335.17        90.62028
335.63         90.5119
336.08        90.18325
336.53        89.81326
336.98           89.73
337.43        90.02078
337.88        90.59829
338.34        91.34268
338.79        92.12728
339.24        92.84174
339.69        93.54756
340.14        94.13476
340.59        94.41549
341.05        94.38435
341.50        94.08186
341.95        93.77627
342.40        93.89651
342.85        94.52286
343.30         95.5372
343.75        96.65914
344.20         97.3831
344.66         97.5677
345.11        97.34443
345.56        96.93871
346.01        96.69534
346.46        96.71959
346.91         96.9093
347.36        97.16109
347.81        97.32169
348.26        97.35522
348.72        97.34654
349.17        97.34486
349.62        97.46878
350.07        97.73176
350.52        98.06393
350.97        98.38536
351.42        98.58971
351.87        98.64674
352.32        98.59602
352.77        98.45405
353.22        98.24752
353.67        98.00262
354.13        97.72988
354.58        97.45479
355.03        97.27535
355.48        97.19813
355.93        97.19018
356.38        97.17424
356.83        97.02249
357.28        96.70016
357.73        96.24766
358.18        95.70487
358.63        95.13731
359.08        94.58222
359.53        94.03455
359.98        93.51028
360.43        93.03453
360.88        92.59909
361.33        92.17968
361.78        91.76984
362.23        91.35543
362.68        90.92641
363.13        90.50188
363.58        90.00883
364.03        89.32985
364.48        88.46934
364.93        87.47499
365.38        86.52522
365.83        85.90987
366.28        85.67585
366.73        85.71126
367.18        85.82346
367.63        85.69381
368.08        85.23312
368.53         84.5582
368.98        83.74554
369.43        82.90633
369.88        82.10267
370.33        81.30249
370.78         80.5983
371.23        80.15283
371.68        79.98737
372.13        80.05878
372.58        80.22217
373.03        80.21428
373.48        79.95813
373.93         79.5285
374.38        79.00303
374.83        78.50874
375.28         78.0891
375.72        77.68586
376.17        77.33586
376.62        77.07808
377.07        76.90298
377.52        76.79482
377.97        76.67191
378.42        76.39599
378.87        75.94817
379.32        75.38942
379.77        74.78265
380.22        74.21646
380.67        73.71101
381.11        73.23054
381.56        72.79305
382.01        72.43603
382.46        72.16854
382.91        72.00923
383.36        71.85903
383.81        71.55564
384.26        71.07999
384.71        70.46847
385.15        69.88421
385.60        69.63977
386.05         69.7302
386.50        70.04662
386.95        70.33914
387.40        70.19162
387.85        69.55961
388.29        68.61627
388.74        67.70029
389.19         67.0246
389.64        66.62805
390.09        66.37926
390.54        66.29587
390.98        66.40973
391.43        66.68169
391.88        67.08463
392.33        67.37025
392.78        67.16447
393.23        66.47227
393.67        65.42879
394.12        64.44852
394.57        63.90825
395.02        63.88924
395.47        64.24967
395.91        64.84478
396.36        65.31037
396.81        65.51593
397.26        65.52415
397.71        65.35824
398.15        64.96813
398.60        64.47231
399.05        63.99374
399.50        63.55457
399.95        62.81279
400.39        62.17754
400.84        61.88361
401.29        61.99297
401.74        62.17305
402.18        62.32004
402.63        62.30749
403.08        62.21423
403.53        62.33467
403.97        62.66441
404.42        62.96926
404.87        63.12901
405.32         63.0006
405.76        62.54561
406.21        62.02733
406.66        61.55782
407.11        60.96353
407.55        60.47952
408.00        60.80586
408.45        61.76014
408.90        62.27468
409.34        62.10448
409.79        61.58835
410.24         60.9628
410.68         60.5854
411.13        60.54799
411.58        60.61971
412.03        60.77075
412.47        61.06044
412.92          61.406
413.37        61.80186
413.81        62.13039
414.26        62.25505
414.71        62.13552
415.15        61.79915
415.60        61.36794
416.05        61.06703
416.49        60.96645
416.94        61.03144
417.39         61.1374
417.83        61.05294
418.28        60.74975
418.73        60.31875
419.17        59.95152
419.62        59.95259
420.07        60.33845
420.51         60.9883
420.96         61.6792
421.41        61.99349
421.85        61.80457
422.30        61.46507
422.74        61.05517
423.19         60.4854
423.64        59.93422
424.08          60.076
424.53        60.77657
424.98        61.16581
425.42        61.13944
425.87        61.30177
426.31        61.64519
426.76        61.60933
427.21        61.36472
427.65        61.66194
428.10        62.42513
428.54        63.12131
428.99        63.69972
429.44        63.98845
429.88        64.01067
430.33        64.72424
430.77        65.54263
431.22        64.47291
431.66        62.06422
432.11        60.76321
432.56        60.87416
433.00        61.68225
433.45        62.98468
433.89        64.61736
434.34        65.38596
434.78        66.52898
435.23        63.29502
435.67        61.98812
436.12        63.82411
436.57        64.86724
437.01        65.47752
437.46        65.66302
437.90         65.5472
438.35        65.57742
438.79        65.72094
439.24        65.67668
439.68        65.47915
440.13        65.03053
440.57        64.71934
441.02        65.70776
441.46          67.576
441.91        68.64786
442.35        68.60036
442.80        67.78161
443.24        66.64325
443.69         66.9992
444.13        68.48589
444.58        68.59917
445.02        66.72842
445.47        66.51525
445.91        67.61964
446.36        68.02706
446.80        67.65455
447.24        67.55801
447.69        67.81931
448.13        68.11449
448.58        68.44652
449.02        68.83744
449.47        69.21408
449.91        69.47952
450.36        69.60779
450.80        69.60727
451.25        69.50686
451.69        69.32891
452.13        69.11617
452.58        68.87126
453.02        68.65758
453.47        68.60897
453.91        68.72556
454.36        68.98106
454.80        69.26699
455.24        69.29693
455.69        69.03611
456.13        68.70697
456.58        68.48229
457.02        67.98925
457.46        67.90067
457.91        68.24065
458.35        68.93898
458.79        69.26071
459.24        69.14248
459.68        68.88648
460.13        68.58196
460.57        68.23129
461.01        67.95311
461.46        67.61634
461.90        67.12177
462.34        67.44644
462.79        66.83588
463.23        66.70967
463.68        67.72802
464.12        68.28056
464.56        68.57335
465.01        68.68753
465.45        68.52982
465.89        68.33688
466.34          68.034
466.78        66.90044
467.22        65.51656
467.67        65.01881
468.11        66.42838
468.55        67.23237
468.99        67.37228
469.44        67.11367
469.88        66.63373
470.32        66.54271
470.77        66.80331
471.21        66.71812
471.65        66.27589
472.10        66.05823
472.54         66.1079
472.98        66.18805
473.42        66.29244
473.87        66.58893
474.31        66.89703
474.75        66.82909
475.20        66.51437
475.64        66.03094
476.08        66.36934
476.52        66.32533
476.97        66.15808
477.41        66.40366
477.85        66.89593
478.29         66.6201
478.74        66.84847
479.18        66.80511
479.62        66.08483
480.06         66.6513
480.50        66.86655
480.95        67.14831
481.39        67.06563
481.83          66.453
482.27        66.66269
482.72        66.30808
483.16         65.3942
483.60        65.71915
484.04         67.1391
484.48        67.57355
484.93        67.47479
485.37        68.76728
485.81        69.25152
486.25        68.17597
486.69         93.5396
487.14          75.763
487.58        46.43861
488.02        57.37691
488.46        65.19185
488.90        65.05725
489.34        66.46154
489.79        65.37837
490.23        67.66206
490.67        68.45029
491.11         67.4336
491.55        67.34425
491.99        67.80013
492.43        67.64379
492.88        66.96882
493.32        67.00409
493.76        67.24901
494.20        67.55105
494.64        67.66721
495.08        67.81938
495.52        68.03923
495.96        68.03502
496.41         67.7997
496.85        68.18415
497.29        68.94521
497.73        67.89202
498.17        65.97107
498.61         66.2931
499.05        68.83177
499.49        69.27225
499.93        69.13087
500.37        69.00109
500.82        68.72996
501.26        68.69316
501.70        68.72808
502.14        68.92451
502.58        69.10825
503.02        69.06646
503.46        68.77691
503.90        68.32464
504.34        67.88423
504.78        67.70287
505.22        67.83382
505.66        68.20743
506.10        68.65998
506.54         68.8595
506.98        68.71696
507.42         68.4333
507.86        68.19914
508.30        67.76884
508.74        68.06704
509.18        68.31417
509.62        68.64771
510.06         68.8587
510.50        68.89704
510.94        68.82021
511.38        68.69241
511.82        68.63078
512.26        68.66588
512.70        68.75358
513.14        68.85691
513.58        68.92455
514.02        68.93276
514.46        68.89739
514.90        68.83699
515.34        68.75864
515.78        68.66197
516.22        68.61733
516.66        68.61426
517.10        68.45639
517.54        68.14426
517.98        68.33919
518.42         68.1719
518.86        68.36283
519.30        68.63209
519.74        69.02407
520.18        69.42077
520.62        69.61221
521.06        69.57223
521.50        69.38663
521.93        69.13568
522.37        68.93085
522.81        68.82574
523.25        68.79493
523.69        68.84138
524.13        68.96068
524.57        69.13467
525.01        69.36479
525.45         69.5813
525.89        69.66684
526.32        69.59018
526.76        69.38046
527.20         69.1123
527.64        68.92767
528.08         68.8812
528.52        68.88181
528.96        68.85182
529.40        68.86098
529.83        68.92429
530.27        68.32493
530.71        68.47694
531.15        68.39072
531.59        68.48925
532.03        68.69493
532.46        68.97247
532.90        69.23463
533.34        69.42903
533.78        69.57363
534.22        69.65354
534.66        69.65532
535.09        69.57311
535.53        69.43881
535.97        69.26107
536.41        69.07798
536.85        68.91286
537.28        68.76759
537.72        68.66288
538.16         68.6397
538.60        68.69852
539.04        68.76974
539.47        68.81225
539.91        68.94796
540.35        69.08765
540.79        68.96245
541.22        68.63935
541.66        68.50411
542.10         68.5806
542.54        68.65857
542.97        68.72189
543.41        68.85537
543.85        69.03484
544.29        69.25904
544.72        69.42548
545.16        69.40443
545.60        69.17632
546.04        68.77655
546.47        68.38644
546.91        68.33598
547.35        68.66605
547.79        69.23872
548.22        69.79873
548.66        70.04872
549.10        69.86327
549.53        69.16775
549.97        68.30157
550.41        67.89823
550.84        68.05899
551.28        68.56642
551.72        69.23041
552.15        69.61251
552.59        69.56954
553.03        69.87263
553.46        69.43607
553.90        69.36163
554.34        69.35686
554.77        69.32636
555.21        69.24355
555.65        69.29662
556.08        69.56105
556.52         69.0976
556.96        69.52265
557.39        69.48616
557.83        69.48621
558.27        69.50138
558.70        69.55555
559.14        69.62399
559.57        69.70081
560.01        69.87467
560.45        70.08273
560.88        70.18446
561.32        70.14301
561.75         69.9159
562.19        69.61234
562.63         69.2147
563.06        68.86959
563.50        69.01536
563.93        69.51128
564.37        69.75153
564.80        69.65914
565.24        69.60028
565.68        69.60389
566.11        69.59264
566.55        69.62997
566.98        69.66407
567.42        69.71824
567.85        69.92986
568.29        70.32972
568.72        70.32273
569.16        70.16822
569.60        70.54878
570.03        71.12376
570.47        71.25475
570.90        71.18127
571.34        69.39981
571.77         70.2055
572.21        70.36984
572.64        69.95918
573.08        69.15827
573.51        65.80803
573.95        68.44135
574.38        73.04585
574.82        71.09496
