SpectraSmart Spectrum 2.9.0.0
--------- Device Information -----------
Spectrum Name :  反射率_0
Saving Time :  2024/04/26 01:41:59
Spectro-Module Model Name : SE2030-DUVN
Spectro-Module Serial Number : OS361AC55029948
Wavelength Start : 200
Wavelength End : 1025
Wavelength Unit : Wavelength(nm)
Spectrum Unit : Reflectance(%)
-----------Spectrum Setting ------------
Integration Time : 20ms
Average : 10
Boxcar : 0
Background removal :  enabled
linearity correction :  enabled
SC :  disabled
Intensity correction :  disabled
DWT denoise :  enabled
savitzky-golay :  disabled
FFT :  disabled
Running average :  disabled
Kalman :  disabled
High pass :  disabled
---------------BEGIN--------------------
Wavelength(nm)             Reflectance(%)
200.29               0
200.75        94.43187
201.21        86.90283
201.67        77.72804
202.13        70.96717
202.58        67.29613
203.04        66.03892
203.50        66.48125
203.96         67.4852
204.42        68.45277
204.88        69.47241
205.34        70.85471
205.80        73.31982
206.26        77.78085
206.72        86.44641
207.18        102.1614
207.64        114.5746
208.10        103.3532
208.55        82.93668
209.01        70.29012
209.47        65.90784
209.93        66.20432
210.39        69.79474
210.85        74.09081
211.31        73.77674
211.77        67.54128
212.23        57.39564
212.69        48.28383
213.14        47.84375
213.60        57.06239
214.06        73.52139
214.52        91.15725
214.98        100.7426
215.44        100.1159
215.90        92.41875
216.36        82.12001
216.81        75.46917
217.27        74.18514
217.73        76.06957
218.19        78.21704
218.65         76.8631
219.11        70.57636
219.57        58.75088
220.02        43.12648
220.48        33.52065
220.94         35.7218
221.40        47.36205
221.86        58.43901
222.32        58.46851
222.77         48.9195
223.23        35.65129
223.69        25.02899
224.15        23.53156
224.61        30.25961
225.06         41.7356
225.52        53.16117
225.98         58.2308
226.44        55.85592
226.90        48.77334
227.36        40.37968
227.81        35.28541
228.27        34.84813
228.73        37.23885
229.19        40.97369
229.65        43.89275
230.10        45.29647
230.56        46.01402
231.02         46.3737
231.48        46.65117
231.93        46.93793
232.39         47.0425
232.85        47.03458
233.31        47.15166
233.77        47.42967
234.22        47.89476
234.68        48.35199
235.14        48.32131
235.60        47.74035
236.05        46.81871
236.51         46.0164
236.97        45.95533
237.43        46.87263
237.88        48.87403
238.34        51.75637
238.80        54.75594
239.26        57.18344
239.71        59.04372
240.17         60.3683
240.63        62.05051
241.08         64.3914
241.54        66.88826
242.00         69.2292
242.46        71.23321
242.91        73.38573
243.37        76.56625
243.83        85.28479
244.28        116.1386
244.74        156.4156
245.20        140.9188
245.66        123.4683
246.11        118.6045
246.57         121.615
247.03        135.5667
247.48        178.2997
247.94        158.5806
248.40        113.4941
248.85        99.50859
249.31        95.82801
249.77        96.19479
250.22        99.11505
250.68        104.6436
251.14        112.8676
251.59         119.122
252.05        118.1602
252.51        112.1454
252.96        104.4487
253.42         98.9287
253.88        95.45064
254.33        92.74656
254.79        92.27899
255.25        95.36947
255.70        100.7892
256.16        107.2992
256.62        111.9944
257.07        111.9948
257.53        108.3655
257.99        102.2902
258.44        95.82244
258.90        92.42017
259.35        91.20464
259.81        91.07577
260.27        90.21918
260.72        86.90121
261.18         81.9269
261.63        75.96492
262.09        70.47919
262.55        66.35725
263.00        63.56994
263.46         61.8159
263.91        60.36015
264.37        58.80638
264.83        56.89264
265.28        54.66813
265.74        52.49736
266.19         50.6498
266.65        49.39803
267.11        48.54536
267.56        47.79348
268.02        46.79804
268.47        45.41104
268.93        43.76043
269.38        42.02092
269.84        40.72398
270.30        40.01722
270.75        39.76794
271.21        39.69522
271.66        39.36955
272.12        38.67373
272.57        37.72782
273.03        36.78027
273.48        36.11104
273.94        35.80667
274.39        35.70686
274.85        35.61831
275.31        35.24253
275.76        34.51192
276.22        33.57108
276.67        32.57533
277.13        31.85515
277.58        31.41675
278.04        31.19524
278.49        30.98323
278.95        30.56544
279.40        29.87194
279.86        29.05286
280.31        28.21023
280.77        27.61904
281.22        27.28128
281.68        27.12651
282.13        27.04299
282.59        26.91933
283.04        26.71369
283.50        26.51962
283.95        26.30475
284.41        26.04328
284.86         25.7427
285.32        25.41589
285.77        25.20076
286.22        25.37597
286.68        25.92792
287.13        26.71391
287.59        27.44223
288.04        27.66321
288.50        27.33103
288.95        26.58814
289.41        25.71926
289.86        25.03955
290.32        24.70658
290.77        24.61282
291.22        24.72855
291.68          24.963
292.13        25.28773
292.59        25.75629
293.04        26.36482
293.50        27.09365
293.95        27.91866
294.40        28.80031
294.86        29.73025
295.31        30.72002
295.77        31.77378
296.22        32.88653
296.68        34.02018
297.13        35.08159
297.58        36.06519
298.04        37.00799
298.49        37.99992
298.95        39.23323
299.40        40.73237
299.85        42.44321
300.31        44.22477
300.76        45.84673
301.21        47.22998
301.67        48.47331
302.12        49.63146
302.58        50.88936
303.03        52.26259
303.48        53.71796
303.94        55.28459
304.39        56.94593
304.84        58.69815
305.30        60.54561
305.75        62.35205
306.20        63.93472
306.66        65.28351
307.11        66.39857
307.57        67.47132
308.02        68.67342
308.47        70.10112
308.93        71.71017
309.38        73.36164
309.83        74.88553
310.29         76.2226
310.74        77.38515
311.19        78.48249
311.65        79.68503
312.10        81.01427
312.55        82.42761
313.00        83.74675
313.46        84.68974
313.91        85.18512
314.36        85.34118
314.82        85.43355
315.27        85.83309
315.72        86.66282
316.18        87.81627
316.63        89.07726
317.08        90.04054
317.53        90.58649
317.99         90.8169
318.44        90.96729
318.89        91.42513
319.35        92.25531
319.80         93.3591
320.25        94.42755
320.70        94.95623
321.16        94.83707
321.61         94.2467
322.06        93.53335
322.51        93.24028
322.97        93.48051
323.42        94.12933
323.87        94.92352
324.32        95.40817
324.78        95.44009
325.23        95.21375
325.68        94.88973
326.13        94.75368
326.59        94.87627
327.04        95.18486
327.49        95.62353
327.94        96.14169
328.39        96.69389
328.85        97.28098
329.30        97.87237
329.75        98.23518
330.20         98.3462
330.66        98.25096
331.11        98.18187
331.56        98.44241
332.01         99.1286
332.46        100.1458
332.92        101.3257
333.37        102.5474
333.82        103.6213
334.27        104.5822
334.72        105.3437
335.17        105.7842
335.63        105.9069
336.08         105.792
336.53        105.6126
336.98        105.7092
337.43        106.1739
337.88        106.9146
338.34        107.8209
338.79        108.7929
339.24        109.7182
339.69        110.6544
340.14         111.451
340.59        111.8494
341.05        111.8319
341.50        111.4575
341.95        111.0521
342.40        111.1314
342.85        111.7996
343.30        112.9215
343.75        114.1727
344.20        114.9701
344.66        115.1552
345.11        114.8819
345.56        114.4248
346.01        114.2034
346.46        114.3337
346.91        114.6807
347.36        115.0888
347.81        115.3269
348.26         115.341
348.72        115.2435
349.17        115.1215
349.62        115.1501
350.07        115.3644
350.52        115.6775
350.97        116.0041
351.42        116.2296
351.87         116.315
352.32        116.3011
352.77        116.1893
353.22        115.9806
353.67         115.695
354.13        115.3492
354.58         114.978
355.03        114.7018
355.48        114.5363
355.93        114.4465
356.38        114.3556
356.83        114.1346
357.28        113.7484
357.73        113.2393
358.18        112.6474
358.63        112.0372
359.08        111.4423
359.53        110.8531
359.98        110.2785
360.43        109.7344
360.88        109.2088
361.33        108.6783
361.78        108.1401
362.23        107.5861
362.68        107.0152
363.13        106.4548
363.58        105.8313
364.03        105.0258
364.48        104.0401
364.93        102.9121
365.38        101.8441
365.83        101.1621
366.28        100.9153
366.73        100.9894
367.18        101.1184
367.63        100.8652
368.08        100.1305
368.53        99.07348
368.98         97.9023
369.43        96.93035
369.88        96.25323
370.33        95.77114
370.78        95.43314
371.23        95.16298
371.68        94.91155
372.13        94.70205
372.58        94.49834
373.03         94.2255
373.48        93.87437
373.93        93.47134
374.38        93.02952
374.83        92.57778
375.28        92.13175
375.72        91.66415
376.17        91.26315
376.62        91.04758
377.07        91.01411
377.52        91.10398
377.97         91.1479
378.42        90.87606
378.87        90.25304
379.32        89.40352
379.77        88.47861
380.22        87.69064
380.67        87.09118
381.11        86.60276
381.56        86.22372
382.01         85.9566
382.46        85.78768
382.91        85.74966
383.36        85.69793
383.81        85.39636
384.26        84.81764
384.71        84.01366
385.15        83.22369
385.60         82.8924
386.05        83.03118
386.50         83.4969
386.95        83.95545
387.40        83.84483
387.85         83.0923
388.29        81.92197
388.74        80.78488
389.19        79.98459
389.64        79.58049
390.09        79.41499
390.54        79.45193
390.98        79.63135
391.43        79.87976
391.88        80.19186
392.33        80.39028
392.78        80.14287
393.23        79.45628
393.67        78.60294
394.12          77.892
394.57        77.14527
395.02         76.6113
395.47        77.04775
395.91        78.26213
396.36        78.97992
396.81        79.01414
397.26        78.95433
397.71        78.84201
398.15         78.4444
398.60        77.91531
399.05        77.33313
399.50        76.76132
399.95        76.11942
400.39        75.78526
400.84        75.36084
401.29        74.99638
401.74        75.17253
402.18        75.73692
402.63        75.70453
403.08        75.22647
403.53        75.30985
403.97        75.97756
404.42        76.63435
404.87        77.01446
405.32        76.92616
405.76        76.31641
406.21        75.36349
406.66        74.35027
407.11         73.7546
407.55          73.722
408.00        73.87798
408.45        74.13638
408.90        74.90314
409.34         75.7333
409.79        75.22788
410.24         73.7629
410.68        73.12865
411.13        73.46194
411.58        73.75619
412.03        73.90054
412.47        74.30589
412.92         74.6256
413.37        75.00243
413.81        75.26219
414.26        75.29399
414.71        75.06474
415.15        74.61176
415.60        74.07783
416.05        73.70475
416.49        73.56946
416.94         73.6363
417.39        73.75604
417.83        73.64632
418.28        73.27023
418.73        72.73822
419.17        72.26733
419.62        72.21081
420.07        72.58221
420.51         73.2358
420.96        73.93618
421.41        74.22363
421.85        73.95896
422.30        73.59931
422.74        73.17461
423.19        72.39336
423.64        71.49382
424.08        71.49464
424.53         72.2929
424.98        72.73703
425.42        72.69901
425.87        73.08284
426.31        73.77714
426.76         73.6307
427.21        72.93772
427.65        73.27653
428.10        74.47936
428.54        75.26988
428.99        75.58231
429.44        75.45246
429.88        75.08067
430.33        76.02444
430.77        77.44479
431.22         76.2347
431.66        73.07381
432.11        71.45636
432.56         71.7113
433.00        72.64846
433.45        74.08846
433.89        75.85497
434.34        76.46056
434.78        78.48515
435.23        74.50272
435.67        72.42633
436.12        74.42822
436.57        75.59114
437.01        76.61421
437.46        76.96345
437.90         76.7924
438.35        76.41534
438.79        76.72397
439.24        76.72983
439.68        76.66943
440.13        76.35457
440.57        76.11267
441.02        76.92705
441.46         78.4229
441.91        79.43197
442.35        79.59908
442.80        78.58237
443.24        76.96782
443.69        77.61542
444.13        80.03023
444.58        80.09393
445.02        78.02039
445.47        77.51383
445.91        78.58339
446.36         78.8633
446.80        78.28827
447.24        78.30466
447.69        78.91735
448.13        78.68304
448.58        78.81145
449.02        79.10698
449.47        79.80606
449.91        80.20271
450.36         80.2506
450.80        80.31361
451.25        80.37601
451.69        80.17521
452.13         79.7872
452.58        79.46448
453.02        79.27304
453.47        79.20431
453.91        79.24947
454.36        79.46658
454.80        79.79342
455.24        79.80749
455.69        79.44047
456.13        79.26329
456.58        79.42442
457.02          78.092
457.46        77.98135
457.91        78.05069
458.35         78.8071
458.79          79.116
459.24        78.94809
459.68         78.7549
460.13        78.56161
460.57        78.33897
461.01        78.19147
461.46        77.38273
461.90        77.18996
462.34        77.14608
462.79        76.50938
463.23        76.70206
463.68        77.33746
464.12        77.69793
464.56        77.69736
465.01        77.68855
465.45        77.54878
465.89        77.43241
466.34        77.25077
466.78        76.14713
467.22        74.64683
467.67        74.46747
468.11        75.53465
468.55        76.28777
468.99        76.36713
469.44        76.00443
469.88        75.42001
470.32        75.42522
470.77        75.92836
471.21        75.94078
471.65        75.41235
472.10        75.06219
472.54        74.99284
472.98        74.98378
473.42        75.02578
473.87        75.39918
474.31        75.87043
474.75        75.62167
475.20        74.83225
475.64        74.68049
476.08        75.16812
476.52        75.12442
476.97        74.47389
477.41        74.83502
477.85        74.71924
478.29        74.55848
478.74        74.70856
479.18        75.06103
479.62        74.05427
480.06        74.77875
480.50        75.09779
480.95        75.45552
481.39        75.40176
481.83        74.51347
482.27        74.35843
482.72        74.35392
483.16        72.97694
483.60        72.94523
484.04        74.69759
484.48        75.18156
484.93        75.20919
485.37        76.46055
485.81        77.21091
486.25        76.04274
486.69        102.7358
487.14        83.58712
487.58        51.57543
488.02        63.85326
488.46        72.42039
488.90         71.5546
489.34        73.55554
489.79        72.68247
490.23        74.89617
490.67        75.68024
491.11         74.4561
491.55        74.41442
491.99        75.07235
492.43        74.92133
492.88        74.04743
493.32        73.95048
493.76        74.10838
494.20        74.31809
494.64        74.31889
495.08        74.40894
495.52         74.6159
495.96        74.48705
496.41        74.04648
496.85        74.53098
497.29        75.62315
497.73        74.46191
498.17         72.0724
498.61         72.6404
499.05        75.10191
499.49        75.77174
499.93        75.78513
500.37        75.44382
500.82        74.68699
501.26        74.75626
501.70         75.3262
502.14         75.7919
502.58        75.31174
503.02        75.13287
503.46        75.05415
503.90        74.68484
504.34        74.16934
504.78        73.93865
505.22        74.04646
505.66        74.39642
506.10        74.83783
506.54        75.01609
506.98        74.83347
507.42        74.77383
507.86        74.30934
508.30        74.21119
508.74        74.33118
509.18        74.60758
509.62        74.91154
510.06        75.05332
510.50        74.98899
510.94        74.78352
511.38        74.53752
511.82         74.3988
512.26        74.41008
512.70        74.52313
513.14        74.67691
513.58        74.77758
514.02        74.78925
514.46        74.73519
514.90          74.658
515.34        74.60755
515.78        74.58961
516.22         74.6433
516.66        74.71886
517.10        74.59337
517.54        74.25694
517.98        74.27342
518.42        73.98861
518.86        74.06404
519.30        74.29147
519.74        74.67957
520.18        75.10606
520.62        75.36683
521.06        75.41824
521.50        75.31941
521.93        75.13847
522.37        74.98918
522.81        74.91909
523.25        74.88973
523.69        74.91154
524.13        75.00182
524.57        75.15181
525.01        75.36387
525.45         75.5714
525.89        75.66161
526.32        75.60204
526.76        75.41534
527.20        75.18206
527.64        75.05337
528.08        75.08018
528.52        75.16199
528.96        75.18102
529.40        75.16373
529.83        75.12463
530.27        74.30365
530.71          74.296
531.15        74.11346
531.59        74.23244
532.03        74.53925
532.46        74.95023
532.90        75.29105
533.34        75.48273
533.78        75.57607
534.22        75.57162
534.66        75.47933
535.09        75.30641
535.53        75.07584
535.97        74.82337
536.41        74.63408
536.85        74.53616
537.28        74.52214
537.72        74.55954
538.16        74.60047
538.60        74.62824
539.04        74.59596
539.47         74.5221
539.91        74.63756
540.35        74.86319
540.79        74.86954
541.22        74.67862
541.66         74.6282
542.10        74.72496
542.54        74.77827
542.97        74.78305
543.41        74.84836
543.85        74.95576
544.29        75.08855
544.72        75.18238
545.16        75.13776
545.60        74.92889
546.04        74.68265
546.47        74.48475
546.91        74.27029
547.35        74.17491
547.79        74.65345
548.22        75.42482
548.66        75.66946
549.10        75.26224
549.53         74.4651
549.97        73.62074
550.41        73.19673
550.84        73.29211
551.28        73.73577
551.72         74.3448
552.15        74.70874
552.59        74.69761
553.03        74.96275
553.46        74.60036
553.90        74.52615
554.34        74.49789
554.77        74.39939
555.21         74.2494
555.65        74.32172
556.08         74.6581
556.52        74.33643
556.96        74.98082
557.39        74.81334
557.83        74.44754
558.27        74.29623
558.70        74.40521
559.14        74.49987
559.57        74.54916
560.01        74.67284
560.45        74.84554
560.88         75.0554
561.32        75.20784
561.75         75.0768
562.19        74.74466
562.63        74.15697
563.06        73.54719
563.50         73.6741
563.93        74.38787
564.37        74.56798
564.80        74.53262
565.24         74.3839
565.68         74.3068
566.11         74.2403
566.55        74.25663
566.98        74.29925
567.42        74.33649
567.85        74.46503
568.29        74.74285
568.72        74.73595
569.16        74.57424
569.60        75.55276
570.03        75.68689
570.47        75.71627
570.90        75.48392
571.34        73.74883
571.77        74.53206
572.21        74.76527
572.64        74.23153
573.08        73.12646
573.51        70.27116
573.95        72.93363
574.38        77.32706
574.82        75.15649
