SpectraSmart Spectrum 2.9.0.0
--------- Device Information -----------
Spectrum Name :  反射率_0
Saving Time :  2024/04/26 01:57:03
Spectro-Module Model Name : SE2030-DUVN
Spectro-Module Serial Number : OS361AC55029948
Wavelength Start : 200
Wavelength End : 1025
Wavelength Unit : Wavelength(nm)
Spectrum Unit : Reflectance(%)
-----------Spectrum Setting ------------
Integration Time : 20ms
Average : 10
Boxcar : 0
Background removal :  enabled
linearity correction :  enabled
SC :  disabled
Intensity correction :  disabled
DWT denoise :  enabled
savitzky-golay :  disabled
FFT :  disabled
Running average :  disabled
Kalman :  disabled
High pass :  disabled
---------------BEGIN--------------------
Wavelength(nm)             Reflectance(%)
200.29               0
200.75        82.91521
201.21        79.25146
201.67        74.87877
202.13        71.20463
202.58        68.51428
203.04        67.05868
203.50        66.77026
203.96         67.5042
204.42        68.90794
204.88        70.50114
205.34        72.45304
205.80        75.51446
206.26        80.69588
206.72        90.67693
207.18        108.4325
207.64        120.8681
208.10        105.3906
208.55        80.68078
209.01        65.92518
209.47        60.98295
209.93        61.53997
210.39        66.03385
210.85        71.53202
211.31        71.90355
211.77        65.51215
212.23        54.58325
212.69        44.58512
213.14        44.00226
213.60        53.96523
214.06        71.69404
214.52        90.55666
214.98        100.4844
215.44        99.17025
215.90        90.17246
216.36         78.3093
216.81        70.33289
217.27        68.13059
217.73        69.34645
218.19        71.07764
218.65        69.52238
219.11        63.27637
219.57         52.0091
220.02        37.35653
220.48        28.62186
220.94        31.17052
221.40        42.41837
221.86        53.43898
222.32        55.01045
222.77        48.14098
223.23        37.90526
223.69        29.32496
224.15        27.48269
224.61         31.8043
225.06        39.64162
225.52        47.53635
225.98        51.15733
226.44        49.71238
226.90        45.15343
227.36        39.66666
227.81        36.14311
228.27        35.57646
228.73        36.73093
229.19        38.85249
229.65        40.86694
230.10         42.2725
230.56        43.39072
231.02         44.1711
231.48        44.46971
231.93        44.35497
232.39        43.89473
232.85        43.24917
233.31         42.7628
233.77        42.50842
234.22        42.34927
234.68        42.31097
235.14        42.34875
235.60        42.42152
236.05        42.62269
236.51        42.70235
236.97        42.19831
237.43        41.04183
237.88        39.29443
238.34        37.47715
238.80        37.19533
239.26        39.26192
239.71        43.43342
240.17         48.6216
240.63        53.18869
241.08        56.44805
241.54         58.4757
242.00        59.72148
242.46           61.15
242.91        63.71601
243.37        68.62839
243.83        81.91029
244.28        121.0118
244.74        158.3593
245.20        129.6304
245.66        107.4346
246.11        101.6702
246.57        105.3962
247.03        123.3253
247.48        180.0024
247.94        161.1534
248.40        102.8222
248.85        83.68277
249.31        78.08507
249.77        78.38973
250.22        82.41202
250.68         90.3317
251.14        101.7741
251.59        108.8546
252.05        104.0686
252.51        91.29333
252.96        77.88232
253.42        70.58743
253.88        68.84592
254.33        70.21004
254.79        73.82372
255.25        77.93536
255.70         81.4032
256.16        84.65056
256.62         86.4844
257.07        85.63579
257.53        82.83541
257.99        78.36186
258.44        73.61305
258.90        71.17969
259.35        70.27557
259.81        70.14031
260.27        69.14773
260.72        65.70235
261.18        60.57814
261.63        54.51624
262.09        49.09427
262.55        45.49142
263.00        43.62236
263.46        42.92146
263.91        42.45496
264.37        41.48214
264.83        39.81919
265.28        37.65143
265.74        35.53816
266.19        34.09139
266.65        33.52513
267.11        33.48555
267.56        33.48249
268.02        32.91998
268.47        31.68796
268.93        29.99834
269.38        28.16539
269.84        26.95334
270.30        26.56021
270.75         26.7655
271.21        27.16135
271.66        27.14121
272.12        26.54618
272.57        25.58379
273.03        24.56298
273.48        23.86835
273.94        23.61603
274.39        23.62004
274.85        23.69893
275.31        23.59449
275.76        23.23044
276.22        22.72557
276.67        22.15785
277.13        21.71305
277.58        21.39255
278.04         21.1606
278.49        20.92231
278.95        20.59265
279.40        20.13751
279.86        19.64851
280.31        19.15411
280.77         18.7921
281.22        18.55134
281.68        18.40298
282.13        18.31521
282.59        18.26606
283.04        18.23737
283.50        18.26632
283.95        18.28179
284.41        18.18739
284.86        17.97377
285.32        17.67511
285.77        17.43814
286.22         17.5397
286.68        17.98245
287.13        18.64489
287.59        19.26729
288.04        19.46305
288.50        19.18862
288.95        18.56906
289.41        17.86241
289.86        17.35826
290.32        17.18625
290.77        17.24242
291.22         17.4596
291.68        17.69796
292.13        17.92344
292.59        18.19138
293.04        18.54514
293.50        19.04195
293.95        19.67782
294.40        20.39557
294.86        21.13475
295.31        21.82412
295.77        22.45441
296.22        23.05916
296.68        23.66728
297.13        24.29146
297.58        24.96188
298.04        25.68834
298.49        26.51376
298.95        27.54706
299.40        28.78664
299.85        30.18917
300.31        31.64915
300.76        33.00101
301.21        34.17425
301.67         35.2356
302.12        36.18782
302.58        37.11377
303.03        38.03298
303.48        38.95039
303.94        39.96637
304.39        41.18726
304.84        42.62676
305.30        44.23731
305.75        45.84795
306.20         47.2083
306.66        48.28024
307.11        49.10575
307.57        49.84314
308.02        50.63984
308.47        51.58984
308.93        52.65194
309.38        53.77696
309.83        54.92822
310.29        56.06549
310.74        57.17001
311.19         58.2333
311.65        59.24194
312.10        60.18424
312.55         61.0708
313.00         61.8409
313.46        62.40697
313.91        62.75321
314.36         62.9277
314.82        63.09959
315.27         63.4943
315.72        64.18266
316.18        65.09859
316.63        66.09042
317.08        66.86447
317.53        67.32954
317.99        67.55016
318.44        67.68457
318.89        67.99765
319.35        68.54075
319.80        69.25926
320.25        69.95169
320.70        70.28859
321.16        70.20505
321.61        69.81487
322.06        69.37679
322.51        69.29257
322.97        69.63525
323.42        70.31101
323.87         71.0729
324.32        71.49744
324.78        71.45848
325.23        71.11406
325.68        70.66102
326.13         70.4422
326.59        70.54478
327.04        70.89069
327.49        71.35612
327.94        71.75857
328.39        72.03187
328.85        72.22342
329.30        72.41737
329.75        72.62236
330.20        72.86789
330.66        73.12441
331.11        73.45502
331.56         73.9051
332.01        74.49142
332.46        75.18615
332.92         75.9393
333.37         76.7935
333.82        77.65605
334.27        78.51123
334.72        79.22928
335.17        79.61185
335.63         79.6334
336.08         79.3967
336.53         79.0985
336.98        79.09128
337.43        79.47185
337.88         80.1434
338.34        80.96815
338.79        81.79005
339.24        82.49535
339.69         83.1469
340.14        83.68336
340.59        83.99686
341.05        84.08717
341.50        83.96816
341.95          83.816
342.40        83.92114
342.85        84.34737
343.30        85.03098
343.75        85.79586
344.20        86.31808
344.66        86.50926
345.11        86.43946
345.56        86.26791
346.01        86.23832
346.46        86.41241
346.91        86.71288
347.36        87.02191
347.81        87.16061
348.26        87.10385
348.72        86.95441
349.17        86.80235
349.62        86.84326
350.07        87.11639
350.52        87.52811
350.97          88.003
351.42        88.43643
351.87         88.7772
352.32        89.05408
352.77        89.20368
353.22        89.12807
353.67         88.8327
354.13        88.36398
354.58          87.847
355.03           87.54
355.48        87.49394
355.93        87.63716
356.38        87.82256
356.83        87.80487
357.28        87.52012
357.73        87.04971
358.18        86.48575
358.63        85.97423
359.08        85.56509
359.53        85.20963
359.98        84.88181
360.43        84.54726
360.88        84.18292
361.33        83.79705
361.78        83.38755
362.23        82.94399
362.68        82.47301
363.13        81.99337
363.58        81.48853
364.03        80.93156
364.48        80.33155
364.93        79.69994
365.38        79.12496
365.83        78.74707
366.28        78.57741
366.73        78.55512
367.18         78.5461
367.63        78.33379
368.08        77.86812
368.53        77.22944
368.98        76.50724
369.43        75.83543
369.88        75.26398
370.33        74.75665
370.78        74.33051
371.23        74.01511
371.68        73.80668
372.13         73.7049
372.58        73.65372
373.03        73.54672
373.48        73.35703
373.93        73.11154
374.38        72.84719
374.83        72.62792
375.28        72.46628
375.72        72.31813
376.17        72.19357
376.62        72.08418
377.07        71.97146
377.52        71.84591
377.97        71.66068
378.42        71.34266
378.87        70.89408
379.32        70.36373
379.77        69.80359
380.22        69.28062
380.67        68.81217
381.11        68.37888
381.56        68.00001
382.01        67.70985
382.46        67.51795
382.91        67.43698
383.36        67.38145
383.81        67.21368
384.26        66.90919
384.71         66.4858
385.15        66.07339
385.60        65.93547
386.05        66.06319
386.50        66.36848
386.95         66.6209
387.40        66.43986
387.85        65.79522
388.29        64.84963
388.74        63.94918
389.19        63.32841
389.64        63.02612
390.09        62.91655
390.54        62.96998
390.98        63.13244
391.43        63.35186
391.88        63.63141
392.33        63.81037
392.78        63.63329
393.23        63.11393
393.67        62.36668
394.12        61.70879
394.57        61.32343
395.02         61.3073
395.47        61.72771
395.91        62.45015
396.36        62.97055
396.81        63.16264
397.26        63.17877
397.71        63.05365
398.15        62.72413
398.60        62.30711
399.05        61.89962
399.50         61.5151
399.95        60.86734
400.39        60.31963
400.84        59.97698
401.29         59.9399
401.74        60.05698
402.18        60.27089
402.63        60.43581
403.08        60.56873
403.53        60.82281
403.97        61.17558
404.42        61.47478
404.87        61.60921
405.32        61.46154
405.76        61.01488
406.21        60.41007
406.66        59.82113
407.11        59.42152
407.55        59.33466
408.00        59.66001
408.45        60.23251
408.90        60.59696
409.34        60.55518
409.79        60.06481
410.24        59.37714
410.68         59.0487
411.13        59.16999
411.58        59.44783
412.03        59.80375
412.47        60.20922
412.92        60.55291
413.37        60.86519
413.81        61.06493
414.26        61.06855
414.71        60.86049
415.15        60.45667
415.60        59.99628
416.05        59.72921
416.49        59.72408
416.94        59.94152
417.39        60.21042
417.83        60.21899
418.28         59.9132
418.73        59.39468
419.17        58.90492
419.62        58.82635
420.07        59.19765
420.51        59.88709
420.96        60.62004
421.41        60.90488
421.85        60.61275
422.30        60.09534
422.74        59.52995
423.19        59.04297
423.64        58.78845
424.08        59.20344
424.53        60.09784
424.98        60.67947
425.42        60.80777
425.87        60.98799
426.31        61.25375
426.76        61.17782
427.21        60.95363
427.65        61.28861
428.10        62.07025
428.54        62.71397
428.99        63.15804
429.44        63.26777
429.88        63.12626
430.33        63.73746
430.77        64.55344
431.22        63.63929
431.66        61.44318
432.11        60.23246
432.56        60.30636
433.00         60.9316
433.45        62.04235
433.89        63.87553
434.34        65.10928
434.78        66.31506
435.23         63.1825
435.67        61.05938
436.12        63.41669
436.57        64.33767
437.01        64.82712
437.46        64.97952
437.90        64.92628
438.35        65.03909
438.79        65.28545
439.24        65.38369
439.68         65.3546
440.13        65.20908
440.57        65.16586
441.02        65.96946
441.46        67.28896
441.91        67.84402
442.35        67.54376
442.80        66.98028
443.24        66.41499
443.69        66.94379
444.13        68.22843
444.58        68.16859
445.02        66.75092
445.47        66.62143
445.91        67.61112
446.36        67.92692
446.80        67.50825
447.24        67.33968
447.69        67.50725
448.13        67.72598
448.58        68.01046
449.02        68.36659
449.47        68.74138
449.91         69.1171
450.36          69.434
450.80        69.55266
451.25        69.49991
451.69         69.4105
452.13        69.32526
452.58        69.17693
453.02        69.01437
453.47        68.98713
453.91        69.09123
454.36        69.28995
454.80        69.51344
455.24        69.52139
455.69         69.2845
456.13        69.09084
456.58         69.0148
457.02        68.47025
457.46        67.90652
457.91        68.28699
458.35         69.3681
458.79         69.7754
459.24        69.44361
459.68         69.0347
460.13        68.66949
460.57        68.29807
461.01        68.04218
461.46        67.40588
461.90        67.23827
462.34         67.3293
462.79         67.2054
463.23         67.5988
463.68        68.14158
464.12        68.49675
464.56        68.55884
465.01        68.45216
465.45        68.16496
465.89        68.00282
466.34        67.84811
466.78        67.01022
467.22        65.97767
467.67        65.24538
468.11        66.50859
468.55        67.27959
468.99        67.69623
469.44        67.55968
469.88        67.04758
470.32        67.05633
470.77         67.5097
471.21        67.50113
471.65        66.99702
472.10        66.65434
472.54         66.5698
472.98         66.5585
473.42        66.61757
473.87        66.98412
474.31        67.44501
474.75        67.30015
475.20         66.7098
475.64         66.5923
476.08         66.9349
476.52        66.98212
476.97        66.74055
477.41        66.65987
477.85        66.70089
478.29        66.78448
478.74        66.88879
479.18        66.61156
479.62        66.07114
480.06        66.62646
480.50        66.90765
480.95        67.15344
481.39        66.93298
481.83        66.56158
482.27         66.5567
482.72         66.2701
483.16        65.25863
483.60        65.57009
484.04        67.00343
484.48        67.40211
484.93        67.21208
485.37        68.52023
485.81        69.03283
486.25        67.51062
486.69        90.65456
487.14        73.44654
487.58        46.09728
488.02        56.74377
488.46        64.78554
488.90        64.32639
489.34        66.13322
489.79        65.08923
490.23        67.26979
490.67        68.06916
491.11        67.15561
491.55        67.05981
491.99        67.41203
492.43        67.23324
492.88        66.61353
493.32        66.68766
493.76        66.90707
494.20         67.1792
494.64         67.2421
495.08        67.36217
495.52        67.55017
495.96        67.36626
496.41        66.88023
496.85        67.21859
497.29        68.10822
497.73        67.18066
498.17        65.32021
498.61        65.46786
499.05        67.66117
499.49        68.19518
499.93        68.48083
500.37        68.24609
500.82        67.45425
501.26        67.47034
501.70        68.05389
502.14        68.35912
502.58        68.21888
503.02        68.08487
503.46        67.95312
503.90        67.56239
504.34        67.08549
504.78        66.91573
505.22        67.10851
505.66        67.56027
506.10        68.10072
506.54        68.34986
506.98        68.20033
507.42        67.92501
507.86        67.73534
508.30        67.09781
508.74        67.44644
509.18        67.60429
509.62        67.85394
510.06        67.96562
510.50        67.89923
510.94         67.7171
511.38        67.50977
511.82        67.44569
512.26        67.56127
512.70        67.79717
513.14        68.07472
513.58        68.27195
514.02        68.34317
514.46        68.31873
514.90        68.24805
515.34        68.19193
515.78        68.16142
516.22        68.20535
516.66        68.28836
517.10        68.17341
517.54        67.85126
517.98        68.00934
518.42        67.78052
518.86        67.90777
519.30        68.11855
519.74        68.44989
520.18        68.80124
520.62         69.0024
521.06        69.02293
521.50        68.91222
521.93        68.72604
522.37         68.5579
522.81        68.45193
523.25        68.38208
523.69        68.37063
524.13        68.45119
524.57        68.61758
525.01        68.86154
525.45        69.11316
525.89        69.25459
526.32        69.24905
526.76         69.1222
527.20        68.93774
527.64        68.82008
528.08        68.81676
528.52        68.83833
528.96        68.80582
529.40        68.78931
529.83        68.80914
530.27        68.15546
530.71        68.25105
531.15        68.12648
531.59         68.2075
532.03        68.41058
532.46        68.69995
532.90        68.98437
533.34        69.20783
533.78        69.39223
534.22        69.50309
534.66        69.49849
535.09        69.37018
535.53        69.15417
535.97        68.89979
536.41        68.71043
536.85        68.61958
537.28        68.61117
537.72        68.64442
538.16        68.66011
538.60        68.64073
539.04        68.55106
539.47        68.42346
539.91         68.4902
540.35        68.68318
540.79        68.69501
541.22        68.53088
541.66        68.47928
542.10        68.54215
542.54        68.54675
542.97        68.51135
543.41        68.58189
543.85        68.74874
544.29        68.96748
544.72        69.14712
545.16        69.20537
545.60        69.05831
546.04        68.79093
546.47         68.1666
546.91        68.05173
547.35        68.36883
547.79        68.89329
548.22        69.36961
548.66        69.53028
549.10        69.27436
549.53         68.5786
549.97        67.76404
550.41        67.37319
550.84        67.50316
551.28        67.97342
551.72        68.58778
552.15        68.93385
552.59        68.88383
553.03        68.99197
553.46        68.57694
553.90         68.4755
554.34        68.50833
554.77        68.55498
555.21        68.55021
555.65        68.62717
556.08         68.8115
556.52          68.244
556.96        68.55206
557.39        68.44787
557.83        68.44912
558.27        68.54112
558.70         68.7167
559.14         68.8968
559.57        69.03117
560.01        69.16451
560.45        69.25327
560.88        69.24256
561.32        69.14977
561.75        68.91718
562.19        68.64919
562.63        68.42653
563.06         68.3087
563.50        68.36804
563.93        68.53616
564.37        68.74632
564.80        68.87902
565.24        68.76388
565.68        68.46548
566.11        68.33681
566.55        68.45404
566.98        68.52805
567.42        68.56537
567.85        68.82617
568.29        69.24742
568.72        69.22225
569.16        68.97793
569.60        69.22078
570.03        69.64509
570.47        69.58158
570.90        69.29154
571.34        67.42552
571.77        68.39923
572.21        68.08077
572.64        67.79101
573.08        66.95156
573.51        64.27148
573.95        66.72889
574.38        70.60654
574.82        68.83674
