SpectraSmart Spectrum 2.9.0.0
--------- Device Information -----------
Spectrum Name :  反射率_0
Saving Time :  2024/04/26 01:49:20
Spectro-Module Model Name : SE2030-DUVN
Spectro-Module Serial Number : OS361AC55029948
Wavelength Start : 200
Wavelength End : 1025
Wavelength Unit : Wavelength(nm)
Spectrum Unit : Reflectance(%)
-----------Spectrum Setting ------------
Integration Time : 20ms
Average : 10
Boxcar : 0
Background removal :  enabled
linearity correction :  enabled
SC :  disabled
Intensity correction :  disabled
DWT denoise :  enabled
savitzky-golay :  disabled
FFT :  disabled
Running average :  disabled
Kalman :  disabled
High pass :  disabled
---------------BEGIN--------------------
Wavelength(nm)             Reflectance(%)
200.29               0
200.75        85.39934
201.21        83.41554
201.67        80.38905
202.13        78.53822
202.58        78.21381
203.04        79.26959
203.50        80.26691
203.96        79.02488
204.42        75.66767
204.88        71.40623
205.34        68.06921
205.80        67.47484
206.26        70.33871
206.72        78.69426
207.18        96.31194
207.64        113.2018
208.10        105.2558
208.55        85.48949
209.01        72.40506
209.47        67.68236
209.93          67.831
210.39        71.01579
210.85          74.926
211.31        74.95811
211.77        69.89825
212.23        61.60822
212.69        54.15645
213.14        53.78736
213.60        61.21178
214.06        74.35679
214.52        88.34596
214.98        95.81822
215.44        95.00893
215.90        88.47491
216.36        79.63029
216.81        73.19958
217.27        70.77786
217.73        70.90178
218.19        71.48805
218.65         69.7687
219.11         64.6764
219.57        55.65916
220.02        44.44777
220.48        39.58325
220.94        45.01839
221.40         57.6954
221.86        68.21507
222.32        67.32829
222.77        56.82108
223.23        42.55202
223.69        30.32843
224.15        25.94401
224.61         28.7589
225.06        35.77625
225.52        43.26443
225.98        46.57419
226.44        44.82093
226.90        40.05331
227.36         34.5204
227.81        31.18217
228.27        31.02395
228.73        32.75385
229.19        35.48671
229.65        37.96512
230.10        39.67414
230.56        40.99914
231.02        42.03669
231.48        42.84652
231.93         43.4914
232.39        43.90974
232.85        44.19109
233.31        44.55901
233.77        45.05307
234.22         45.6616
234.68        46.24649
235.14        46.43193
235.60         46.1676
236.05        45.65092
236.51        45.19049
236.97        45.19743
237.43        45.85902
237.88        47.24203
238.34        49.38262
238.80        52.17603
239.26         55.2458
239.71        58.51018
240.17        61.33891
240.63        63.38208
241.08        64.66364
241.54        65.11308
242.00        65.22234
242.46        65.82042
242.91        67.70724
243.37        72.11575
243.83        86.04087
244.28        133.4301
244.74        190.8284
245.20        163.7423
245.66        136.6765
246.11        129.0136
246.57        132.8419
247.03        152.0605
247.48         207.177
247.94        166.9325
248.40        104.9533
248.85        87.34053
249.31        83.18489
249.77        84.57732
250.22        89.70588
250.68        99.30004
251.14        113.1668
251.59        122.3932
252.05        118.0644
252.51        104.3501
252.96        89.62232
253.42        81.83849
253.88        80.57571
254.33        82.97748
254.79        88.24258
255.25        94.55243
255.70        100.3181
256.16        105.8238
256.62         109.437
257.07        109.4663
257.53        106.8915
257.99         102.183
258.44         96.9464
258.90        94.19006
259.35        93.03282
259.81        92.72546
260.27        91.53667
260.72        87.76888
261.18        82.31913
261.63        75.87218
262.09        70.05046
262.55        65.93694
263.00        63.42986
263.46        62.07079
263.91        60.94877
264.37        59.49114
264.83        57.42984
265.28        54.88876
265.74        52.31234
266.19        50.10348
266.65        48.59849
267.11        47.58572
267.56         46.7238
268.02        45.60323
268.47        44.06602
268.93        42.25115
269.38        40.40091
269.84        39.16452
270.30        38.69561
270.75        38.79787
271.21        39.05468
271.66        38.83968
272.12        38.00414
272.57        36.74879
273.03        35.43042
273.48        34.49605
273.94        34.08665
274.39        33.99454
274.85        34.01266
275.31        33.82312
275.76        33.33052
276.22         32.6749
276.67        31.95388
277.13        31.40773
277.58        31.02851
278.04        30.77337
278.49        30.48767
278.95        30.03622
279.40        29.36717
279.86        28.60693
280.31         27.8324
280.77        27.27642
281.22        26.93658
281.68        26.76712
282.13        26.67062
282.59        26.55364
283.04        26.37583
283.50        26.21011
283.95        26.03296
284.41        25.83332
284.86        25.61357
285.32        25.38714
285.77        25.24092
286.22        25.37493
286.68        25.77874
287.13        26.34801
287.59        26.88548
288.04        27.08307
288.50        26.91378
288.95        26.46347
289.41         25.9312
289.86        25.50388
290.32        25.30774
290.77        25.27967
291.22        25.42452
291.68        25.70435
292.13        26.11129
292.59        26.67802
293.04        27.41164
293.50        28.31373
293.95        29.35513
294.40         30.4898
294.86        31.67273
295.31        32.85592
295.77        34.03288
296.22        35.21596
296.68        36.40211
297.13        37.55482
297.58        38.68861
298.04        39.83224
298.49        41.05424
298.95        42.51608
299.40        44.23356
299.85        46.15746
300.31        48.17298
300.76        50.08579
301.21        51.80992
301.67        53.42263
302.12        54.91432
302.58        56.39065
303.03        57.85775
303.48         59.3185
303.94         60.8699
304.39        62.59653
304.84        64.51091
305.30        66.56947
305.75        68.58546
306.20        70.30078
306.66        71.68469
307.11        72.77074
307.57         73.7408
308.02        74.74039
308.47        75.88124
308.93        77.12143
309.38        78.41428
309.83        79.74318
310.29         81.0678
310.74         82.3527
311.19        83.56418
311.65        84.64342
312.10        85.57076
312.55        86.38509
313.00        87.05808
313.46        87.56128
313.91        87.89662
314.36         88.0906
314.82        88.31945
315.27        88.79689
315.72        89.59412
316.18        90.65263
316.63        91.77337
317.08        92.57894
317.53        92.96339
317.99        93.00356
318.44        92.95648
318.89        93.25127
319.35         93.9614
319.80         94.9969
320.25        96.00655
320.70        96.40723
321.16        96.08527
321.61        95.24597
322.06        94.32356
322.51         93.9935
322.97        94.38612
323.42        95.32657
323.87        96.44753
324.32        97.11538
324.78        97.13152
325.23        96.74306
325.68        96.17997
326.13        95.84755
326.59         95.8597
327.04        96.10676
327.49        96.52518
327.94        97.05255
328.39        97.63032
328.85        98.27186
329.30        98.91457
329.75        99.25941
330.20        99.27193
330.66        99.01517
331.11        98.76769
331.56        98.91225
332.01        99.56597
332.46          100.61
332.92        101.8541
333.37        103.1345
333.82        104.2398
334.27        105.2174
334.72        105.9634
335.17        106.3291
335.63        106.3149
336.08         105.999
336.53        105.6013
336.98        105.5391
337.43        105.9217
337.88        106.6469
338.34        107.5375
338.79        108.3785
339.24        109.0334
339.69        109.5893
340.14        110.0025
340.59        110.2007
341.05          110.21
341.50        110.0302
341.95        109.8463
342.40        109.9673
342.85        110.4498
343.30        111.2115
343.75        112.0497
344.20        112.5933
344.66        112.7481
345.11        112.6104
345.56        112.3272
346.01        112.1247
346.46        112.0807
346.91        112.1232
347.36        112.2319
347.81        112.3817
348.26        112.5548
348.72        112.7877
349.17        113.0135
349.62        113.1605
350.07        113.2076
350.52        113.1586
350.97        113.0682
351.42        113.0332
351.87        113.0679
352.32         113.138
352.77        113.1714
353.22         113.056
353.67        112.7696
354.13        112.3673
354.58        111.8898
355.03        111.4621
355.48        111.1108
355.93        110.7946
356.38        110.4654
356.83         110.046
357.28         109.515
357.73        108.9083
358.18        108.2412
358.63        107.5343
359.08        106.8089
359.53        106.0664
359.98        105.3373
360.43        104.6693
360.88        104.0607
361.33        103.4873
361.78        102.9195
362.23        102.3084
362.68        101.6476
363.13        100.9724
363.58        100.2676
364.03         99.5047
364.48        98.69238
364.93        97.83295
365.38        97.02478
365.83         96.4319
366.28        96.06281
366.73        95.84361
367.18        95.62015
367.63        95.13982
368.08        94.36048
368.53        93.40614
368.98        92.37418
369.43        91.40441
369.88        90.55557
370.33        89.77126
370.78        89.14967
371.23        88.85528
371.68        88.88766
372.13        89.19935
372.58        89.52493
373.03        89.41112
373.48        88.76183
373.93        87.71702
374.38        86.57174
374.83        85.78489
375.28        85.46317
375.72        85.45113
376.17        85.57287
376.62        85.51447
377.07        85.17046
377.52        84.63132
377.97        83.98434
378.42        83.36432
378.87        82.82783
379.32        82.34438
379.77         81.8605
380.22        81.29854
380.67         80.6427
381.11         79.9241
381.56        79.24316
382.01        78.76365
382.46        78.52759
382.91        78.50024
383.36        78.51849
383.81        78.32417
384.26        77.86642
384.71        77.21273
385.15        76.54929
385.60        76.22841
386.05        76.25479
386.50        76.50323
386.95        76.72763
387.40         76.5247
387.85        75.85346
388.29         74.8864
388.74        73.95827
389.19        73.24617
389.64        72.78931
390.09        72.47234
390.54         72.3295
390.98        72.42049
391.43        72.70448
391.88        73.13321
392.33        73.46313
392.78        73.27921
393.23        72.57195
393.67        71.62193
394.12        70.78423
394.57        70.02741
395.02        69.57996
395.47        70.02349
395.91         71.1556
396.36        71.84103
396.81        71.89221
397.26        71.81728
397.71        71.67635
398.15        71.28224
398.60        70.76924
399.05        70.26947
399.50        69.81281
399.95        69.07777
400.39        68.47439
400.84        68.17532
401.29        68.24639
401.74        68.29144
402.18        68.28632
402.63        68.39686
403.08        68.63769
403.53        68.90526
403.97        69.17127
404.42        69.43424
404.87        69.56693
405.32        69.35896
405.76        68.79101
406.21        68.01794
406.66        67.26051
407.11        66.80534
407.55        66.75735
408.00        67.09131
408.45        67.62402
408.90         67.9151
409.34        67.79769
409.79        67.33557
410.24        66.73698
410.68        66.38897
411.13        66.37519
411.58        66.49021
412.03        66.70731
412.47        67.04929
412.92        67.42155
413.37        67.84405
413.81        68.16728
414.26        68.20261
414.71         67.9134
415.15        67.34886
415.60        66.71182
416.05        66.35654
416.49         66.3757
416.94        66.68896
417.39         67.0786
417.83        67.14911
418.28         66.8259
418.73        66.25602
419.17        65.68654
419.62        65.50848
420.07        65.75864
420.51        66.28617
420.96        66.88891
421.41        67.13703
421.85        66.89639
422.30         66.6791
422.74        66.47393
423.19        65.74889
423.64        64.81823
424.08        65.10211
424.53        66.41435
424.98        67.10009
425.42        66.98227
425.87        67.14336
426.31        67.58144
426.76         67.4747
427.21        67.02103
427.65        67.15439
428.10        67.83926
428.54        68.47483
428.99        69.02023
429.44        69.39681
429.88        69.53548
430.33        70.18089
430.77        70.78419
431.22         69.4941
431.66        66.93069
432.11         65.7422
432.56        66.12564
433.00        66.91531
433.45        68.04934
433.89        69.74573
434.34        70.53682
434.78        72.64482
435.23        69.07358
435.67        66.22192
436.12        68.55628
436.57        69.64719
437.01        70.83874
437.46        71.21893
437.90        70.89667
438.35        70.79707
438.79        70.93449
439.24        70.89423
439.68        70.71159
440.13        70.36072
440.57        70.14905
441.02        71.03454
441.46        72.59688
441.91        73.38749
442.35        73.16091
442.80        72.13811
443.24        70.82446
443.69        71.31052
444.13        73.16801
444.58         73.4155
445.02        71.60966
445.47        71.35661
445.91        72.44836
446.36        72.80093
446.80        72.32471
447.24        72.30659
447.69         72.8449
448.13        72.42294
448.58        73.01095
449.02        73.09146
449.47        73.24258
449.91        73.41824
450.36        73.62435
450.80        73.81392
451.25        73.93082
451.69        73.90624
452.13        73.75436
452.58        73.52306
453.02        73.29103
453.47        73.22032
453.91        73.31633
454.36        73.52074
454.80        73.77522
455.24        73.85796
455.69        73.72952
456.13        73.68497
456.58        73.72121
457.02        73.13985
457.46        72.28685
457.91        72.45752
458.35        73.40241
458.79        73.74417
459.24        73.45638
459.68        73.09619
460.13        72.69783
460.57        72.87632
461.01        72.51202
461.46        71.94731
461.90        71.68491
462.34        72.17381
462.79        71.94524
463.23        72.26144
463.68        72.54978
464.12        72.97375
464.56        73.36973
465.01        73.30808
465.45        72.78166
465.89        72.58847
466.34        72.57245
466.78        71.47784
467.22        69.97359
467.67        69.32264
468.11        71.34014
468.55        72.27337
468.99         72.2751
469.44        71.93295
469.88        71.45578
470.32         71.3267
470.77        71.52341
471.21        71.41587
471.65        71.00096
472.10        70.87952
472.54        71.04539
472.98        71.15076
473.42        71.15779
473.87        71.30441
474.31        71.48373
474.75        71.30353
475.20        70.89283
475.64        70.79623
476.08        71.00352
476.52        71.04674
476.97        70.92101
477.41        70.88534
477.85        70.95359
478.29        71.09486
478.74         71.4221
479.18        71.39226
479.62        70.39486
480.06        70.88652
480.50        71.16808
480.95        71.46927
481.39         71.3822
481.83         70.5245
482.27        70.78227
482.72        70.61482
483.16        69.53582
483.60        69.82352
484.04        71.18353
484.48        71.61938
484.93         71.5611
485.37        73.01109
485.81        73.08546
486.25        71.86228
486.69        97.09206
487.14        78.71306
487.58        49.12941
488.02        60.86554
488.46        68.97906
488.90        68.76245
489.34        70.15044
489.79        69.25673
490.23        71.63697
490.67         72.3056
491.11        70.86625
491.55        70.68215
491.99        71.34062
492.43        71.22169
492.88        70.40476
493.32        70.39809
493.76        70.68333
494.20        71.00873
494.64        71.10384
495.08        71.24001
495.52        71.45125
495.96        71.33646
496.41        70.94101
496.85        71.41549
497.29        72.40741
497.73        71.24644
498.17        68.97492
498.61        69.02122
499.05        71.46085
499.49        72.23466
499.93        72.71185
500.37        72.45399
500.82        71.46958
501.26        71.20679
501.70         71.9465
502.14        72.22417
502.58        72.01453
503.02        71.84692
503.46        71.72002
503.90        71.35223
504.34        70.89068
504.78        70.68661
505.22        70.77908
505.66        71.11379
506.10        71.55829
506.54        71.69169
506.98        71.40107
507.42        71.35436
507.86        71.05447
508.30        70.49151
508.74        70.90373
509.18        71.12164
509.62        71.42046
510.06        71.56187
510.50        71.50959
510.94         71.3151
511.38        71.08613
511.82        71.02297
512.26        71.16462
512.70        71.44025
513.14        71.74751
513.58         71.9231
514.02        71.91782
514.46        71.78822
514.90        71.60313
515.34        71.45341
515.78        71.36264
516.22        71.35754
516.66        71.42598
517.10        71.38595
517.54        71.22346
517.98         71.5408
518.42        71.49248
518.86        71.62868
519.30        71.69257
519.74        71.75392
520.18        71.81114
520.62        71.85606
521.06        71.89851
521.50        71.93945
521.93        71.96659
522.37        71.95672
522.81         71.9153
523.25        71.85415
523.69        71.81632
524.13        71.86729
524.57        72.01433
525.01        72.22974
525.45        72.45732
525.89        72.60772
526.32        72.64579
526.76        72.59467
527.20        72.48271
527.64        72.37463
528.08        72.31047
528.52        72.21854
528.96        72.06506
529.40        72.00045
529.83        72.06261
530.27        71.48125
530.71        71.70541
531.15        71.65434
531.59        71.75562
532.03        71.93796
532.46        72.18874
532.90         72.4524
533.34        72.68319
533.78        72.89326
534.22        73.02358
534.66        72.99678
535.09        72.80122
535.53        72.48933
535.97        72.14756
536.41        71.93704
536.85        71.90071
537.28        72.00106
537.72        72.15408
538.16        72.23114
538.60        72.19791
539.04         72.0416
539.47        71.82444
539.91        71.83286
540.35         72.0075
540.79        72.00917
541.22        71.84068
541.66        71.79787
542.10         71.8725
542.54        71.89615
542.97        71.86817
543.41        71.87212
543.85        71.91535
544.29        72.04973
544.72         72.1817
545.16        72.15181
545.60        71.93638
546.04        71.59037
546.47        71.28837
546.91         71.3149
547.35        71.69332
547.79        72.34514
548.22        72.97635
548.66        73.10915
549.10        72.67842
549.53        71.90419
549.97        71.11736
550.41        70.70009
550.84        70.74779
551.28         71.2001
551.72        71.87053
552.15        72.23604
552.59        72.15347
553.03        72.46332
553.46        71.99809
553.90        71.93482
554.34        71.95711
554.77        71.89314
555.21        71.74147
555.65        71.88232
556.08        72.29642
556.52        71.78665
556.96        72.03297
557.39        71.79927
557.83        71.67408
558.27        71.70053
558.70        71.89676
559.14        72.12566
559.57        72.33353
560.01        72.62493
560.45        72.89858
560.88         72.9577
561.32        72.78977
561.75        72.40482
562.19        71.96133
562.63        71.52351
563.06        71.23383
563.50        71.40094
563.93        71.88306
564.37        72.23176
564.80        72.30999
565.24        72.23013
565.68         72.0496
566.11         71.9279
566.55        71.93947
566.98        71.93306
567.42        71.92275
567.85        72.03057
568.29         72.2802
568.72        72.34336
569.16        72.37333
569.60        72.82047
570.03        73.25278
570.47        73.12411
570.90         72.7526
571.34        71.01618
571.77        72.12682
572.21        72.04305
572.64         71.6774
573.08        70.64577
573.51        67.64836
573.95        70.19962
574.38        74.46383
574.82        72.54382
