SpectraSmart Spectrum 2.9.0.0
--------- Device Information -----------
Spectrum Name :  反射率_0
Saving Time :  2024/04/26 01:59:27
Spectro-Module Model Name : SE2030-DUVN
Spectro-Module Serial Number : OS361AC55029948
Wavelength Start : 200
Wavelength End : 1025
Wavelength Unit : Wavelength(nm)
Spectrum Unit : Reflectance(%)
-----------Spectrum Setting ------------
Integration Time : 20ms
Average : 10
Boxcar : 0
Background removal :  enabled
linearity correction :  enabled
SC :  disabled
Intensity correction :  disabled
DWT denoise :  enabled
savitzky-golay :  disabled
FFT :  disabled
Running average :  disabled
Kalman :  disabled
High pass :  disabled
---------------BEGIN--------------------
Wavelength(nm)             Reflectance(%)
200.29               0
200.75        93.75806
201.21         81.0641
201.67        67.14721
202.13        59.64512
202.58        59.35509
203.04        64.21906
203.50        71.43028
203.96        75.91993
204.42        76.20172
204.88        74.30562
205.34        72.00214
205.80        70.92425
206.26        71.64781
206.72        74.55914
207.18        81.01929
207.64         87.9751
208.10         86.1294
208.55        78.98199
209.01        74.52002
209.47        74.22146
209.93        76.59389
210.39        81.00661
210.85        84.70361
211.31        81.85503
211.77        71.43513
212.23         56.2193
212.69        41.72624
213.14        36.29707
213.60        41.32337
214.06        54.47243
214.52        70.97668
214.98         83.1751
215.44        88.44705
215.90        88.80963
216.36        85.86407
216.81        81.78497
217.27        78.07044
217.73        74.28999
218.19        70.18268
218.65        65.20165
219.11         58.6581
219.57        49.59724
220.02        39.13896
220.48         33.9006
220.94        37.20686
221.40        47.48355
221.86        56.82898
222.32        57.11133
222.77        49.61238
223.23        38.91645
223.69        30.17181
224.15        28.74055
224.61        33.88578
225.06        42.77505
225.52        51.57092
225.98        55.31615
226.44        53.13756
226.90        47.28654
227.36        40.22039
227.81        35.19625
228.27        33.40696
228.73        33.60192
229.19        35.22321
229.65         37.4575
230.10        39.68125
230.56        41.92367
231.02        43.85003
231.48         45.0206
231.93        45.44755
232.39        45.29346
232.85        44.68363
233.31        43.89644
233.77        43.05292
234.22        42.08136
234.68         41.2255
235.14        40.87798
235.60        41.16998
236.05        42.08452
236.51        43.24362
236.97         44.0504
237.43        44.41638
237.88         44.4892
238.34        44.63031
238.80        45.86588
239.26        48.52466
239.71        52.32881
240.17        56.20693
240.63        58.83578
241.08        59.92722
241.54        59.81869
242.00        59.30003
242.46        59.56014
242.91          61.523
243.37        66.36491
243.83        82.11275
244.28        137.6947
244.74        208.9212
245.20        180.1619
245.66        147.9771
246.11        136.9025
246.57        136.7186
247.03        145.8411
247.48        166.0167
247.94        115.5766
248.40        83.74828
248.85        78.85964
249.31         79.6165
249.77        82.33406
250.22        86.86726
250.68        94.36319
251.14        104.6949
251.59         110.995
252.05        106.7503
252.51        95.38241
252.96        83.21544
253.42        76.29655
253.88        74.19118
254.33        74.72626
254.79        78.09319
255.25        83.78242
255.70        90.20659
256.16        96.87034
256.62        101.2697
257.07        100.8957
257.53        96.89944
257.99        90.35622
258.44        83.61871
258.90        80.41628
259.35        79.80747
259.81        80.42871
260.27        80.13309
260.72        76.86117
261.18        71.47808
261.63        64.93697
262.09        58.96143
262.55        54.80706
263.00        52.42772
263.46        51.26543
263.91        50.40709
264.37        49.20405
264.83        47.42133
265.28        45.20308
265.74        43.02435
266.19        41.34645
266.65         40.4138
267.11        39.94223
267.56        39.52581
268.02        38.67367
268.47        37.25861
268.93        35.46006
269.38        33.54149
269.84        32.18878
270.30        31.59028
270.75        31.55805
271.21        31.73861
271.66        31.60032
272.12        30.99135
272.57        30.07317
273.03        29.10901
273.48        28.40991
273.94        28.07701
274.39        27.95466
274.85        27.86552
275.31        27.54921
275.76        26.94768
276.22        26.18994
276.67         25.4187
277.13        24.92321
277.58        24.70194
278.04        24.67889
278.49        24.65803
278.95        24.42349
279.40        23.91405
279.86        23.27006
280.31        22.58447
280.77        22.10425
281.22        21.83799
281.68        21.72055
282.13        21.67491
282.59        21.62578
283.04        21.53936
283.50        21.48307
283.95        21.40441
284.41        21.23524
284.86        20.97863
285.32        20.66811
285.77        20.44468
286.22        20.58373
286.68        21.08291
287.13        21.80761
287.59        22.51207
288.04        22.82349
288.50        22.69485
288.95        22.24284
289.41        21.67323
289.86        21.19287
290.32        20.93307
290.77        20.81949
291.22        20.88251
291.68        21.12721
292.13        21.54657
292.59        22.15871
293.04        22.90723
293.50        23.68946
293.95        24.46365
294.40        25.22203
294.86        26.00497
295.31         26.8959
295.77        27.92161
296.22        29.06535
296.68        30.25896
297.13        31.35771
297.58        32.35021
298.04        33.29694
298.49        34.33248
298.95        35.71461
299.40        37.47415
299.85        39.51815
300.31        41.65549
300.76        43.57756
301.21         45.1777
301.67        46.58026
302.12        47.84624
302.58        49.16991
303.03        50.58587
303.48        52.05846
303.94        53.66626
304.39        55.47099
304.84        57.47226
305.30        59.64552
305.75        61.77755
306.20        63.56102
306.66        64.95914
307.11        66.01318
307.57        66.97609
308.02        68.11515
308.47        69.55196
308.93        71.21119
309.38         72.9297
309.83        74.49939
310.29        75.84765
310.74        77.00414
311.19        78.07923
311.65         79.2408
312.10        80.51241
312.55        81.84738
313.00         83.0788
313.46        83.94821
313.91        84.38857
314.36        84.50228
314.82        84.54934
315.27        84.87378
315.72        85.59415
316.18        86.61765
316.63        87.74167
317.08        88.58361
317.53        89.03549
317.99        89.19449
318.44        89.30104
318.89        89.74913
319.35        90.60032
319.80        91.75088
320.25        92.87511
320.70        93.43881
321.16         93.3251
321.61        92.71889
322.06        91.97794
322.51        91.66192
322.97        91.89262
323.42        92.54159
323.87        93.35353
324.32        93.88647
324.78        93.99536
325.23        93.86514
325.68        93.63935
326.13        93.57615
326.59        93.73468
327.04        94.04411
327.49        94.44694
327.94        94.89356
328.39        95.34386
328.85         95.8035
329.30        96.25867
329.75        96.50573
330.20        96.53828
330.66        96.40902
331.11          96.343
331.56        96.62669
332.01        97.34901
332.46        98.41061
332.92        99.65974
333.37        101.0017
333.82        102.2408
334.27        103.3884
334.72        104.2909
335.17        104.7221
335.63        104.6638
336.08        104.2326
336.53        103.6818
336.98        103.4763
337.43        103.7531
337.88        104.4022
338.34        105.2773
338.79        106.2124
339.24        107.0689
339.69         107.911
340.14        108.6276
340.59        109.0231
341.05        109.0846
341.50        108.8496
341.95         108.541
342.40        108.5275
342.85        108.8975
343.30         109.559
343.75        110.3496
344.20        110.9654
344.66        111.3121
345.11        111.4534
345.56        111.4675
346.01        111.4738
346.46        111.5213
346.91        111.5686
347.36        111.6096
347.81        111.6474
348.26        111.6875
348.72        111.7625
349.17        111.8562
349.62        111.9793
350.07        112.1246
350.52        112.2759
350.97        112.4163
351.42        112.5285
351.87        112.5985
352.32        112.6196
352.77        112.5755
353.22        112.4447
353.67        112.2299
354.13        111.9609
354.58        111.6276
355.03        111.2777
355.48        110.9204
355.93         110.537
356.38        110.1427
356.83        109.7584
357.28        109.3782
357.73        109.0043
358.18        108.5657
358.63        107.9476
359.08        107.1495
359.53        106.2253
359.98        105.3018
360.43        104.5742
360.88        104.0764
361.33         103.733
361.78        103.4469
362.23        103.0593
362.68        102.5241
363.13        101.9052
363.58        101.2085
364.03        100.4391
364.48        99.61834
364.93        98.73279
365.38        97.88002
365.83         97.2272
366.28        96.78808
366.73        96.50161
367.18        96.21597
367.63        95.67812
368.08        94.84547
368.53        93.83513
368.98        92.76165
369.43        91.78859
369.88        90.97745
370.33         90.2757
370.78        89.72579
371.23        89.40189
371.68        89.28864
372.13         89.3541
372.58        89.45042
373.03        89.32228
373.48        88.90778
373.93        88.28401
374.38         87.5662
374.83        86.93826
375.28        86.45656
375.72        86.05402
376.17        85.73832
376.62        85.49693
377.07        85.30097
377.52        85.14186
377.97        84.95237
378.42        84.61861
378.87        84.12975
379.32        83.54321
379.77        82.89892
380.22        82.25301
380.67        81.62296
381.11        80.98127
381.56        80.39647
382.01        79.98741
382.46         79.7775
382.91        79.76186
383.36        79.75937
383.81        79.47719
384.26        78.87044
384.71        78.01614
385.15        77.17162
385.60        76.79478
386.05        76.90568
386.50        77.35387
386.95        77.80139
387.40        77.68394
387.85        76.92744
388.29        75.76141
388.74         74.6313
389.19        73.85368
389.64        73.48707
390.09         73.3709
390.54        73.45202
390.98        73.64303
391.43        73.86541
391.88         74.1226
392.33        74.26227
392.78        73.99539
393.23        73.33322
393.67        72.52083
394.12        71.83762
394.57        71.11341
395.02        70.57581
395.47        70.92162
395.91        71.98564
396.36        72.62264
396.81        72.66131
397.26        72.62923
397.71        72.56645
398.15        72.21652
398.60        71.69831
399.05        71.21966
399.50        70.79848
399.95        69.96345
400.39        69.19343
400.84          68.953
401.29        69.26021
401.74        69.36021
402.18        69.19885
402.63        69.14758
403.08        69.28461
403.53        69.51612
403.97         69.8297
404.42        70.21479
404.87        70.50723
405.32        70.41327
405.76        69.88309
406.21        69.14457
406.66        68.41904
407.11        67.87036
407.55        67.66922
408.00        68.07945
408.45        68.87748
408.90        69.24822
409.34        69.00021
409.79        68.44532
410.24        67.82725
410.68        67.46642
411.13        67.45702
411.58        67.58702
412.03        67.87137
412.47        68.20024
412.92        68.49032
413.37        68.78499
413.81         68.9837
414.26        68.97297
414.71        68.72663
415.15        68.26178
415.60         67.7409
416.05        67.45425
416.49        67.47632
416.94        67.75319
417.39        68.07134
417.83        68.04636
418.28         67.6172
418.73        66.92235
419.17        66.26096
419.62        66.10329
420.07        66.49814
420.51        67.27894
420.96        68.14337
421.41        68.52563
421.85        68.26259
422.30        67.80846
422.74        67.29992
423.19        66.64759
423.64        66.08818
424.08        66.46266
424.53        67.56007
424.98        68.19423
425.42        68.20177
425.87        68.32957
426.31        68.62438
426.76        68.56208
427.21        68.33579
427.65        68.66427
428.10        69.44614
428.54        70.15726
428.99        70.74429
429.44        70.98314
429.88        70.93245
430.33        71.72593
430.77        72.73452
431.22        71.70354
431.66         69.1858
432.11        67.93856
432.56        68.20811
433.00        68.88203
433.45         69.8789
433.89         71.5732
434.34        72.55401
434.78         74.3777
435.23        70.31686
435.67        68.46381
436.12         70.8881
436.57        71.87611
437.01        72.05022
437.46        72.82024
437.90        72.78852
438.35        71.98297
438.79        72.88961
439.24        72.80215
439.68        72.61572
440.13        72.29044
440.57        72.17799
441.02        73.06982
441.46        74.59212
441.91        75.61133
442.35        75.76374
442.80        74.95506
443.24        73.65851
443.69        74.00139
444.13        75.63358
444.58        75.84574
445.02          74.114
445.47        73.91756
445.91        74.96377
446.36        75.33589
446.80        74.96044
447.24        74.82709
447.69         75.0179
448.13        75.25008
448.58        75.53422
449.02        75.87972
449.47        76.23866
449.91        76.55228
450.36        76.79586
450.80        76.96678
451.25        77.03998
451.69         76.9468
452.13        76.71715
452.58        76.38423
453.02        76.07185
453.47        76.01495
453.91        76.22536
454.36        76.64183
454.80        77.11655
455.24         77.2158
455.69        76.85159
456.13        76.49117
456.58         76.3466
457.02        75.38727
457.46         74.9282
457.91        75.62376
458.35        76.34004
458.79        76.80331
459.24        76.61577
459.68        76.30598
460.13        75.92383
460.57        75.61666
461.01         75.5558
461.46        74.67045
461.90        74.17141
462.34        74.96587
462.79        74.26763
463.23        74.64726
463.68        75.07008
464.12        75.42571
464.56        75.57475
465.01         75.6132
465.45        75.43152
465.89         75.1283
466.34        74.70874
466.78        73.73032
467.22        72.66676
467.67        72.46668
468.11        73.59329
468.55        74.37938
468.99        74.62088
469.44        74.32212
469.88        73.69595
470.32        73.60753
470.77        74.00273
471.21        73.97573
471.65        73.49239
472.10        73.23233
472.54        73.26584
472.98        73.31595
473.42         73.3545
473.87        73.72021
474.31        74.19227
474.75        73.86813
475.20        72.98308
475.64         72.9558
476.08         73.7445
476.52        73.83275
476.97        73.09232
477.41        73.59153
477.85        73.50867
478.29        73.24429
478.74        73.66965
479.18         74.3279
479.62        72.83755
480.06        73.48151
480.50        73.85673
480.95        74.24342
481.39        74.17139
481.83        73.14104
482.27        73.14622
482.72        73.02631
483.16        71.49876
483.60        71.81023
484.04        73.39226
484.48        73.97755
484.93         74.0013
485.37        75.40172
485.81        75.87312
486.25        74.65676
486.69        100.3768
487.14        81.56678
487.58        50.89062
488.02         62.7128
488.46        70.95808
488.90        70.68204
489.34         72.8352
489.79        71.66727
490.23        73.72941
490.67         74.3801
491.11        73.37629
491.55        73.50206
491.99        74.23376
492.43        74.11164
492.88        73.19222
493.32        72.93359
493.76        72.91275
494.20        73.10243
494.64        73.27424
495.08        73.66597
495.52        74.18558
495.96        74.20007
496.41        73.70647
496.85        73.96134
497.29        74.73246
497.73         73.4481
498.17        71.19077
498.61        71.47916
499.05        74.26943
499.49        74.91255
499.93        74.94934
500.37        74.63792
500.82        73.93862
501.26        73.93221
501.70        74.37101
502.14        74.65532
502.58        74.62051
503.02        74.37427
503.46        74.30057
503.90        73.87202
504.34        73.37379
504.78        73.16423
505.22        73.30362
505.66        73.68574
506.10        74.13008
506.54        74.34008
506.98        74.23286
507.42        73.91956
507.86        73.54193
508.30        73.37833
508.74        73.48216
509.18        73.76881
509.62        74.10349
510.06        74.27253
510.50        74.22093
510.94        74.02728
511.38        73.79991
511.82        73.70028
512.26        73.77191
512.70        73.95601
513.14        74.18118
513.58        74.33765
514.02        74.38367
514.46        74.34969
514.90         74.2752
515.34        74.20535
515.78        74.14988
516.22        74.15118
516.66        74.18388
517.10        74.06097
517.54          73.778
517.98        73.89601
518.42        73.71317
518.86         73.8377
519.30        74.04516
519.74        74.37876
520.18         74.7435
520.62        74.94073
521.06        74.95782
521.50         74.9271
521.93         74.8788
522.37         74.7828
522.81        74.67121
523.25         74.5842
523.69        74.55254
524.13        74.60041
524.57        74.72778
525.01          74.924
525.45        75.13932
525.89        75.28926
526.32        75.34011
526.76        75.30902
527.20        75.21114
527.64        75.10519
528.08        75.03098
528.52        74.88634
528.96        74.65716
529.40        74.60348
529.83        74.73492
530.27        74.08574
530.71        74.17836
531.15        74.05851
531.59        74.17898
532.03        74.37917
532.46        74.63631
532.90        74.91426
533.34        75.15678
533.78        75.38492
534.22        75.55749
534.66        75.56445
535.09        75.37939
535.53        75.29391
535.97        74.93291
536.41        74.75185
536.85        74.65908
537.28        74.64728
537.72        74.66379
538.16        74.64097
538.60        74.56628
539.04        74.40451
539.47        74.20558
539.91        74.24002
540.35        74.43951
540.79        74.46874
541.22        74.32363
541.66        74.30093
542.10        74.39371
542.54        74.41289
542.97         74.3856
543.41        74.47365
543.85        74.66915
544.29        74.93992
544.72         75.1559
545.16        75.14856
545.60        74.88728
546.04        74.43539
546.47        73.98474
546.91        73.86446
547.35        74.13874
547.79        74.69221
548.22        75.25722
548.66        75.54633
549.10        75.39073
549.53        74.57973
549.97        73.51429
550.41        73.05876
550.84        73.34634
551.28        73.99171
551.72         74.7198
552.15        75.16721
552.59        75.20316
553.03        74.95744
553.46        74.58276
553.90        74.33663
554.34        74.28111
554.77        74.33281
555.21        74.45107
555.65        74.37684
556.08        74.81855
556.52        74.27867
556.96        74.69327
557.39        74.60659
557.83        74.56622
558.27        74.50962
558.70        74.48876
559.14        74.58614
559.57        74.76637
560.01        75.01767
560.45        75.25076
560.88        75.29103
561.32        75.14156
561.75        74.93084
562.19        74.74139
562.63        74.31747
563.06        73.83188
563.50        73.95936
563.93        74.55492
564.37        74.85047
564.80        74.75358
565.24        74.70158
565.68        74.71497
566.11        74.67083
566.55        74.62833
566.98        74.58224
567.42         74.5666
567.85        74.64983
568.29        74.87715
568.72        74.98972
569.16        75.11896
569.60        75.57755
570.03        76.00542
570.47        75.80982
570.90        75.35859
571.34        73.52643
571.77        74.85355
572.21        74.64945
572.64        74.25998
573.08        73.54443
573.51        70.16234
573.95        72.83242
574.38        77.32899
574.82         75.0646
