SpectraSmart Spectrum 2.9.0.0
--------- Device Information -----------
Spectrum Name :  反射率_0
Saving Time :  2024/04/26 01:11:16
Spectro-Module Model Name : SE2030-DUVN
Spectro-Module Serial Number : OS361AC55029948
Wavelength Start : 200
Wavelength End : 1025
Wavelength Unit : Wavelength(nm)
Spectrum Unit : Reflectance(%)
-----------Spectrum Setting ------------
Integration Time : 20ms
Average : 10
Boxcar : 0
Background removal :  enabled
linearity correction :  enabled
SC :  disabled
Intensity correction :  disabled
DWT denoise :  enabled
savitzky-golay :  disabled
FFT :  disabled
Running average :  disabled
Kalman :  disabled
High pass :  disabled
---------------BEGIN--------------------
Wavelength(nm)             Reflectance(%)
200.29               0
200.75        90.51418
201.21          80.545
201.67        69.59512
202.13        63.57289
202.58        63.06239
203.04        66.50645
203.50         71.7024
203.96        74.74996
204.42        74.55679
204.88        72.72748
205.34        70.58646
205.80        69.25198
206.26        68.99416
206.72        69.72852
207.18        71.84261
207.64         74.3198
208.10        73.73287
208.55        71.01945
209.01        69.58011
209.47        70.35258
209.93        72.70445
210.39        76.57648
210.85        79.79935
211.31         77.6972
211.77         69.4439
212.23        57.09941
212.69        45.56512
213.14        42.33445
213.60        48.52855
214.06        62.13436
214.52        78.03959
214.98        88.17636
215.44        90.25832
215.90        86.61044
216.36        80.31424
216.81        75.68285
217.27        74.13553
217.73        74.23836
218.19        73.97837
218.65        70.58614
219.11        62.86649
219.57        50.02981
220.02        33.76278
220.48         23.9845
220.94        26.57821
221.40        39.08242
221.86        51.81382
222.32        54.59642
222.77        48.31386
223.23        38.20926
223.69        29.61997
224.15        27.97668
224.61        32.72122
225.06         41.1214
225.52        49.43949
225.98        52.93477
226.44        50.81081
226.90        45.19735
227.36         38.7677
227.81        35.09793
228.27        35.23985
228.73        37.68113
229.19        41.09371
229.65        43.54729
230.10        44.48491
230.56        44.68194
231.02        44.52485
231.48        44.36782
231.93        44.30804
232.39        44.14804
232.85        43.95304
233.31        43.94276
233.77        44.12023
234.22        44.46814
234.68        44.77618
235.14        44.53134
235.60        43.68605
236.05        42.53889
236.51        41.44058
236.97        40.81224
237.43        40.82786
237.88        41.48523
238.34        43.01766
238.80        45.79367
239.26        49.65708
239.71        54.44057
240.17        59.02009
240.63         62.1075
241.08        63.42735
241.54        63.07955
242.00        62.05037
242.46        61.88135
242.91        63.55783
243.37        68.39429
243.83        83.88447
244.28         133.297
244.74        186.8898
245.20        155.0598
245.66        126.7888
246.11         118.377
246.57        120.7433
247.03        135.6554
247.48        177.7946
247.94        141.6917
248.40        92.75781
248.85        79.67679
249.31        76.71194
249.77        77.51516
250.22        80.75381
250.68          86.863
251.14        95.88918
251.59        102.4833
252.05        100.9956
252.51         93.6095
252.96        84.93903
253.42         79.9721
253.88        78.41065
254.33        78.46575
254.79        80.28352
255.25        83.44907
255.70         87.0553
256.16        91.09163
256.62        93.78593
257.07        93.30982
257.53        90.49097
257.99        85.85226
258.44        81.13909
258.90        79.34268
259.35         79.4457
259.81        80.37634
260.27        80.14889
260.72        76.86356
261.18        71.44173
261.63        64.78995
262.09        58.71218
262.55        54.56312
263.00         52.2804
263.46        51.27426
263.91        50.52515
264.37        49.26333
264.83        47.26479
265.28        44.72342
265.74        42.24287
266.19        40.48471
266.65        39.70625
267.11         39.5335
267.56        39.41153
268.02        38.68376
268.47        37.21585
268.93        35.24101
269.38        33.14039
269.84        31.80433
270.30        31.46541
270.75         31.8566
271.21        32.47131
271.66         32.5548
272.12        31.90996
272.57        30.77228
273.03        29.53216
273.48        28.69094
273.94        28.39617
274.39        28.43003
274.85        28.52661
275.31        28.29589
275.76        27.65346
276.22        26.77955
276.67         25.8847
277.13        25.35333
277.58        25.19607
278.04        25.29236
278.49        25.38598
278.95        25.18506
279.40        24.61368
279.86        23.84347
280.31        23.00908
280.77        22.41792
281.22         22.0975
281.68         21.9707
282.13         21.9324
282.59        21.86802
283.04        21.73763
283.50        21.62009
283.95        21.49942
284.41        21.36258
284.86        21.21218
285.32        21.05216
285.77        20.96386
286.22        21.13553
286.68        21.55351
287.13        22.12168
287.59        22.64548
288.04        22.82818
288.50        22.64486
288.95        22.18582
289.41        21.64734
289.86        21.22217
290.32        21.02825
290.77         20.9944
291.22        21.12456
291.68        21.38117
292.13        21.75355
292.59         22.2743
293.04         22.9217
293.50        23.65103
293.95         24.4364
294.40        25.25298
294.86        26.12044
295.31        27.08984
295.77        28.17368
296.22         29.3597
296.68         30.5814
297.13        31.69623
297.58        32.69395
298.04         33.6357
298.49        34.64784
298.95        35.97725
299.40        37.65933
299.85        39.60956
300.31        41.66784
300.76        43.57383
301.21         45.2237
301.67        46.71674
302.12          48.075
302.58        49.43564
303.03        50.81998
303.48        52.21497
303.94        53.71062
304.39        55.38628
304.84        57.25598
305.30        59.29306
305.75        61.31027
306.20        63.04112
306.66        64.44984
307.11        65.56004
307.57        66.58551
308.02        67.73406
308.47        69.11162
308.93        70.65916
309.38        72.23055
309.83         73.6474
310.29         74.8508
310.74        75.86464
311.19        76.80379
311.65        77.84219
312.10        79.00372
312.55        80.24396
313.00        81.39275
313.46         82.1819
313.91        82.54577
314.36        82.59489
314.82        82.58775
315.27        82.86826
315.72         83.5519
316.18        84.53512
316.63         85.6307
317.08         86.4837
317.53        86.98383
317.99        87.21869
318.44        87.37337
318.89        87.75501
319.35         88.4127
319.80        89.26856
320.25        90.08009
320.70        90.45636
321.16        90.31982
321.61        89.81685
322.06        89.22375
322.51        88.96873
322.97        89.14091
323.42         89.6508
323.87        90.30074
324.32        90.74841
324.78         90.8774
325.23         90.8307
325.68        90.71143
326.13        90.71526
326.59        90.88011
327.04        91.15861
327.49        91.49969
327.94        91.86102
328.39        92.21237
328.85        92.55453
329.30        92.90063
329.75        93.10182
330.20        93.16138
330.66         93.1194
331.11        93.15104
331.56        93.46061
332.01        94.11366
332.46        95.02812
332.92        96.09605
333.37        97.29868
333.82         98.4738
334.27        99.61784
334.72        100.5445
335.17        100.9679
335.63        100.8556
336.08         100.345
336.53        99.72811
336.98         99.5279
337.43        99.88818
337.88         100.669
338.34        101.6846
338.79        102.7018
339.24        103.5682
339.69        104.3831
340.14        105.0441
340.59         105.374
341.05        105.3745
341.50        105.0628
341.95        104.7293
342.40        104.8457
342.85        105.5011
343.30        106.5792
343.75         107.755
344.20        108.4426
344.66        108.4942
345.11        108.0702
345.56        107.4814
346.01        107.1995
346.46        107.3493
346.91        107.7847
347.36        108.3077
347.81        108.6189
348.26         108.645
348.72        108.5098
349.17        108.3394
349.62        108.3774
350.07         108.671
350.52          109.11
350.97        109.5475
351.42        109.7783
351.87        109.7487
352.32        109.5298
352.77        109.1999
353.22        108.8805
353.67         108.617
354.13        108.3888
354.58         108.151
355.03        107.8945
355.48        107.6088
355.93        107.3068
356.38        106.9876
356.83        106.6406
357.28        106.2606
357.73        105.8457
358.18        105.3869
358.63         104.874
359.08        104.3133
359.53        103.7173
359.98        103.1067
360.43        102.5126
360.88        101.9361
361.33        101.3568
361.78        100.7752
362.23        100.1928
362.68        99.61177
363.13        99.05071
363.58        98.46114
364.03        97.76101
364.48        96.94587
364.93        96.03704
365.38        95.15454
365.83        94.49511
366.28        94.08485
366.73         93.8484
367.18        93.62895
367.63        93.17117
368.08         92.4255
368.53        91.50356
368.98         90.5178
369.43        89.62929
369.88        88.89462
370.33         88.2584
370.78        87.74482
371.23        87.40024
371.68        87.20695
372.13         87.1453
372.58        87.10096
373.03        86.87366
373.48        86.42268
373.93        85.81881
374.38        85.15333
374.83        84.57025
375.28        84.11208
375.72        83.71355
376.17        83.40411
376.62        83.20784
377.07        83.09521
377.52        83.03976
377.97        82.92261
378.42        82.54985
378.87        81.91019
379.32        81.10991
379.77        80.25815
380.22        79.50749
380.67        78.89842
381.11        78.36802
381.56        77.96667
382.01        77.78068
382.46        77.80257
382.91        78.02439
383.36        78.21329
383.81        77.99793
384.26        77.32165
384.71        76.28386
385.15        75.20901
385.60        74.65456
386.05        74.67047
386.50        75.09112
386.95        75.55009
387.40        75.42903
387.85        74.64239
388.29         73.4441
388.74        72.30454
389.19        71.57803
389.64        71.32534
390.09        71.36901
390.54        71.61591
390.98         71.9116
391.43        72.15552
391.88        72.37028
392.33        72.44614
392.78        72.14454
393.23        71.48694
393.67         70.7408
394.12        70.14513
394.57        69.38927
395.02        68.73884
395.47        69.11414
395.91        70.33076
396.36        71.02151
396.81        70.99192
397.26        70.88552
397.71        70.78373
398.15        70.41735
398.60        69.91138
399.05        69.54464
399.50        69.25496
399.95        68.34513
400.39        67.34969
400.84        67.00496
401.29        67.37519
401.74        67.66743
402.18        67.74432
402.63        67.74368
403.08        67.73278
403.53        67.86127
403.97        68.12456
404.42        68.33022
404.87        68.37804
405.32        68.18935
405.76        67.74053
406.21        67.19741
406.66        66.69742
407.11        66.25162
407.55        66.01423
408.00        66.37254
408.45        67.13301
408.90        67.42072
409.34         67.0874
409.79        66.58067
410.24        66.10123
410.68        65.78602
411.13        65.71487
411.58        65.81057
412.03        66.03274
412.47        66.33031
412.92        66.60983
413.37        66.90845
413.81        67.13344
414.26        67.18719
414.71        67.03931
415.15        66.69831
415.60        66.28762
416.05         66.0347
416.49        66.00352
416.94        66.16159
417.39          66.343
417.83        66.24615
418.28        65.83482
418.73        65.22223
419.17        64.67587
419.62        64.61795
420.07        65.08033
420.51        65.90707
420.96         66.7987
421.41        67.19205
421.85        66.92936
422.30        66.46256
422.74        65.92587
423.19        65.23573
423.64        64.62343
424.08        64.90173
424.53        65.89851
424.98        66.50105
425.42        66.55235
425.87        66.82084
426.31        67.27332
426.76        67.13638
427.21        66.64405
427.65        66.85586
428.10         67.6824
428.54        68.36468
428.99        68.85219
429.44        69.00101
429.88        68.90946
430.33         69.8166
430.77        71.00732
431.22        69.98436
431.66        67.30197
432.11         65.8271
432.56        65.92399
433.00        66.60019
433.45        67.74771
433.89        69.76039
434.34        71.14375
434.78        72.34357
435.23        68.34221
435.67         66.3292
436.12         69.1368
436.57        70.31218
437.01        70.63405
437.46        71.06467
437.90        70.99133
438.35        71.00277
438.79        71.25919
439.24        71.24312
439.68        71.08741
440.13        70.85007
440.57        70.80306
441.02        71.50273
441.46        72.66545
441.91        73.61156
442.35        73.96838
442.80        73.16813
443.24        71.71626
443.69        72.19374
444.13           74.19
444.58        74.38366
445.02        72.44305
445.47        72.17209
445.91         73.3479
446.36        73.61913
446.80         72.8822
447.24        73.03175
447.69        72.91832
448.13        73.09438
448.58        73.25293
449.02        73.65897
449.47        74.21078
449.91        74.60129
450.36        74.79069
450.80        74.88843
451.25        74.90208
451.69        74.75864
452.13        74.50209
452.58        74.17852
453.02        73.87335
453.47        73.75962
453.91        73.83965
454.36        74.06102
454.80        74.35805
455.24        74.43896
455.69         74.2473
456.13          74.201
456.58        74.32124
457.02        73.51015
457.46        72.70915
457.91        72.98978
458.35        74.21087
458.79        74.64899
459.24        74.26086
459.68        73.82612
460.13        73.43014
460.57        73.19194
461.01        73.28883
461.46        72.17337
461.90        72.12366
462.34        72.55782
462.79        72.02209
463.23        72.12466
463.68        72.22154
464.12        72.59149
464.56        73.04872
465.01        73.07882
465.45        72.67024
465.89        72.59619
466.34        72.66827
466.78        71.75767
467.22        70.46246
467.67        69.45035
468.11        71.07853
468.55        71.76635
468.99        71.84931
469.44        71.46906
469.88        70.83678
470.32        70.71187
470.77        71.03529
471.21        70.98006
471.65        70.51977
472.10        70.31359
472.54        70.38914
472.98        70.45525
473.42        70.48956
473.87        70.69711
474.31        70.95398
474.75        70.85213
475.20         70.4966
475.64        70.43345
476.08        70.68333
476.52        70.67216
476.97        70.36501
477.41        70.37091
477.85        70.76981
478.29        70.05649
478.74        70.60867
479.18         70.6349
479.62         69.6509
480.06        70.27416
480.50        70.61157
480.95        71.21402
481.39        71.59259
481.83        70.27898
482.27        70.59731
482.72        70.18279
483.16        68.60052
483.60        68.79273
484.04          70.339
484.48        70.96368
484.93        71.00307
485.37        72.65044
485.81        73.01714
486.25        71.68678
486.69        98.64396
487.14        79.49991
487.58        49.14343
488.02        60.18076
488.46        68.34086
488.90        68.19432
489.34        69.10223
489.79        68.45589
490.23        70.35492
490.67        71.19168
491.11        70.12686
491.55          70.118
491.99        70.72591
492.43        70.60543
492.88        69.85341
493.32        69.81344
493.76        69.97919
494.20        70.17715
494.64        70.15642
495.08        70.18093
495.52        70.32903
495.96        70.23472
496.41        69.93523
496.85        70.63195
497.29        71.89267
497.73         70.7168
498.17        68.18635
498.61         68.2344
499.05         70.8904
499.49        71.42509
499.93        71.29572
500.37        70.97071
500.82         70.3792
501.26        70.22256
501.70        70.30475
502.14        70.86181
502.58        70.82801
503.02        70.86066
503.46        70.67279
503.90        70.27826
504.34        69.84821
504.78        69.67217
505.22        69.80199
505.66        70.18923
506.10        70.68906
506.54          70.833
506.98        70.49641
507.42        70.46998
507.86        70.08936
508.30        69.46785
508.74        69.87499
509.18        70.06384
509.62        70.33465
510.06         70.4519
510.50        70.38021
510.94        70.17843
511.38        69.92175
511.82        69.75726
512.26        69.72511
512.70        69.77515
513.14        69.88643
513.58        70.03062
514.02        70.17913
514.46        70.33388
514.90          70.465
515.34        70.50869
515.78        70.44588
516.22        70.35341
516.66        70.26329
517.10         70.0631
517.54        69.77518
517.98         70.0126
518.42        69.90772
518.86         70.0752
519.30        70.23998
519.74        70.46359
520.18        70.69715
520.62        70.85017
521.06        70.90932
521.50        70.89596
521.93          70.816
522.37        70.68349
522.81        70.52486
523.25        70.34518
523.69        70.21053
524.13        70.21958
524.57        70.38307
525.01        70.66906
525.45         70.9858
525.89        71.18147
526.32        71.20481
526.76        71.09186
527.20        70.90479
527.64        70.76562
528.08        70.72437
528.52        70.68851
528.96        70.59153
529.40         70.5288
529.83        70.52965
530.27        69.86855
530.71        69.98914
531.15        69.87222
531.59        69.94999
532.03        70.13991
532.46        70.43422
532.90        70.78683
533.34        71.13998
533.78        71.49043
534.22        71.74669
534.66        71.78383
535.09        71.58128
535.53        71.20877
535.97         70.7658
536.41         70.4369
536.85        70.28094
537.28        70.25744
537.72        70.31271
538.16        70.36438
538.60        70.38157
539.04        70.33847
539.47        70.24606
539.91        70.30613
540.35         70.4462
540.79        70.35897
541.22        70.08911
541.66         69.9963
542.10        70.09256
542.54        70.18113
542.97        70.23838
543.41        70.33537
543.85        70.44893
544.29        70.58092
544.72        70.66196
545.16        70.60001
545.60         70.3775
546.04        70.06407
546.47        69.79531
546.91        69.70138
547.35        69.86506
547.79        70.46124
548.22        71.19384
548.66        71.42414
549.10        71.03982
549.53        70.22966
549.97         69.3687
550.41        68.95742
550.84        69.10759
551.28        69.69581
551.72        70.49569
552.15        70.71896
552.59        70.92359
553.03        70.70055
553.46        70.37508
553.90        70.19443
554.34        70.22492
554.77        70.27197
555.21        70.28671
555.65        70.48605
556.08        70.85365
556.52        70.39607
556.96        70.74343
557.39         70.5695
557.83         70.4175
558.27        70.28722
558.70        70.22733
559.14        70.25932
559.57        70.35496
560.01        70.50071
560.45        70.66042
560.88         70.7998
561.32        70.87408
561.75        70.82039
562.19        70.67101
562.63        70.21954
563.06        69.67155
563.50        69.71394
563.93        70.23882
564.37        70.58819
564.80        70.61559
565.24        70.49934
565.68        70.29695
566.11        70.18857
566.55        70.24849
566.98        70.24737
567.42        70.21787
567.85        70.43863
568.29        70.87753
568.72         70.9643
569.16        70.91297
569.60        71.34459
570.03        71.90511
570.47        71.99386
570.90        71.92068
571.34          69.972
571.77        71.17248
572.21        71.20553
572.64        70.63866
573.08        69.75599
573.51        66.65391
573.95        69.28537
574.38        73.61237
574.82        72.07968
