SpectraSmart Spectrum 2.9.0.0
--------- Device Information -----------
Spectrum Name :  反射率_0
Saving Time :  2024/04/26 01:23:52
Spectro-Module Model Name : SE2030-DUVN
Spectro-Module Serial Number : OS361AC55029948
Wavelength Start : 200
Wavelength End : 1025
Wavelength Unit : Wavelength(nm)
Spectrum Unit : Reflectance(%)
-----------Spectrum Setting ------------
Integration Time : 20ms
Average : 10
Boxcar : 0
Background removal :  enabled
linearity correction :  enabled
SC :  disabled
Intensity correction :  disabled
DWT denoise :  enabled
savitzky-golay :  disabled
FFT :  disabled
Running average :  disabled
Kalman :  disabled
High pass :  disabled
---------------BEGIN--------------------
Wavelength(nm)             Reflectance(%)
200.29               0
200.75        91.91396
201.21         84.7112
201.67        76.00732
202.13        70.83602
202.58        69.91377
203.04        72.11919
203.50        75.55467
203.96        77.08867
204.42         76.0281
204.88        73.63688
205.34        71.60081
205.80        71.67201
206.26        74.67298
206.72        82.47727
207.18        97.80128
207.64        109.7064
208.10        98.04603
208.55        78.02641
209.01        66.37035
209.47        63.79535
209.93        66.73625
210.39         73.6154
210.85        81.49519
211.31        83.74847
211.77        78.25705
212.23         67.5817
212.69        56.79221
213.14        53.67247
213.60        59.50803
214.06        71.95272
214.52        86.07838
214.98        94.34272
215.44        94.74256
215.90        89.74288
216.36        82.54439
216.81        77.50856
217.27        76.02415
217.73        76.59634
218.19        77.03684
218.65        74.40634
219.11          67.513
219.57        55.61774
220.02        40.46494
220.48        31.79583
220.94        35.11916
221.40        47.75653
221.86        59.95572
222.32        61.62221
222.77        53.91074
223.23        42.35633
223.69        32.49697
224.15        29.94402
224.61         34.0714
225.06        41.96573
225.52        49.84853
225.98        52.94453
226.44          50.425
226.90        44.47807
227.36        37.59786
227.81        33.07127
228.27        32.00666
228.73        33.07763
229.19        35.41109
229.65        37.74634
230.10        39.47867
230.56        40.89856
231.02        42.00747
231.48        42.73598
231.93        43.14398
232.39        43.26954
232.85         43.1086
233.31        42.75459
233.77        42.25222
234.22        41.53681
234.68        40.91925
235.14        40.89731
235.60        41.57682
236.05        42.87827
236.51        44.19933
236.97        44.60223
237.43        43.94279
237.88        42.43523
238.34        40.77574
238.80        41.00957
239.26         44.0976
239.71        49.53879
240.17        56.02251
240.63        61.61624
241.08        65.49549
241.54        67.86416
242.00        69.11113
242.46        70.02534
242.91        71.42877
243.37        73.65468
243.83        80.73147
244.28        110.5664
244.74        157.3298
245.20        147.7543
245.66        132.6561
246.11        132.0236
246.57        144.2426
247.03        182.4533
247.48        295.4744
247.94        253.5741
248.40        137.2047
248.85        99.62232
249.31        87.54066
249.77        84.92484
250.22        87.07339
250.68        93.22247
251.14        103.1996
251.59        110.7329
252.05        109.2254
252.51        101.5042
252.96        92.06651
253.42         85.6802
253.88        82.15011
254.33        79.67706
254.79        79.54688
255.25        82.92237
255.70        88.56687
256.16        95.41315
256.62        100.2815
257.07        99.99715
257.53        95.70219
257.99        88.73103
258.44        81.80202
258.90        79.00855
259.35        79.23508
259.81        80.75724
260.27        81.07659
260.72        77.83154
261.18        71.99438
261.63        64.75507
262.09        58.06825
262.55        53.44468
263.00         50.8705
263.46        49.67996
263.91          48.859
264.37        47.64185
264.83        45.78697
265.28        43.47754
265.74        41.25745
266.19        39.68878
266.65        38.99696
267.11        38.82994
267.56        38.68742
268.02        37.98119
268.47        36.58495
268.93        34.70821
269.38        32.68139
269.84        31.30845
270.30        30.80493
270.75        30.94178
271.21         31.2849
271.66        31.18185
272.12        30.46248
272.57        29.34269
273.03        28.16162
273.48        27.34044
273.94        27.01001
274.39        26.97994
274.85        27.03258
275.31        26.85193
275.76        26.35619
276.22        25.68043
276.67        24.97608
277.13        24.54401
277.58        24.38052
278.04        24.39967
278.49        24.38319
278.95         24.0859
279.40        23.45383
279.86        22.65135
280.31        21.81702
280.77        21.26019
281.22        21.00658
281.68        20.97311
282.13        21.05187
282.59        21.12159
283.04        21.13282
283.50        21.15352
283.95        21.14556
284.41        21.06511
284.86        20.90876
285.32        20.68999
285.77        20.50973
286.22        20.58636
286.68        20.91923
287.13        21.41251
287.59        21.86946
288.04        21.98843
288.50        21.74463
288.95        21.23377
289.41        20.66036
289.86        20.22852
290.32        20.05387
290.77        20.05873
291.22        20.22698
291.68        20.49345
292.13        20.84044
292.59        21.30333
293.04        21.87962
293.50        22.55668
293.95        23.31469
294.40        24.11988
294.86        24.96682
295.31        25.86612
295.77        26.82785
296.22        27.86206
296.68        28.93483
297.13        29.95638
297.58        30.92875
298.04        31.88778
298.49        32.94846
298.95        34.33809
299.40        36.07998
299.85        38.10012
300.31        40.20225
300.76         42.0691
301.21        43.59977
301.67        44.91652
302.12        46.12382
302.58        47.47796
303.03        49.01616
303.48        50.67893
303.94        52.47155
304.39        54.34437
304.84        56.27913
305.30        58.28961
305.75        60.24207
306.20        61.95313
306.66        63.41167
307.11        64.61626
307.57        65.75789
308.02         67.0127
308.47        68.48336
308.93        70.13412
309.38        71.83228
309.83        73.41457
310.29        74.82103
310.74        76.05359
311.19        77.22863
311.65         78.5298
312.10        79.97186
312.55        81.50337
313.00        82.90066
313.46        83.80896
313.91        84.15081
314.36        84.06935
314.82         83.9066
315.27        84.13228
315.72        84.89685
316.18        86.07024
316.63        87.40592
317.08         88.4453
317.53        89.04503
317.99          89.316
318.44        89.49767
318.89        89.98398
319.35         90.8408
319.80        91.96277
320.25        93.02688
320.70        93.51112
321.16        93.31162
321.61        92.62025
322.06        91.82336
322.51        91.51781
322.97        91.83031
323.42        92.62389
323.87        93.60081
324.32        94.24445
324.78        94.38432
325.23        94.21621
325.68        93.92654
326.13        93.84704
326.59        94.05912
327.04        94.48074
327.49        95.00223
327.94        95.48727
328.39        95.87749
328.85        96.19904
329.30        96.52864
329.75        96.81451
330.20        97.07806
330.66         97.3198
331.11        97.62782
331.56        98.07176
332.01        98.68681
332.46        99.42996
332.92        100.2779
333.37        101.3768
333.82        102.6177
334.27        103.9562
334.72        105.1364
335.17        105.7479
335.63        105.7138
336.08        105.2108
336.53        104.5689
336.98        104.3712
337.43        104.7852
337.88        105.6545
338.34        106.7737
338.79         107.887
339.24         108.832
339.69        109.7102
340.14        110.4477
340.59        110.9098
341.05        111.0954
341.50        110.9966
341.95        110.8296
342.40        110.9654
342.85        111.4807
343.30          112.29
343.75        113.1605
344.20        113.6671
344.66        113.7135
345.11        113.4249
345.56          113.02
346.01        112.8249
346.46        112.9334
346.91        113.2414
347.36        113.6437
347.81        113.9831
348.26        114.2117
348.72        114.4007
349.17        114.5609
349.62        114.7517
350.07         114.975
350.52        115.1766
350.97        115.3341
351.42        115.4313
351.87        115.4596
352.32        115.4392
352.77        115.3363
353.22         115.094
353.67        114.7218
354.13        114.2602
354.58        113.7874
355.03        113.4871
355.48        113.3839
355.93        113.4156
356.38        113.4482
356.83        113.2666
357.28        112.8145
357.73        112.1578
358.18        111.3855
358.63        110.6426
359.08         109.981
359.53        109.3631
359.98        108.7642
360.43        108.1425
360.88        107.4828
361.33        106.8072
361.78         106.131
362.23        105.4729
362.68        104.8447
363.13        104.2457
363.58        103.6579
364.03         103.051
364.48        102.4188
364.93         101.768
365.38        101.1294
365.83        100.5571
366.28        100.0485
366.73        99.56201
367.18        99.06107
367.63        98.49147
368.08        97.84948
368.53        97.18797
368.98        96.48462
369.43        95.69115
369.88        94.81821
370.33        93.87478
370.78        93.01501
371.23        92.49739
371.68         92.3646
372.13        92.53948
372.58        92.78345
373.03        92.68756
373.48        92.15616
373.93        91.32595
374.38        90.41657
374.83        89.76606
375.28        89.45361
375.72        89.34158
376.17        89.33408
376.62        89.25739
377.07        89.03309
377.52        88.70725
377.97        88.26172
378.42         87.6629
378.87        86.94569
379.32        86.15778
379.77        85.36296
380.22        84.64919
380.67         84.0336
381.11        83.48359
381.56        83.03754
382.01        82.75641
382.46        82.64019
382.91        82.68897
383.36        82.72499
383.81        82.46804
384.26        81.87826
384.71        81.02555
385.15        80.16917
385.60        79.77769
386.05        79.87111
386.50        80.29727
386.95        80.72322
387.40        80.58846
387.85        79.82343
388.29        78.66371
388.74        77.53908
389.19        76.73603
389.64        76.30844
390.09        76.08978
390.54        76.07855
390.98        76.27515
391.43        76.61082
391.88        77.06305
392.33        77.36909
392.78        77.08038
393.23        76.20557
393.67        75.05275
394.12        74.04872
394.57        73.24064
395.02         72.8831
395.47        73.53436
395.91        74.94232
396.36        75.85262
396.81        76.02354
397.26        75.98211
397.71        75.80832
398.15        75.32657
398.60        74.69778
399.05        74.11963
399.50        73.60179
399.95        72.68276
400.39        71.86559
400.84        71.51797
401.29        71.70853
401.74        72.00909
402.18        72.25047
402.63        72.17725
403.08        71.92163
403.53        72.01543
403.97         72.4707
404.42        72.90335
404.87        73.12595
405.32        72.98431
405.76        72.43992
406.21        71.69574
406.66        70.93585
407.11        70.34989
407.55        70.11097
408.00         70.2422
408.45        70.65798
408.90        71.32877
409.34        71.87859
409.79        71.42567
410.24        70.28697
410.68        69.78294
411.13        70.02488
411.58        70.27274
412.03        70.42046
412.47        70.63733
412.92        70.82552
413.37        70.96886
413.81        71.03482
414.26        71.01501
414.71        70.89207
415.15        70.66185
415.60        70.37708
416.05        70.14115
416.49        69.99076
416.94        69.92777
417.39        69.86388
417.83        69.62643
418.28        69.21455
418.73        68.70456
419.17        68.28116
419.62        68.24523
420.07         68.6002
420.51        69.22771
420.96        69.90737
421.41        70.19527
421.85        69.95591
422.30        69.63528
422.74        69.27458
423.19        68.56761
423.64        67.77433
424.08         67.9864
424.53        69.03119
424.98        69.59322
425.42        69.52434
425.87        69.67894
426.31        70.06854
426.76        70.03803
427.21        69.76453
427.65        70.02748
428.10        70.74171
428.54        71.37742
428.99        71.88159
429.44        72.05039
429.88        71.93552
430.33        72.58406
430.77        73.39359
431.22        72.31763
431.66        69.85895
432.11        68.45763
432.56        68.44683
433.00        69.13165
433.45        70.42078
433.89        72.45663
434.34        73.66405
434.78         75.2167
435.23        70.68127
435.67        68.81578
436.12         70.9899
436.57         72.2923
437.01        73.10805
437.46        73.40485
437.90        73.30923
438.35        73.05521
438.79        73.27049
439.24         73.1486
439.68        72.90876
440.13        72.54091
440.57        72.35662
441.02        73.20354
441.46        74.69624
441.91        75.62189
442.35        75.68693
442.80        74.81572
443.24        73.50562
443.69        74.13031
444.13        76.23981
444.58        76.23216
445.02        74.33609
445.47        73.91312
445.91        74.92123
446.36        75.19979
446.80        74.70274
447.24        74.55833
447.69        74.82384
448.13        75.12106
448.58         75.4409
449.02        75.82055
449.47        76.20109
449.91        76.49643
450.36        76.67694
450.80        76.76301
451.25         76.7486
451.69        76.53983
452.13        76.20841
452.58        75.92075
453.02        75.74117
453.47        75.69588
453.91        75.77757
454.36        76.01724
454.80        76.33691
455.24        76.40154
455.69        76.16037
456.13        75.98956
456.58         75.9727
457.02        75.16049
457.46        74.63078
457.91        74.80769
458.35        75.69194
458.79          76.034
459.24        75.77591
459.68         75.5274
460.13        75.34888
460.57        75.05772
461.01        74.74857
461.46        74.29786
461.90        73.79466
462.34        74.08006
462.79        73.75861
463.23         74.0294
463.68        74.37868
464.12        74.99926
464.56        75.62379
465.01        75.48512
465.45        74.64974
465.89        74.40582
466.34        74.60764
466.78        73.59013
467.22        71.90258
467.67        71.56232
468.11        72.92962
468.55        73.73612
468.99        73.74947
469.44        73.40835
469.88        72.92781
470.32        72.97551
470.77        73.47029
471.21        73.52219
471.65        73.08366
472.10        72.83772
472.54        72.84634
472.98        72.83979
473.42        72.80563
473.87        73.02173
474.31        73.31974
474.75        73.05358
475.20        72.41518
475.64        72.34908
476.08        72.82183
476.52        72.93934
476.97        72.66924
477.41        72.63072
477.85        72.89156
478.29        72.66669
478.74        73.25285
479.18        73.20136
479.62        72.27515
480.06         72.8276
480.50        73.13121
480.95        73.38061
481.39        73.13071
481.83        72.39431
482.27        72.57586
482.72         72.2269
483.16        71.20952
483.60        71.51474
484.04        72.92216
484.48        73.28056
484.93        73.17395
485.37        74.11404
485.81        75.05109
486.25        73.65386
486.69        99.33935
487.14        80.56432
487.58        50.11644
488.02        61.45169
488.46        70.13572
488.90        69.71381
489.34         71.3835
489.79        70.43443
490.23        72.60511
490.67        73.47598
491.11        72.48647
491.55        72.42666
491.99        72.87284
492.43         72.6915
492.88        71.98528
493.32         72.0057
493.76        72.22177
494.20        72.49138
494.64        72.54651
495.08        72.67332
495.52        72.89243
495.96        72.71076
496.41         72.1973
496.85        72.65545
497.29         73.7392
497.73        72.63074
498.17         70.3729
498.61          70.535
499.05        73.15118
499.49        73.89049
499.93        74.20069
500.37        73.87854
500.82         72.9116
501.26        72.77958
501.70         73.2813
502.14        73.63142
502.58        73.60944
503.02        73.50262
503.46        73.28966
503.90        72.80349
504.34        72.25833
504.78        72.06839
505.22        72.30062
505.66         72.8362
506.10         73.4386
506.54        73.70557
506.98        73.53232
507.42        73.05367
507.86        72.49249
508.30        72.18893
508.74        72.23049
509.18        72.50407
509.62        72.86622
510.06        73.08733
510.50        73.09823
510.94        72.98524
511.38        72.82523
511.82        72.72704
512.26        72.72764
512.70        72.78044
513.14        72.86346
513.58        72.95361
514.02        73.03001
514.46        73.09711
514.90        73.14772
515.34        73.15147
515.78        73.09673
516.22        73.05008
516.66        73.01342
517.10        72.83816
517.54        72.53369
517.98        72.66946
518.42          72.493
518.86        72.61926
519.30        72.80843
519.74        73.10999
520.18        73.43597
520.62        73.61491
521.06        73.63024
521.50        73.56767
521.93        73.47112
522.37         73.3755
522.81        73.31447
523.25         73.2888
523.69        73.31599
524.13        73.41103
524.57        73.56812
525.01        73.78528
525.45        73.99976
525.89         74.1068
526.32        74.07516
526.76        73.92847
527.20        73.73338
527.64        73.61889
528.08        73.63182
528.52        73.67644
528.96        73.66211
529.40        73.65321
529.83        73.67051
530.27        72.95921
530.71        73.04563
531.15        72.89871
531.59        72.97638
532.03        73.18367
532.46        73.49232
532.90        73.81984
533.34        74.10539
533.78        74.36784
534.22         74.5405
534.66        74.53285
535.09        74.33244
535.53          73.995
535.97        73.61491
536.41        73.36921
536.85        73.30808
537.28        73.39178
537.72        73.54044
538.16        73.63184
538.60        73.62798
539.04        73.50829
539.47         73.3248
539.91        73.35163
540.35        73.52615
540.79        73.51376
541.22        73.31509
541.66        73.23254
542.10        73.26489
542.54        73.22977
542.97        73.16048
543.41        73.22098
543.85        73.40647
544.29        73.68821
544.72         73.9286
545.16        73.94745
545.60        73.70696
546.04        73.25939
546.47        72.80997
546.91        72.70725
547.35        72.99759
547.79         73.5882
548.22        74.19415
548.66        74.34991
549.10        73.98333
549.53        73.30724
549.97        72.61961
550.41        72.25281
550.84        72.30698
551.28        72.68976
551.72        73.20495
552.15         73.4982
552.59        73.47746
553.03        73.26751
553.46        72.98118
553.90        72.83514
554.34        72.86911
554.77        72.96423
555.21        73.07106
555.65        73.10453
556.08        73.42374
556.52        72.90757
556.96        73.33546
557.39        73.08607
557.83        72.78234
558.27        72.75624
558.70        73.02738
559.14        73.27274
559.57         73.4343
560.01        73.73833
560.45        74.06218
560.88        74.08774
561.32        73.82712
561.75        73.41094
562.19        73.00681
562.63        72.61915
563.06        72.36787
563.50        72.55866
563.93         73.0324
564.37        73.30973
564.80         73.2795
565.24         73.1398
565.68        72.96671
566.11         72.8643
566.55        72.90948
566.98        73.01077
567.42        73.13783
567.85        73.26766
568.29        73.46982
568.72        73.41042
569.16        73.31421
569.60        73.71117
570.03        74.27508
570.47         74.2438
570.90        73.85437
571.34        72.38673
571.77        73.22905
572.21         72.9157
572.64        72.52785
573.08        71.45168
573.51        68.39565
573.95        71.00597
574.38        75.29527
574.82        73.65413
