SpectraSmart Spectrum 2.9.0.0
--------- Device Information -----------
Spectrum Name :  反射率_0
Saving Time :  2024/04/26 01:40:40
Spectro-Module Model Name : SE2030-DUVN
Spectro-Module Serial Number : OS361AC55029948
Wavelength Start : 200
Wavelength End : 1025
Wavelength Unit : Wavelength(nm)
Spectrum Unit : Reflectance(%)
-----------Spectrum Setting ------------
Integration Time : 20ms
Average : 10
Boxcar : 0
Background removal :  enabled
linearity correction :  enabled
SC :  disabled
Intensity correction :  disabled
DWT denoise :  enabled
savitzky-golay :  disabled
FFT :  disabled
Running average :  disabled
Kalman :  disabled
High pass :  disabled
---------------BEGIN--------------------
Wavelength(nm)             Reflectance(%)
200.29               0
200.75        98.05605
201.21        96.51056
201.67        93.27583
202.13        89.93133
202.58        86.92616
203.04        84.43552
203.50         81.9431
203.96        79.04778
204.42        76.14518
204.88        73.53022
205.34        72.05477
205.80        72.66681
206.26        75.98664
206.72        84.30087
207.18        100.8375
207.64        114.8914
208.10         104.567
208.55        84.21939
209.01         71.7569
209.47         68.4055
209.93        70.60506
210.39        76.69514
210.85         84.0666
211.31        86.88028
211.77        83.12518
212.23        74.86977
212.69        66.73194
213.14        65.82637
213.60        73.18692
214.06         86.6679
214.52        100.8271
214.98        107.4638
215.44        104.8865
215.90        96.04316
216.36        85.64591
216.81        80.23245
217.27         81.1512
217.73        85.77644
218.19        90.43868
218.65        90.44592
219.11        84.25629
219.57        71.46671
220.02        53.79264
220.48         41.7173
220.94        41.92089
221.40        51.82787
221.86        62.33305
222.32        63.59974
222.77        56.34038
223.23        45.88577
223.69        36.90554
224.15        34.06433
224.61        36.82858
225.06        42.64763
225.52         48.4974
225.98        50.74025
226.44        48.75094
226.90        44.35461
227.36        39.27319
227.81        35.70253
228.27        34.55841
228.73        34.83519
229.19        36.44088
229.65        39.21413
230.10        42.54016
230.56        46.14505
231.02        49.14896
231.48        50.52428
231.93        50.34539
232.39         49.0629
232.85        47.45395
233.31        46.79378
233.77         47.4021
234.22         48.9547
234.68        50.96289
235.14        52.32192
235.60        52.66047
236.05        52.41575
236.51        52.04167
236.97        52.17741
237.43        53.12057
237.88        54.81984
238.34        57.39165
238.80        60.98856
239.26        65.25397
239.71        70.12538
240.17        74.46739
240.63        77.07966
241.08        77.84307
241.54        76.91192
242.00        75.58799
242.46        75.91251
242.91        79.45784
243.37        89.04745
243.83        118.1319
244.28        204.2578
244.74        285.6219
245.20        221.3473
245.66        171.7619
246.11         158.199
246.57        164.5034
247.03        196.4103
247.48        294.3098
247.94         246.922
248.40        142.5802
248.85        110.6776
249.31        101.2679
249.77        99.82436
250.22        102.5735
250.68        109.1169
251.14        119.3665
251.59         127.228
252.05        125.9497
252.51        118.1761
252.96        108.6418
253.42        102.5172
253.88        99.62396
254.33        98.15659
254.79        98.97797
255.25        102.6082
255.70        107.7687
256.16        113.7172
256.62         117.933
257.07         117.869
257.53        114.5841
257.99        109.0242
258.44        103.0049
258.90        99.80515
259.35        98.48105
259.81        98.05907
260.27        96.86324
260.72        93.26631
261.18        88.12226
261.63        82.07627
262.09        76.46185
262.55        71.98662
263.00        68.67558
263.46        66.33984
263.91         64.4649
264.37        62.93082
264.83        61.40815
265.28        59.79967
265.74        58.16903
266.19        56.30433
266.65        54.48678
267.11        52.78191
267.56        51.18541
268.02        49.67295
268.47        48.11399
268.93        46.52014
269.38        44.96968
269.84        43.83235
270.30        43.18471
270.75        42.93562
271.21        42.82422
271.66        42.44474
272.12        41.68806
272.57        40.65298
273.03        39.56833
273.48        38.69263
273.94        38.12856
274.39         37.7445
274.85        37.40881
275.31        36.90278
275.76         36.1689
276.22        35.31956
276.67        34.46066
277.13        33.85252
277.58        33.47611
278.04        33.28854
278.49        33.08265
278.95        32.65349
279.40        31.93448
279.86        31.07083
280.31        30.18606
280.77        29.59351
281.22        29.29921
281.68        29.23115
282.13        29.23532
282.59        29.14484
283.04        28.90771
283.50        28.63056
283.95        28.33726
284.41        28.09278
284.86        27.91033
285.32        27.77054
285.77        27.72056
286.22        27.90639
286.68        28.30127
287.13        28.81799
287.59        29.26744
288.04        29.34799
288.50        29.04554
288.95        28.44556
289.41        27.76708
289.86         27.2244
290.32        26.94806
290.77        26.86329
291.22        26.96203
291.68        27.18227
292.13        27.50983
292.59        27.99121
293.04        28.62773
293.50        29.41379
293.95        30.32501
294.40        31.31553
294.86         32.3767
295.31        33.51628
295.77        34.73179
296.22         36.0162
296.68        37.30287
297.13        38.45328
297.58        39.45755
298.04        40.37098
298.49        41.32897
298.95        42.59819
299.40        44.21884
299.85        46.11319
300.31        48.10638
300.76          49.909
301.21        51.42156
301.67        52.76342
302.12        53.99403
302.58         55.3137
303.03        56.74498
303.48        58.25408
303.94        59.88409
304.39         61.6387
304.84        63.51461
305.30        65.50372
305.75        67.45327
306.20        69.15645
306.66        70.59514
307.11        71.77534
307.57        72.87957
308.02        74.05849
308.47        75.41648
308.93        76.91766
309.38        78.46465
309.83        79.95779
310.29        81.34779
310.74        82.61987
311.19        83.82953
311.65        85.06234
312.10        86.31719
312.55        87.57691
313.00         88.7013
313.46        89.47464
313.91        89.85083
314.36        89.92514
314.82        89.95503
315.27        90.27746
315.72        91.00973
316.18        92.05814
316.63        93.23017
317.08        94.15623
317.53         94.7195
317.99        95.00143
318.44         95.2049
318.89        95.66798
319.35        96.44389
319.80        97.45688
320.25         98.4128
320.70        98.83561
321.16        98.63362
321.61        97.97212
322.06        97.22459
322.51        96.97331
322.97        97.32858
323.42        98.15709
323.87        99.12796
324.32         99.6682
324.78        99.60757
325.23        99.17541
325.68        98.61507
326.13        98.35367
326.59        98.49837
327.04        98.93575
327.49         99.5471
327.94        100.1748
328.39        100.7379
328.85        101.2721
329.30        101.7749
329.75        102.0525
330.20         102.105
330.66        101.9642
331.11         101.874
331.56        102.1602
332.01        102.9164
332.46        104.0356
332.92        105.3241
333.37        106.6217
333.82        107.7114
334.27         108.632
334.72        109.2793
335.17        109.5083
335.63        109.3387
336.08        108.8833
336.53        108.3792
336.98        108.2614
337.43        108.6522
337.88        109.4396
338.34        110.4907
338.79        111.6644
339.24        112.8144
339.69        113.9875
340.14        114.9981
340.59        115.5284
341.05        115.5462
341.50        115.1319
341.95         114.618
342.40        114.5385
342.85        115.0168
343.30        115.9104
343.75        116.9813
344.20        117.7904
344.66        118.1934
345.11        118.2944
345.56        118.2007
346.01        118.0742
346.46        117.9903
346.91        117.9047
347.36        117.8242
347.81        117.7756
348.26        117.7712
348.72        117.8365
349.17        117.9679
349.62        118.1889
350.07        118.4773
350.52        118.7998
350.97        119.0777
351.42        119.2021
351.87        119.1499
352.32        118.9524
352.77        118.6624
353.22        118.3711
353.67        118.1153
354.13         117.893
354.58         117.672
355.03        117.4602
355.48        117.2472
355.93        117.0288
356.38        116.7878
356.83         116.494
357.28        116.1297
357.73        115.6912
358.18        115.1671
358.63        114.5439
359.08        113.8362
359.53        113.0744
359.98        112.2874
360.43        111.5143
360.88        110.7713
361.33        110.0459
361.78        109.3775
362.23        108.8266
362.68        108.3948
363.13        108.0679
363.58        107.7328
364.03        107.2093
364.48        106.4624
364.93        105.5362
365.38         104.573
365.83        103.8122
366.28        103.3015
366.73        102.9566
367.18        102.6378
367.63         102.119
368.08        101.3557
368.53        100.4556
368.98        99.50897
369.43        98.63716
369.88        97.88313
370.33        97.19884
370.78        96.61768
371.23        96.20066
371.68        95.94466
372.13        95.84112
372.58        95.77276
373.03        95.53645
373.48        95.08964
373.93        94.48645
374.38        93.86511
374.83        93.44138
375.28        93.25459
375.72        93.21992
376.17        93.22352
376.62        93.06044
377.07        92.66682
377.52        92.08992
377.97        91.42566
378.42        90.82771
378.87        90.34997
379.32        89.97257
379.77         89.5929
380.22        89.05319
380.67        88.32502
381.11        87.45135
381.56        86.60496
382.01        86.07321
382.46        85.92122
382.91        86.07856
383.36        86.27306
383.81        86.07263
384.26        85.39874
384.71        84.38593
385.15        83.35249
385.60        82.84653
386.05        82.91034
386.50        83.36035
386.95        83.84691
387.40        83.78735
387.85        83.09108
388.29        81.98808
388.74        80.91081
389.19        80.13592
389.64         79.7211
390.09        79.51234
390.54        79.49023
390.98        79.62765
391.43        79.85804
391.88        80.16826
392.33        80.37442
392.78        80.10011
393.23         79.3448
393.67        78.46767
394.12        77.78538
394.57        76.86422
395.02        76.31038
395.47        76.77908
395.91        78.14724
396.36        78.94671
396.81        78.96524
397.26        78.88052
397.71        78.76693
398.15        78.37794
398.60        77.86195
399.05        77.39369
399.50         76.9716
399.95        76.19996
400.39        75.52987
400.84        75.18299
401.29        74.96416
401.74        75.25475
402.18        75.76447
402.63        75.70377
403.08        75.22679
403.53        75.28456
403.97        75.90465
404.42        76.48979
404.87        76.79886
405.32         76.6764
405.76        76.06471
406.21         75.1757
406.66        74.26435
407.11        73.59197
407.55        73.35038
408.00        73.62754
408.45        74.24963
408.90        74.84327
409.34        75.06333
409.79        74.43634
410.24        73.30188
410.68        72.73876
411.13        72.86837
411.58        73.08726
412.03         73.3227
412.47        73.71529
412.92        74.15025
413.37        74.61588
413.81        74.96434
414.26        75.01584
414.71        74.73124
415.15        74.15312
415.60        73.49007
416.05        73.10302
416.49        73.09105
416.94        73.38536
417.39        73.74808
417.83        73.74715
418.28        73.30859
418.73        72.58943
419.17        71.90385
419.62        71.74747
420.07        72.16419
420.51        72.96702
420.96        73.84106
421.41        74.18288
421.85        73.82153
422.30        73.30098
422.74        72.73111
423.19         71.8512
423.64        70.95939
424.08        71.21231
424.53        72.40305
424.98        73.04703
425.42        72.95946
425.87        73.13261
426.31        73.55575
426.76        73.39357
427.21          72.903
427.65        73.14473
428.10        73.98391
428.54        74.88448
428.99        75.23891
429.44        75.37444
429.88        75.22633
430.33        76.03802
430.77        77.07645
431.22        75.88242
431.66        73.05256
432.11        71.37054
432.56        71.25472
433.00        72.12648
433.45        73.78694
433.89        75.74002
434.34        76.52645
434.78        77.69508
435.23        74.36023
435.67        71.90042
436.12        74.18592
436.57        75.26399
437.01        76.17889
437.46        76.44877
437.90        76.18008
438.35        76.08289
438.79        76.17943
439.24        76.11493
439.68         75.9163
440.13        75.65443
440.57        75.59663
441.02        76.35777
441.46        77.62342
441.91        78.62103
442.35        78.96148
442.80        78.05753
443.24        76.43601
443.69        76.87128
444.13        78.97011
444.58        78.94592
445.02        77.04601
445.47        76.78175
445.91         78.0387
446.36        78.38184
446.80        77.72437
447.24        77.39153
447.69        77.53941
448.13        77.44756
448.58        77.92652
449.02        78.32518
449.47        78.78257
449.91        79.18195
450.36        79.45472
450.80        79.53394
451.25        79.42107
451.69        79.14491
452.13        78.78059
452.58        78.40737
453.02        78.11024
453.47        77.99774
453.91        78.07741
454.36        78.35806
454.80        78.71845
455.24        78.83186
455.69        78.65205
456.13        78.38548
456.58        78.15987
457.02        77.74487
457.46        77.36713
457.91        77.63789
458.35        78.34696
458.79        78.64702
459.24        78.50378
459.68         78.2335
460.13        77.87939
460.57        77.58155
461.01        77.49264
461.46        76.48479
461.90        76.21399
462.34        76.56325
462.79        75.56855
463.23        75.93261
463.68        76.77999
464.12        77.41331
464.56         77.6396
465.01        77.89198
465.45        78.02415
465.89        77.80373
466.34        77.19054
466.78        76.10341
467.22        75.14843
467.67        73.93975
468.11        75.42159
468.55        76.11026
468.99        76.48491
469.44        76.24245
469.88         75.5866
470.32        75.50804
470.77        75.93401
471.21        75.91727
471.65        75.41991
472.10        75.14304
472.54        75.14697
472.98        75.15182
473.42        75.13725
473.87        75.40026
474.31        75.74722
474.75        75.44938
475.20         74.7234
475.64        74.62755
476.08         75.1171
476.52        75.25679
476.97        75.03277
477.41        74.96607
477.85        75.06283
478.29         75.1907
478.74        75.80127
479.18        75.50129
479.62        74.26112
480.06        74.69475
480.50        75.16416
480.95        75.59869
481.39        75.45215
481.83        74.84167
482.27        74.89842
482.72        74.33689
483.16        73.18539
483.60        73.26676
484.04        74.98775
484.48        75.42513
484.93        75.19922
485.37        76.93266
485.81         77.5472
486.25         75.8958
486.69        103.2693
487.14         83.3849
487.58        52.12537
488.02        63.50152
488.46        72.34376
488.90        71.60352
489.34        74.06049
489.79        72.87082
490.23        75.00445
490.67        75.73347
491.11        74.74597
491.55        74.70521
491.99         75.1515
492.43        74.93063
492.88        74.14284
493.32        74.13217
493.76        74.35389
494.20        74.62881
494.64        74.67565
495.08        74.79202
495.52        75.01628
495.96        74.84875
496.41          74.341
496.85        74.88107
497.29         76.0658
497.73        74.72791
498.17        72.03809
498.61        72.18442
499.05         75.1763
499.49        75.91541
499.93        75.91174
500.37        75.63659
500.82        75.08691
501.26        74.87818
501.70        75.54964
502.14        75.85429
502.58         75.8985
503.02         75.3642
503.46        75.48753
503.90        75.04099
504.34        74.53429
504.78        74.28296
505.22        74.36559
505.66        74.70644
506.10        75.18019
506.54        75.48121
506.98        75.42583
507.42        75.19273
507.86        75.04879
508.30        73.88911
508.74        74.58942
509.18         74.6631
509.62        74.82643
510.06        74.91177
510.50        74.89349
510.94        74.78681
511.38        74.65027
511.82        74.64278
512.26        74.78773
512.70        75.03272
513.14        75.30048
513.58        75.46967
514.02        75.49997
514.46        75.42384
514.90        75.30004
515.34        75.20746
515.78        75.16238
516.22        75.19433
516.66        75.26159
517.10         75.1545
517.54         74.8606
517.98        74.93041
518.42        74.69498
518.86        74.74971
519.30        74.88628
519.74        75.12874
520.18        75.40338
520.62        75.58518
521.06         75.6488
521.50        75.62994
521.93        75.55558
522.37        75.46916
522.81         75.4001
523.25        75.33652
523.69        75.31281
524.13        75.38391
524.57        75.55058
525.01        75.79331
525.45        76.04768
525.89        76.20602
526.32        76.23036
526.76        76.14751
527.20        75.99687
527.64        75.86491
528.08        75.79611
528.52        75.70594
528.96        75.55337
529.40        75.48706
529.83        75.54263
530.27         74.9187
530.71        75.12605
531.15        75.01765
531.59         75.0455
532.03        75.14431
532.46        75.32721
532.90        75.57977
533.34        75.86134
533.78        76.16378
534.22        76.40276
534.66        76.46329
535.09        76.31957
535.53        76.03624
535.97          75.692
536.41        75.43785
536.85        75.32365
537.28        75.31818
537.72        75.37198
538.16        75.41482
538.60        75.42203
539.04        75.35743
539.47        75.24934
539.91        75.33966
540.35        75.55249
540.79        75.55486
541.22        75.35651
541.66        75.28316
542.10        75.33655
542.54        75.31974
542.97        75.26027
543.41          75.319
543.85        75.48823
544.29        75.74286
544.72        75.94561
545.16        75.91204
545.60        75.60765
546.04        75.10183
546.47        74.60555
546.91        74.45349
547.35        74.70979
547.79        75.32156
548.22        75.98564
548.66         76.1998
549.10        75.85801
549.53        75.10686
549.97        74.27817
550.41         73.8417
550.84        73.91444
551.28        74.32519
551.72         74.8885
552.15        75.28953
552.59         75.4081
553.03        75.39788
553.46        75.33338
553.90        75.21446
554.34        75.03928
554.77        75.39742
555.21        75.08065
555.65        75.08458
556.08        75.37151
556.52         74.8282
556.96        75.25105
557.39        75.02794
557.83        74.78648
558.27        74.77689
558.70        74.99345
559.14        75.17504
559.57        75.27061
560.01        75.36329
560.45        75.43935
560.88        75.59221
561.32        75.73494
561.75        75.46791
562.19        74.93687
562.63        74.45827
563.06        74.19266
563.50        74.36304
563.93        74.82051
564.37        75.12366
564.80        75.13754
565.24        74.98551
565.68        74.74332
566.11        74.61642
566.55        74.70073
566.98        74.76588
567.42        74.80416
567.85        75.13327
568.29         75.6749
568.72        75.55253
569.16        75.00472
569.60          75.551
570.03        76.06509
570.47        76.06369
570.90        75.55647
571.34        74.35007
571.77        74.91554
572.21        75.18114
572.64        74.67773
573.08        73.67581
573.51        70.19597
573.95        72.94099
574.38        77.74599
574.82        75.73482
