SpectraSmart Spectrum 2.9.0.0
--------- Device Information -----------
Spectrum Name :  反射率_0
Saving Time :  2024/04/26 01:35:48
Spectro-Module Model Name : SE2030-DUVN
Spectro-Module Serial Number : OS361AC55029948
Wavelength Start : 200
Wavelength End : 1025
Wavelength Unit : Wavelength(nm)
Spectrum Unit : Reflectance(%)
-----------Spectrum Setting ------------
Integration Time : 20ms
Average : 10
Boxcar : 0
Background removal :  enabled
linearity correction :  enabled
SC :  disabled
Intensity correction :  disabled
DWT denoise :  enabled
savitzky-golay :  disabled
FFT :  disabled
Running average :  disabled
Kalman :  disabled
High pass :  disabled
---------------BEGIN--------------------
Wavelength(nm)             Reflectance(%)
200.29               0
200.75        106.8622
201.21        97.45983
201.67        87.28487
202.13        82.10024
202.58        82.50559
203.04        87.19746
203.50         93.5145
203.96        96.74735
204.42        95.83384
204.88        92.67754
205.34        89.63257
205.80        89.13833
206.26        92.16138
206.72        100.4193
207.18        117.1691
207.64         131.833
208.10        121.8289
208.55        101.5522
209.01        88.92387
209.47        84.74971
209.93        85.44027
210.39        89.24295
210.85        93.64481
211.31         93.5143
211.77        87.50542
212.23        77.75309
212.69        68.50936
213.14         66.2989
213.60        72.01483
214.06        83.60818
214.52        96.76791
214.98        104.8687
215.44        106.0815
215.90        102.5811
216.36        96.78531
216.81         91.9572
217.27        89.55929
217.73         88.6328
218.19        88.04731
218.65        86.30752
219.11        82.76831
219.57        77.00311
220.02        70.44064
220.48        69.17583
220.94        75.42733
221.40        86.58202
221.86        95.12112
222.32        93.96799
222.77         84.7552
223.23        72.49049
223.69        62.00061
224.15        58.20184
224.61        60.58755
225.06        66.71473
225.52        73.45448
225.98        76.85252
226.44        76.13948
226.90        72.96526
227.36        69.26728
227.81        67.61398
228.27        68.80753
228.73        71.54589
229.19        74.74847
229.65        76.89444
230.10        77.56791
230.56         77.6084
231.02        77.33601
231.48        77.07961
231.93        76.95068
232.39        76.86897
232.85        77.04157
233.31        77.93407
233.77        79.58314
234.22        81.93801
234.68        84.43942
235.14        85.91267
235.60        85.99268
236.05        85.01441
236.51        83.69692
236.97        83.11685
237.43        83.59951
237.88        85.05331
238.34         87.1981
238.80        89.55124
239.26        91.59899
239.71        93.75228
240.17        95.26276
240.63        95.63884
241.08        95.08508
241.54        93.59898
242.00        92.62041
242.46        94.51487
242.91        101.6656
243.37        119.6722
243.83        170.8917
244.28        308.8744
244.74        411.7568
245.20        288.5475
245.66        207.8376
246.11        186.9272
246.57        197.8584
247.03        252.5485
247.48         428.953
247.94        375.6147
248.40        195.3495
248.85        136.1976
249.31        117.0835
249.77        112.6689
250.22        115.6446
250.68        124.6937
251.14        139.4189
251.59        150.6931
252.05        148.6559
252.51        137.4556
252.96        124.9053
253.42        119.0676
253.88        119.7726
254.33        123.9664
254.79         130.992
255.25        139.1574
255.70        146.5982
256.16        153.6413
256.62        158.6939
257.07        160.0827
257.53        159.0009
257.99        155.7569
258.44        151.3052
258.90        148.3628
259.35         145.933
259.81        143.9153
260.27        141.1823
260.72         136.578
261.18        131.1166
261.63        124.9523
262.09        119.1842
262.55        113.9798
263.00        109.3436
263.46        105.5152
263.91        102.1887
264.37        99.74158
264.83        97.69492
265.28        95.76639
265.74         93.7157
266.19        90.77946
266.65        87.42767
267.11        84.01906
267.56        80.92162
268.02        78.60822
268.47        76.86329
268.93        75.52814
269.38        74.41455
269.84        73.43166
270.30        72.51725
270.75        71.71785
271.21        70.94549
271.66        70.03341
272.12        68.96433
272.57        67.74021
273.03        66.54538
273.48        65.54639
273.94        64.82965
274.39        64.25469
274.85        63.74571
275.31        63.10852
275.76        62.26929
276.22        61.35229
276.67        60.33773
277.13         59.3793
277.58        58.43531
278.04        57.55935
278.49        56.68726
278.95         55.8875
279.40        55.08308
279.86        54.35442
280.31        53.61623
280.77        52.92673
281.22        52.22836
281.68        51.58979
282.13        50.99282
282.59         50.5204
283.04        50.14054
283.50        49.89393
283.95        49.69277
284.41        49.47768
284.86        49.20583
285.32        48.91571
285.77        48.67786
286.22        48.70081
286.68        48.97534
287.13        49.36608
287.59        49.67796
288.04        49.56787
288.50        49.03776
288.95        48.18339
289.41        47.25159
289.86        46.44902
290.32        45.93725
290.77        45.63631
291.22        45.57217
291.68        45.72772
292.13        46.07985
292.59        46.65612
293.04        47.42075
293.50        48.32239
293.95        49.30777
294.40        50.33934
294.86        51.39879
295.31        52.47288
295.77        53.57016
296.22        54.69455
296.68        55.81913
297.13        56.87059
297.58        57.85688
298.04        58.82008
298.49        59.86904
298.95        61.23803
299.40        62.94016
299.85        64.89649
300.31        66.91973
300.76        68.69636
301.21        70.12559
301.67         71.3467
302.12        72.40159
302.58        73.50626
303.03        74.67287
303.48        75.86764
303.94        77.18979
304.39        78.70808
304.84        80.43349
305.30        82.35287
305.75        84.20001
306.20        85.60607
306.66        86.54678
307.11          87.078
307.57        87.56653
308.02        88.40734
308.47        89.74313
308.93        91.44712
309.38        93.22318
309.83        94.67275
310.29        95.68502
310.74        96.34412
311.19         96.8765
311.65        97.62108
312.10        98.64211
312.55        99.85136
313.00        101.0052
313.46        101.7245
313.91        101.9157
314.36        101.7266
314.82        101.4995
315.27         101.683
315.72        102.4144
316.18        103.5487
316.63         104.796
317.08        105.6357
317.53        105.9209
317.99        105.7908
318.44        105.5572
318.89        105.7263
319.35        106.3928
319.80        107.4349
320.25        108.4823
320.70        108.9289
321.16        108.6434
321.61        107.8357
322.06        106.9209
322.51        106.5434
322.97        106.8284
323.42        107.6171
323.87         108.564
324.32        109.0799
324.78        108.9837
325.23        108.5159
325.68         107.911
326.13        107.5811
326.59        107.6295
327.04        107.9486
327.49        108.4291
327.94        108.9357
328.39        109.3927
328.85        109.8244
329.30        110.2327
329.75         110.415
330.20        110.3732
330.66        110.1543
331.11        109.9908
331.56        110.1807
332.01        110.8168
332.46        111.7928
332.92        112.9694
333.37        114.3021
333.82        115.5923
334.27        116.8523
334.72        117.8638
335.17        118.2874
335.63        118.0887
336.08        117.4276
336.53         116.665
336.98        116.4458
337.43        116.9391
337.88        117.9636
338.34        119.2671
338.79         120.517
339.24        121.5143
339.69        122.3795
340.14        123.0101
340.59        123.2358
341.05        123.0841
341.50        122.5809
341.95        122.0476
342.40        122.0024
342.85        122.5449
343.30        123.5429
343.75        124.6868
344.20        125.4081
344.66        125.5554
345.11        125.2874
345.56        124.8281
346.01        124.5204
346.46        124.4752
346.91        124.5762
347.36        124.7682
347.81        124.9786
348.26         125.172
348.72        125.3999
349.17        125.6062
349.62        125.7308
350.07        125.7512
350.52        125.6551
350.97        125.4884
351.42        125.3377
351.87        125.2185
352.32        125.1147
352.77        124.9541
353.22        124.6209
353.67        124.1064
354.13        123.4757
354.58        122.8153
355.03         122.322
355.48         122.029
355.93        121.8674
356.38        121.7188
356.83        121.3959
357.28        120.8442
357.73        120.1218
358.18         119.291
358.63        118.4517
359.08        117.6486
359.53        116.8637
359.98        116.0897
360.43        115.3158
360.88        114.5304
361.33        113.7296
361.78        112.9394
362.23        112.1969
362.68          111.51
363.13        110.8843
363.58        110.2296
364.03        109.3999
364.48        108.3819
364.93        107.2209
365.38        106.0887
365.83        105.2676
366.28        104.7995
366.73        104.5701
367.18        104.3827
367.63        103.9174
368.08        103.0998
368.53        102.0669
368.98        100.9196
369.43        99.79762
369.88         98.7692
370.33        97.79217
370.78          96.958
371.23        96.42644
371.68        96.20818
372.13        96.25403
372.58        96.38638
373.03        96.29073
373.48        95.88146
373.93        95.25033
374.38        94.51073
374.83        93.84531
375.28        93.31078
375.72        92.83055
376.17        92.42416
376.62        92.10644
377.07        91.85353
377.52        91.65169
377.97        91.41122
378.42         90.9819
378.87        90.34869
379.32        89.58468
379.77         88.7611
380.22         87.9743
380.67        87.25188
381.11         86.5625
381.56        85.94628
382.01        85.47605
382.46        85.16871
382.91        85.03147
383.36        84.93693
383.81        84.67634
384.26        84.21197
384.71        83.58369
385.15        82.96042
385.60        82.68162
386.05        82.73948
386.50        83.01538
386.95        83.24645
387.40        83.00103
387.85        82.24349
388.29         81.1576
388.74        80.12167
389.19        79.35127
389.64        78.88315
390.09        78.57266
390.54        78.44489
390.98        78.54263
391.43        78.82109
391.88        79.25961
392.33        79.59245
392.78        79.30546
393.23        78.37702
393.67        77.20261
394.12        76.31908
394.57        75.19538
395.02        75.41148
395.47        76.10021
395.91        76.62925
396.36        77.21513
396.81        77.44169
397.26        77.38906
397.71        77.11733
398.15        76.68624
398.60        76.24911
399.05        75.88581
399.50        75.54513
399.95        74.78185
400.39        74.05898
400.84        73.50163
401.29        73.27777
401.74        73.50497
402.18        73.99123
402.63        73.88483
403.08        73.35679
403.53        73.42556
403.97        74.11755
404.42        74.80328
404.87        75.18918
405.32        75.07648
405.76        74.39944
406.21         73.3186
406.66         72.1852
407.11        71.53146
407.55        71.49339
408.00         71.8443
408.45        72.38382
408.90        72.85706
409.34        73.00177
409.79         72.5311
410.24        71.69988
410.68        71.23875
411.13        71.24986
411.58        71.33923
412.03        71.47047
412.47        71.74657
412.92        72.07778
413.37        72.47079
413.81        72.78611
414.26        72.84783
414.71        72.61377
415.15        72.12488
415.60        71.56033
416.05          71.235
416.49        71.23237
416.94        71.48421
417.39        71.78418
417.83        71.75775
418.28        71.34632
418.73        70.69852
419.17        70.07841
419.62        69.90421
420.07         70.2136
420.51         70.8442
420.96        71.56731
421.41        71.92335
421.85        71.75853
422.30        71.54172
422.74        71.27023
423.19        70.54623
423.64         69.6329
424.08        69.69608
424.53        70.60464
424.98        71.05308
425.42        70.91351
425.87        71.11138
426.31        71.60011
426.76        71.49609
427.21        71.01926
427.65         71.2484
428.10        72.10584
428.54        72.89649
428.99         73.5772
429.44        73.85461
429.88        73.78078
430.33        74.82878
430.77        76.16851
431.22        74.63438
431.66         71.3331
432.11        69.57592
432.56        69.81939
433.00        70.79099
433.45        72.34275
433.89        74.32772
434.34        75.19309
434.78         77.1888
435.23        72.78034
435.67        69.92361
436.12        72.87915
436.57        74.29422
437.01        74.68813
437.46        75.12888
437.90        75.66183
438.35        74.35349
438.79        75.37191
439.24        75.13408
439.68        74.91597
440.13         74.5756
440.57        74.44074
441.02        75.34431
441.46        76.83968
441.91        77.70298
442.35        77.65889
442.80        76.65915
443.24        75.24313
443.69        75.90776
444.13        78.18092
444.58        78.26537
445.02        76.36514
445.47        76.01757
445.91        77.18021
446.36        77.47617
446.80        76.82424
447.24        76.91168
447.69        76.91508
448.13        77.16622
448.58        77.40398
449.02        77.69096
449.47        77.97516
449.91        78.20663
450.36        78.37195
450.80        78.45188
451.25        78.43124
451.69         78.2588
452.13        77.96724
452.58        77.58813
453.02        77.22977
453.47        77.10249
453.91        77.21245
454.36        77.50374
454.80        77.85244
455.24        77.86617
455.69        77.48055
456.13        77.13387
456.58        76.98939
457.02         76.0349
457.46        75.60522
457.91        75.97832
458.35        76.98265
458.79        77.43364
459.24        77.19888
459.68        76.91144
460.13        76.63154
460.57        76.28419
461.01        76.00196
461.46        75.45135
461.90        74.59512
462.34        75.35675
462.79        74.81683
463.23         74.8889
463.68        75.43845
464.12        75.77635
464.56        76.03492
465.01        76.14666
465.45        76.02232
465.89        75.90905
466.34        75.66309
466.78        74.53261
467.22        73.17014
467.67        72.22351
468.11        73.91404
468.55        74.65747
468.99        74.72696
469.44        74.33935
469.88        73.70771
470.32        73.54718
470.77        73.82671
471.21         73.7821
471.65        73.39517
472.10        73.31305
472.54         73.5158
472.98        73.63029
473.42        73.61777
473.87        73.70528
474.31        73.81184
474.75        73.61481
475.20        73.25397
475.64          73.169
476.08        73.49368
476.52        73.48228
476.97        73.15697
477.41        72.94825
477.85        72.97761
478.29        72.62382
478.74        73.24489
479.18        73.24928
479.62        72.22131
480.06        72.77599
480.50        73.08862
480.95        73.49725
481.39        73.59352
481.83        72.38673
482.27        72.88474
482.72        72.63943
483.16        71.55985
483.60        71.70837
484.04        73.26022
484.48        73.59506
484.93        73.34003
485.37        74.59386
485.81         75.4086
486.25        73.59187
486.69        101.7528
487.14        82.30097
487.58        50.86021
488.02        62.75912
488.46        70.49321
488.90        69.64301
489.34        71.46178
489.79        70.33655
490.23        72.68008
490.67         73.3129
491.11        71.95605
491.55        71.81508
491.99        72.44818
492.43        72.29139
492.88        71.42489
493.32        71.36877
493.76        71.62711
494.20        71.96391
494.64         72.1081
495.08        72.39522
495.52        72.80018
495.96        72.66965
496.41        72.05798
496.85        72.50732
497.29        73.59509
497.73        72.28316
498.17        69.66982
498.61        69.90717
499.05        72.91008
499.49        73.38847
499.93        72.93581
500.37        72.50141
500.82        72.03807
501.26        72.21579
501.70        72.72109
502.14        72.91959
502.58        72.67909
503.02        72.50613
503.46        72.40662
503.90        72.04522
504.34        71.53684
504.78        71.25794
505.22        71.26254
505.66        71.39632
506.10        71.60455
506.54         71.8298
506.98        71.92799
507.42        71.85513
507.86        71.70002
508.30        71.07665
508.74        71.61688
509.18        71.78839
509.62        71.95813
510.06        72.00677
510.50        71.91234
510.94        71.69419
511.38        71.44717
511.82        71.35709
512.26        71.46001
512.70        71.70352
513.14        71.98707
513.58        72.14475
514.02        72.12607
514.46        71.97685
514.90         71.7832
515.34        71.66453
515.78        71.64459
516.22         71.7462
516.66        71.89889
517.10        71.82796
517.54        71.50877
517.98        71.57407
518.42        71.28531
518.86        71.34978
519.30        71.53763
519.74        71.86375
520.18        72.22474
520.62        72.44898
521.06        72.49937
521.50        72.42564
521.93        72.27451
522.37        72.12157
522.81        72.00916
523.25        71.92017
523.69        71.88111
524.13        71.93372
524.57        72.07681
525.01        72.29716
525.45         72.5428
525.89        72.72455
526.32        72.80425
526.76          72.796
527.20        72.71931
527.64         72.6303
528.08        72.56596
528.52        72.45734
528.96         72.2737
529.40        72.17066
529.83        72.19184
530.27        71.57017
530.71         71.7635
531.15        71.69843
531.59        71.80555
532.03        72.01121
532.46        72.30293
532.90        72.62164
533.34        72.91323
533.78        73.19355
534.22        73.39224
534.66        73.39248
535.09        73.17311
535.53        72.89095
535.97          72.468
536.41        72.22923
536.85        72.17213
537.28        72.26282
537.72        72.40079
538.16        72.43406
538.60        72.32884
539.04        72.07943
539.47         71.7794
539.91         71.7702
540.35        72.00175
540.79        72.09978
541.22        72.01608
541.66        72.07641
542.10        72.08999
542.54        72.03143
542.97        71.90054
543.41         71.8925
543.85         72.0125
544.29        72.22281
544.72        72.39684
545.16        72.36517
545.60         72.0959
546.04        71.65482
546.47        71.22555
546.91        71.11574
547.35        71.38078
547.79        71.92339
548.22        72.48602
548.66        72.74238
549.10        72.55577
549.53        71.84388
549.97        70.94538
550.41        70.51252
550.84        70.66416
551.28        71.12516
551.72        71.68861
552.15         72.0683
552.59          72.161
553.03        72.05991
553.46        71.85908
553.90        71.77232
554.34        71.84464
554.77        71.92676
555.21        71.95658
555.65         72.0691
556.08        72.28022
556.52        71.69737
556.96        72.01528
557.39        71.85022
557.83        71.75996
558.27        71.76807
558.70        71.88567
559.14        72.06861
559.57        72.27547
560.01        72.45465
560.45        72.56606
560.88        72.75584
561.32        72.91879
561.75        72.55701
562.19        71.87311
562.63        71.39458
563.06        71.25199
563.50        71.46268
563.93        71.86617
564.37        72.09216
564.80        72.04647
565.24        71.93992
565.68        71.81155
566.11        71.70493
566.55        71.69803
566.98        71.65374
567.42        71.61462
567.85        71.89977
568.29        72.46361
568.72        72.54389
569.16        72.31408
569.60        72.94548
570.03        73.41034
570.47        73.39377
570.90        72.99698
571.34        71.40188
571.77        72.41084
572.21        72.34061
572.64        71.93556
573.08        71.03049
573.51        67.65697
573.95        70.62606
574.38        75.73022
574.82        73.73454
