SpectraSmart Spectrum 2.9.0.0
--------- Device Information -----------
Spectrum Name :  反射率_0
Saving Time :  2024/04/26 01:43:29
Spectro-Module Model Name : SE2030-DUVN
Spectro-Module Serial Number : OS361AC55029948
Wavelength Start : 200
Wavelength End : 1025
Wavelength Unit : Wavelength(nm)
Spectrum Unit : Reflectance(%)
-----------Spectrum Setting ------------
Integration Time : 20ms
Average : 10
Boxcar : 0
Background removal :  enabled
linearity correction :  enabled
SC :  disabled
Intensity correction :  disabled
DWT denoise :  enabled
savitzky-golay :  disabled
FFT :  disabled
Running average :  disabled
Kalman :  disabled
High pass :  disabled
---------------BEGIN--------------------
Wavelength(nm)             Reflectance(%)
200.29               0
200.75        85.27174
201.21         77.2484
201.67        68.13388
202.13        62.59455
202.58        61.20847
203.04        63.02353
203.50        66.53703
203.96        69.05522
204.42        69.65283
204.88        69.15019
205.34        68.59749
205.80         69.1924
206.26        71.62128
206.72        77.23102
207.18        87.55497
207.64        94.18835
208.10        83.88849
208.55        68.65168
209.01        60.28361
209.47        58.96463
209.93        61.89471
210.39        68.07587
210.85        74.63255
211.31        75.11488
211.77        67.77752
212.23         55.2828
212.69        42.91287
213.14        38.76237
213.60        44.24892
214.06        57.08668
214.52        72.56635
214.98         83.2833
215.44        86.98227
215.90        85.83154
216.36        82.14574
216.81        79.08295
217.27         77.8594
217.73        77.27122
218.19        76.20698
218.65        73.13985
219.11        67.19936
219.57        57.73485
220.02        45.28102
220.48        35.75961
220.94        33.35918
221.40        37.71069
221.86        43.52439
222.32        44.59859
222.77        41.04248
223.23        35.72473
223.69        31.69857
224.15        32.21759
224.61        36.75378
225.06        43.55637
225.52        49.87842
225.98        52.32851
226.44        50.39313
226.90        45.69431
227.36          40.228
227.81        36.64408
228.27        35.88486
228.73        36.87907
229.19        38.95669
229.65        41.10803
230.10        42.78612
230.56        44.18005
231.02        45.17674
231.48        45.59151
231.93         45.4765
232.39        44.93283
232.85        44.06789
233.31        43.13197
233.77        42.21567
234.22        41.23779
234.68        40.40424
235.14        40.02814
235.60        40.20452
236.05        40.93357
236.51        41.80018
236.97        42.13504
237.43        41.81279
237.88        40.93612
238.34        39.99206
238.80        40.41793
239.26        42.85177
239.71         47.0332
240.17        51.71285
240.63        55.12341
241.08        56.71839
241.54        56.76397
242.00        56.23715
242.46        56.66475
242.91        59.17202
243.37        65.61053
243.83        84.46615
244.28        138.6403
244.74         186.982
245.20         144.606
245.66        113.8588
246.11        106.7212
246.57        113.6498
247.03         142.713
247.48        234.7937
247.94        210.2834
248.40        117.0032
248.85        85.68183
249.31         75.6758
249.77        74.44112
250.22        78.17539
250.68        86.73878
251.14        99.41076
251.59        106.7373
252.05        100.3277
252.51        84.96927
252.96        70.07692
253.42        64.16076
253.88        66.33476
254.33         73.0419
254.79        81.60011
255.25        87.78826
255.70        90.35637
256.16        91.25224
256.62        90.48873
257.07         87.8577
257.53         84.1973
257.99        79.35795
258.44        74.54028
258.90        72.15528
259.35        71.32108
259.81        71.30424
260.27        70.44353
260.72        67.09775
261.18        62.03249
261.63         55.9789
262.09        50.49244
262.55        46.72563
263.00        44.62508
263.46        43.67432
263.91        42.98895
264.37        41.87742
264.83        40.15219
265.28        37.98035
265.74        35.90157
266.19        34.49557
266.65        33.96589
267.11        33.96177
267.56        34.00145
268.02        33.50654
268.47         32.3648
268.93        30.77704
269.38        29.03743
269.84        27.87261
270.30        27.46979
270.75        27.62482
271.21        27.94284
271.66        27.83764
272.12        27.16077
272.57        26.11245
273.03        25.02366
273.48        24.30914
273.94        24.08586
274.39         24.1617
274.85        24.30706
275.31        24.18995
275.76        23.72696
276.22        23.06208
276.67        22.33951
277.13        21.84451
277.58        21.58802
278.04        21.49298
278.49        21.39522
278.95        21.11399
279.40         20.6022
279.86        19.99399
280.31        19.36695
280.77        18.93155
281.22        18.69529
281.68        18.60069
282.13        18.59606
282.59        18.63532
283.04         18.6858
283.50        18.78747
283.95        18.85986
284.41        18.79147
284.86        18.57116
285.32        18.24059
285.77        17.94992
286.22        17.98428
286.68        18.35558
287.13        18.94481
287.59        19.51493
288.04        19.71037
288.50        19.48916
288.95        18.96462
289.41         18.3629
289.86        17.92415
290.32        17.76954
290.77         17.8108
291.22        18.00743
291.68        18.26098
292.13        18.54749
292.59        18.90895
293.04        19.37295
293.50        19.97207
293.95        20.69432
294.40        21.49129
294.86        22.31069
295.31         23.0929
295.77        23.83309
296.22        24.56035
296.68        25.29941
297.13        26.05631
297.58        26.85832
298.04        27.71779
298.49         28.6812
298.95        29.86469
299.40         31.2689
299.85        32.84964
300.31        34.49547
300.76        36.02882
301.21        37.37432
301.67        38.60081
302.12        39.71549
302.58        40.81728
303.03        41.92398
303.48        43.03476
303.94        44.24083
304.39        45.63027
304.84        47.21491
305.30        48.95582
305.75        50.68126
306.20        52.14416
306.66        53.30832
307.11        54.20564
307.57        55.01115
308.02        55.88935
308.47        56.93843
308.93        58.11747
309.38        59.34108
309.83        60.51833
310.29        61.60496
310.74        62.59817
311.19        63.54986
311.65        64.53927
312.10        65.56674
312.55        66.60989
313.00        67.53873
313.46        68.15193
313.91        68.40643
314.36        68.39352
314.82        68.33814
315.27        68.54417
315.72        69.11139
316.18        69.95139
316.63        70.90561
317.08        71.66838
317.53        72.13856
317.99        72.38452
318.44        72.55054
318.89        72.87705
319.35        73.40469
319.80        74.07803
320.25        74.69704
320.70        74.94322
321.16         74.7585
321.61        74.25749
322.06        73.70232
322.51        73.49709
322.97        73.71723
323.42        74.27737
323.87         74.9365
324.32        75.27926
324.78        75.18383
325.23        74.80778
325.68        74.34962
326.13        74.15474
326.59        74.30539
327.04        74.72051
327.49         75.2563
327.94        75.70129
328.39        75.97823
328.85        76.13162
329.30        76.26663
329.75        76.42542
330.20        76.64743
330.66        76.89761
331.11        77.20911
331.56        77.57531
332.01        78.00184
332.46        78.47121
332.92        78.98334
333.37         79.6799
333.82        80.49451
334.27        81.39069
334.72        82.16529
335.17        82.49149
335.63        82.31291
336.08        81.77656
336.53        81.16168
336.98        80.95101
337.43        81.27442
337.88        81.99372
338.34        82.90879
338.79        83.76268
339.24        84.40908
339.69        84.94234
340.14         85.3382
340.59          85.553
341.05        85.60878
341.50        85.49197
341.95        85.35522
342.40        85.46045
342.85        85.85554
343.30        86.47826
343.75        87.15749
344.20        87.57586
344.66        87.65601
345.11        87.48425
345.56        87.20014
346.01        87.01502
346.46        86.99659
346.91        87.07786
347.36        87.22308
347.81        87.38048
348.26        87.53214
348.72        87.72736
349.17        87.91703
349.62        88.07054
350.07        88.17278
350.52        88.20273
350.97         88.2125
351.42        88.29325
351.87        88.45453
352.32        88.67937
352.77        88.84383
353.22        88.75228
353.67         88.3811
354.13        87.80604
354.58        87.20263
355.03        86.90201
355.48        86.95994
355.93        87.26617
356.38        87.58613
356.83        87.54665
357.28        87.06124
357.73        86.25808
358.18        85.33053
358.63        84.58128
359.08        84.10508
359.53        83.81671
359.98        83.61477
360.43        83.34285
360.88        82.94737
361.33         82.4712
361.78        81.97859
362.23         81.5659
362.68        81.25131
363.13        80.99755
363.58        80.70276
364.03        80.21423
364.48        79.51476
364.93        78.66832
365.38        77.81767
365.83        77.19125
366.28        76.83601
366.73        76.66273
367.18        76.56009
367.63        76.34465
368.08        75.96053
368.53        75.48713
368.98        74.92796
369.43        74.27789
369.88        73.56528
370.33        72.78761
370.78        72.07617
371.23         71.6592
371.68        71.57648
372.13        71.76009
372.58        72.03136
373.03        72.07527
373.48        71.80443
373.93        71.31859
374.38        70.73426
374.83        70.23357
375.28        69.87358
375.72         69.5773
376.17         69.3565
376.62        69.20764
377.07        69.10541
377.52        69.04533
377.97        68.95516
378.42        68.71078
378.87        68.30058
379.32        67.78326
379.77        67.22005
380.22        66.69924
380.67        66.24384
381.11        65.81976
381.56         65.4581
382.01        65.21491
382.46         65.0958
382.91         65.1069
383.36        65.12051
383.81        64.92829
384.26        64.50284
384.71        63.89935
385.15        63.30349
385.60        63.05755
386.05        63.16968
386.50        63.51513
386.95        63.85572
387.40        63.79158
387.85        63.26595
388.29        62.44865
388.74        61.62216
389.19        60.94095
389.64        60.45105
390.09        60.06123
390.54        59.84045
390.98        59.90719
391.43         60.2386
391.88        60.76556
392.33        61.23874
392.78        61.23248
393.23        60.71634
393.67        59.96939
394.12        59.29602
394.57        58.62549
395.02        58.18491
395.47        58.58324
395.91        59.63514
396.36        60.24333
396.81        60.24036
397.26        60.13874
397.71        59.99896
398.15        59.65896
398.60        59.24265
399.05         58.8134
399.50        58.40009
399.95        57.87391
400.39        57.52755
400.84        57.17927
401.29        56.94888
401.74        57.03156
402.18        57.36882
402.63        57.52214
403.08        57.52536
403.53        57.74311
403.97        58.16005
404.42        58.53416
404.87        58.71709
405.32        58.55711
405.76        58.02833
406.21        57.30185
406.66         56.5967
407.11        56.11093
407.55        55.98604
408.00        56.39503
408.45        57.13658
408.90        57.53394
409.34         57.4035
409.79        56.97569
410.24        56.45067
410.68        56.11258
411.13        56.04527
411.58        56.09483
412.03        56.24292
412.47        56.51325
412.92        56.82906
413.37        57.20352
413.81        57.51264
414.26        57.60053
414.71        57.42875
415.15        57.03328
415.60        56.55548
416.05        56.25105
416.49        56.19419
416.94        56.33686
417.39        56.53037
417.83        56.50831
418.28        56.22284
418.73          55.762
419.17        55.33189
419.62        55.25563
420.07        55.56625
420.51        56.15523
420.96        56.77528
421.41        56.99897
421.85         56.7164
422.30        56.20354
422.74        55.64512
423.19        55.27579
423.64        55.19586
424.08        55.60978
424.53        56.33186
424.98        56.80979
425.42        56.92772
425.87        57.00014
426.31        57.08035
426.76        56.97803
427.21        56.83612
427.65        57.02824
428.10        57.49325
428.54        58.06239
428.99        58.57687
429.44         58.8452
429.88        58.81979
430.33        59.48353
430.77        60.27809
431.22         59.1245
431.66        56.63348
432.11        55.59898
432.56        56.19859
433.00        56.93162
433.45         57.6132
433.89        59.05408
434.34        60.14353
434.78        61.12662
435.23        57.69258
435.67        56.44333
436.12        58.51199
436.57        59.46659
437.01         59.7031
437.46        59.84851
437.90        60.03202
438.35        60.31403
438.79        60.62026
439.24        60.72683
439.68        60.63916
440.13        60.31627
440.57        60.04433
441.02        60.66738
441.46        61.86158
441.91        62.42091
442.35         62.1882
442.80        61.39391
443.24        60.42042
443.69         60.9855
444.13         62.7085
444.58        62.76812
445.02        61.33538
445.47        61.08867
445.91        61.97557
446.36        62.21934
446.80        61.77704
447.24        61.58153
447.69        61.69835
448.13        61.84413
448.58        62.02823
449.02        62.28377
449.47        62.56806
449.91        62.82082
450.36        63.01919
450.80        63.15652
451.25        63.22553
451.69         63.1904
452.13        63.07896
452.58        62.91502
453.02        62.76747
453.47        62.77467
453.91        62.92965
454.36        63.20294
454.80        63.53151
455.24        63.60611
455.69        63.36574
456.13         63.3878
456.58        63.28057
457.02        62.56718
457.46         61.9453
457.91        62.04505
458.35        62.81762
458.79        63.07245
459.24        62.77947
459.68        62.50306
460.13        62.31747
460.57        62.18667
461.01        62.20448
461.46        61.80196
461.90        61.69513
462.34         62.1259
462.79         61.5794
463.23        61.88988
463.68        62.41159
464.12        62.69974
464.56        62.67225
465.01         62.5672
465.45        62.35194
465.89         62.3013
466.34         62.3152
466.78        61.53529
467.22        60.36499
467.67        60.25554
468.11        61.16001
468.55        61.83001
468.99         61.9708
469.44        61.73357
469.88        61.29678
470.32        61.34602
470.77        61.81288
471.21        61.88256
471.65        61.51551
472.10        61.31063
472.54        61.32025
472.98        61.34023
473.42        61.36657
473.87        61.56337
474.31        61.81176
474.75        61.73751
475.20        61.43608
475.64        61.39071
476.08        61.59691
476.52        61.64258
476.97        61.53446
477.41        61.49826
477.85        61.55077
478.29        61.60201
478.74         62.0951
479.18        61.80991
479.62         61.0608
480.06        61.51969
480.50        61.94891
480.95        62.26856
481.39        62.02197
481.83        61.86117
482.27        61.76149
482.72        61.41952
483.16        60.47786
483.60        60.72693
484.04        62.04299
484.48        62.42102
484.93        62.29539
485.37        63.56202
485.81        64.28168
486.25        62.88848
486.69        84.30467
487.14        68.33566
487.58        42.87302
488.02         53.1185
488.46        60.55665
488.90        60.23619
489.34        61.70276
489.79        60.61136
490.23         62.5649
490.67         63.3533
491.11        62.65073
491.55         62.7292
491.99        63.20517
492.43        63.15296
492.88        62.63874
493.32          62.684
493.76        62.83263
494.20        63.04048
494.64        63.09409
495.08        63.18121
495.52        63.36468
495.96        63.36137
496.41        63.18521
496.85        63.79752
497.29        64.86443
497.73        63.90028
498.17        61.84415
498.61        62.07182
499.05        64.56354
499.49        64.97375
499.93         64.7356
500.37        64.50093
500.82        64.18017
501.26         64.3503
501.70        64.74445
502.14        64.89873
502.58        64.69967
503.02         64.5205
503.46        64.37244
503.90        64.00723
504.34        63.56844
504.78        63.41384
505.22        63.59145
505.66        63.99247
506.10        64.46121
506.54        64.73499
506.98        64.73396
507.42        64.54112
507.86        64.27358
508.30        64.11078
508.74         64.1054
509.18        64.19807
509.62        64.33218
510.06        64.42182
510.50        64.44035
510.94        64.42685
511.38        64.40956
511.82        64.41988
512.26        64.47039
512.70        64.54805
513.14        64.63695
513.58        64.71912
514.02        64.78125
514.46        64.81629
514.90        64.84684
515.34        64.89259
515.78        64.94166
516.22        65.05988
516.66         65.1935
517.10        65.05537
517.54        64.63431
517.98        64.69655
518.42        64.31064
518.86        64.33701
519.30        64.48968
519.74         64.8037
520.18        65.17317
520.62         65.4142
521.06        65.48688
521.50        65.44055
521.93        65.31223
522.37        65.16446
522.81        65.03546
523.25        64.90873
523.69        64.82526
524.13        64.84995
524.57        64.98814
525.01         65.2254
525.45        65.49189
525.89        65.66872
526.32        65.71322
526.76        65.64605
527.20        65.51982
527.64        65.44073
528.08        65.44866
528.52        65.46017
528.96        65.39401
529.40        65.30956
529.83        65.23112
530.27        64.49432
530.71        64.47128
531.15         64.2808
531.59        64.33347
532.03        64.54186
532.46        64.85227
532.90        65.14344
533.34        65.35202
533.78        65.50957
534.22        65.59476
534.66        65.58575
535.09        65.47894
535.53        65.29903
535.97        65.08956
536.41        64.94494
536.85        64.89433
537.28        64.92567
537.72        64.99364
538.16           65.03
538.60         65.0173
539.04        64.92527
539.47        64.79926
539.91         64.8818
540.35        65.11148
540.79        65.18889
541.22        65.10012
541.66        65.08764
542.10        65.14567
542.54        65.12228
542.97        65.04694
543.41        65.06921
543.85        65.18665
544.29        65.36971
544.72        65.53056
545.16        65.53987
545.60        65.37128
546.04        65.13284
546.47        64.93508
546.91        64.84557
547.35        64.97276
547.79        65.51485
548.22        66.22191
548.66        66.62125
549.10        66.51736
549.53        65.73238
549.97        64.65568
550.41        64.16017
550.84        64.36739
551.28        64.90427
551.72        65.54772
552.15        65.90799
552.59        65.84156
553.03        66.01929
553.46        65.55143
553.90        65.46263
554.34        65.51442
554.77        65.59063
555.21        65.62762
555.65        65.75819
556.08        66.00478
556.52        65.52796
556.96        65.88078
557.39        65.82838
557.83        65.85019
558.27        65.90926
558.70        66.01913
559.14        66.11667
559.57        66.19764
560.01        66.42358
560.45        66.69603
560.88        66.74281
561.32        66.56217
561.75        66.23647
562.19        65.91368
562.63        65.63182
563.06        65.47776
563.50        65.66954
563.93        66.06567
564.37        66.25759
564.80         66.1757
565.24        66.05583
565.68        65.94205
566.11        65.86503
566.55        65.89623
566.98        65.91245
567.42        65.94345
567.85        66.24532
568.29        66.74899
568.72        66.78307
569.16        66.54499
569.60        66.87571
570.03        67.29347
570.47        67.21999
570.90        66.90979
571.34        65.20584
571.77        66.20083
572.21         66.1055
572.64        65.77425
573.08        64.65606
573.51        62.26167
573.95        64.62354
574.38        68.48589
574.82        66.22373
