SpectraSmart Spectrum 2.9.0.0
--------- Device Information -----------
Spectrum Name :  反射率_0
Saving Time :  2024/04/26 01:47:13
Spectro-Module Model Name : SE2030-DUVN
Spectro-Module Serial Number : OS361AC55029948
Wavelength Start : 200
Wavelength End : 1025
Wavelength Unit : Wavelength(nm)
Spectrum Unit : Reflectance(%)
-----------Spectrum Setting ------------
Integration Time : 20ms
Average : 10
Boxcar : 0
Background removal :  enabled
linearity correction :  enabled
SC :  disabled
Intensity correction :  disabled
DWT denoise :  enabled
savitzky-golay :  disabled
FFT :  disabled
Running average :  disabled
Kalman :  disabled
High pass :  disabled
---------------BEGIN--------------------
Wavelength(nm)             Reflectance(%)
200.29               0
200.75        104.2062
201.21        96.00257
201.67        86.31628
202.13        80.58132
202.58        79.49765
203.04        81.95665
203.50        85.59003
203.96        86.46382
204.42        83.97022
204.88        79.85254
205.34        76.31342
205.80        75.52551
206.26        78.30235
206.72        86.49851
207.18        103.3992
207.64        118.0832
208.10        107.8797
208.55        87.59045
209.01        75.26221
209.47        72.11329
209.93        74.53849
210.39         80.6606
210.85        87.88333
211.31        90.39858
211.77        86.24052
212.23        77.73545
212.69         68.9556
213.14        66.14795
213.60        70.31279
214.06        79.53665
214.52        90.24139
214.98        96.95613
215.44        98.15028
215.90        95.67959
216.36        91.49481
216.81        88.15257
217.27        86.77146
217.73        86.40426
218.19        86.07854
218.65        84.54142
219.11        81.13702
219.57        75.30843
220.02        67.66399
220.48        62.82244
220.94        63.16394
221.40        67.72546
221.86        71.38584
222.32         68.7122
222.77        60.64364
223.23        50.76889
223.69        42.64412
224.15        39.89218
224.61        41.97176
225.06        46.99582
225.52        52.14214
225.98        53.98791
226.44         51.9781
226.90        47.61615
227.36        42.94502
227.81         40.7038
228.27        41.66761
228.73        44.54751
229.19        48.09449
229.65        50.48505
230.10        51.25634
230.56        51.21386
231.02          50.805
231.48        50.47998
231.93        50.37371
232.39         50.3117
232.85         50.4324
233.31        51.06404
233.77        52.22188
234.22        53.87204
234.68        55.63877
235.14        56.64695
235.60        56.64374
236.05        55.91499
236.51         54.9838
236.97        54.61009
237.43        55.09888
237.88        56.48095
238.34        58.78224
238.80        61.90477
239.26        65.49174
239.71        69.59055
240.17        73.54043
240.63         76.9369
241.08        79.70677
241.54        81.54135
242.00        83.15366
242.46        86.11525
242.91        92.37091
243.37        106.1704
243.83        143.9095
244.28        244.7988
244.74        319.0717
245.20        228.0965
245.66        169.1135
246.11        154.1035
246.57        162.6715
247.03         205.004
247.48        340.7349
247.94          297.89
248.40        158.7614
248.85          113.12
249.31        98.58342
249.77        95.99408
250.22         99.7653
250.68        109.1791
251.14        123.8102
251.59        134.1946
252.05        130.5979
252.51        117.4325
252.96        103.0962
253.42        95.72388
253.88        94.96148
254.33         97.7737
254.79         103.337
255.25        109.8468
255.70        115.6756
256.16        121.1914
256.62        124.8668
257.07         125.083
257.53        122.8697
257.99        118.6149
258.44        113.6169
258.90        110.6937
259.35        108.9326
259.81        107.8059
260.27        105.8971
260.72         101.792
261.18        96.38164
261.63        90.14645
262.09        84.39381
262.55        79.75297
263.00        76.23103
263.46        73.71575
263.91        71.64333
264.37        69.89339
264.83        68.11005
265.28        66.17477
265.74        64.22515
266.19        62.14738
266.65        60.25432
267.11         58.5769
267.56        56.97564
268.02        55.28183
268.47        53.34043
268.93        51.19991
269.38        49.09849
269.84        47.70683
270.30        47.17275
270.75        47.30305
271.21        47.59456
271.66         47.2679
272.12        46.15275
272.57        44.48864
273.03        42.73058
273.48        41.47027
273.94        40.89051
274.39        40.73149
274.85        40.73218
275.31        40.48314
275.76        39.86334
276.22         39.0498
276.67        38.16821
277.13         37.5134
277.58         37.0764
278.04        36.79718
278.49        36.48056
278.95        35.95828
279.40        35.16454
279.86        34.24968
280.31         33.3119
280.77        32.62944
281.22        32.20523
281.68         31.9884
282.13        31.85773
282.59        31.69896
283.04         31.4623
283.50        31.23766
283.95        31.01103
284.41        30.79412
284.86        30.58853
285.32         30.3976
285.77        30.29409
286.22        30.46756
286.68        30.89868
287.13        31.47458
287.59        31.99619
288.04        32.14321
288.50        31.89583
288.95        31.34817
289.41        30.70347
289.86        30.14436
290.32        29.80972
290.77        29.63777
291.22        29.67097
291.68        29.92426
292.13        30.39221
292.59        31.09278
293.04        31.97535
293.50         32.9517
293.95        33.97231
294.40        35.01746
294.86        36.10237
295.31        37.27199
295.77        38.54174
296.22        39.89407
296.68        41.27181
297.13        42.55107
297.58        43.72208
298.04        44.84043
298.49        46.02017
298.95        47.49688
299.40        49.29977
299.85        51.35207
300.31        53.49546
300.76          55.466
301.21         57.1659
301.67        58.70877
302.12        60.11769
302.58        61.55408
303.03        63.03437
303.48        64.54411
303.94         66.1795
304.39        68.01717
304.84        70.06684
305.30        72.29549
305.75        74.48228
306.20        76.32178
306.66        77.77505
307.11        78.87116
307.57        79.86288
308.02        80.99232
308.47         82.3899
308.93        83.99977
309.38        85.65693
309.83        87.16152
310.29        88.45013
310.74        89.53958
311.19        90.58261
311.65        91.80846
312.10        93.23882
312.55        94.81281
313.00        96.26781
313.46         97.1898
313.91        97.48477
314.36        97.30621
314.82        97.04755
315.27        97.24788
315.72        98.07272
316.18        99.37001
316.63        100.8244
317.08         101.862
317.53        102.3202
317.99        102.3521
318.44        102.2941
318.89        102.6923
319.35        103.6449
319.80        105.0054
320.25        106.3586
320.70        107.0262
321.16        106.8548
321.61        106.0767
322.06         105.145
322.51        104.7644
322.97        105.0848
323.42        105.9356
323.87        106.9666
324.32        107.5768
324.78        107.5776
325.23         107.214
325.68        106.7175
326.13         106.492
326.59        106.6373
327.04        107.0449
327.49        107.6006
327.94        108.1634
328.39        108.6615
328.85         109.127
329.30        109.5759
329.75        109.8321
330.20        109.8987
330.66        109.8024
331.11        109.7738
331.56        110.1074
332.01        110.8945
332.46        112.0475
332.92        113.3727
333.37        114.7293
333.82        115.9021
334.27        116.9137
334.72        117.6986
335.17        118.1791
335.63        118.3663
336.08        118.3399
336.53        118.2165
336.98        118.2514
337.43        118.5304
337.88        118.9934
338.34        119.6322
338.79        120.5214
339.24        121.5859
339.69        122.8362
340.14        123.9977
340.59        124.5923
341.05        124.5406
341.50        123.9642
341.95        123.2982
342.40        123.2231
342.85        123.8829
343.30        125.0877
343.75        126.4497
344.20        127.2822
344.66        127.3998
345.11        127.0017
345.56        126.4068
346.01        126.0923
346.46        126.1951
346.91         126.562
347.36        127.0214
347.81        127.3224
348.26        127.3963
348.72        127.3462
349.17        127.2676
349.62        127.3469
350.07        127.6096
350.52        127.9598
350.97        128.2599
351.42        128.3183
351.87         128.098
352.32        127.6823
352.77        127.1646
353.22        126.6891
353.67        126.3124
354.13        126.0082
354.58        125.7483
355.03         125.552
355.48        125.3959
355.93        125.2685
356.38        125.0972
356.83        124.7622
357.28        124.2367
357.73        123.5545
358.18        122.7692
358.63        121.9755
359.08        121.2139
359.53        120.4694
359.98        119.7495
360.43        119.0587
360.88        118.3867
361.33        117.7317
361.78        117.0738
362.23        116.3772
362.68        115.6426
363.13        114.8945
363.58        114.1321
364.03        113.3516
364.48        112.5577
364.93        111.7425
365.38        110.9607
365.83        110.3052
366.28        109.7727
366.73        109.3142
367.18        108.8254
367.63        108.1405
368.08        107.2412
368.53        106.2208
368.98        105.1518
369.43        104.1314
369.88         103.201
370.33        102.3244
370.78        101.5798
371.23        101.0978
371.68        100.8826
372.13        100.8978
372.58        100.9526
373.03         100.718
373.48        100.1293
373.93        99.29765
374.38         98.4243
374.83        97.82306
375.28        97.56046
375.72        97.50418
376.17        97.55865
376.62        97.54841
377.07        97.39022
377.52        97.12447
377.97        96.71059
378.42        96.08667
378.87        95.28501
379.32        94.36135
379.77        93.42028
380.22        92.60714
380.67        91.94826
381.11        91.40057
381.56        90.95284
382.01        90.58296
382.46        90.28005
382.91        90.07609
383.36        89.86745
383.81        89.49123
384.26        88.93019
384.71        88.21006
385.15        87.51326
385.60        87.20363
386.05         87.2706
386.50        87.59379
386.95        87.87739
387.40        87.63004
387.85        86.80665
388.29        85.61046
388.74        84.46895
389.19        83.64253
389.64        83.17927
390.09         82.9268
390.54        82.88036
390.98        83.03383
391.43          83.325
391.88         83.7269
392.33        83.99904
392.78        83.74785
393.23        82.97942
393.67        81.91731
394.12        80.96145
394.57        80.22911
395.02        79.89857
395.47        80.27753
395.91        81.21007
396.36        81.87725
396.81         82.1068
397.26        82.21007
397.71        82.19236
398.15        81.81176
398.60        81.19194
399.05        80.60851
399.50        80.08894
399.95        79.00874
400.39         77.9673
400.84        77.71669
401.29        78.25077
401.74        78.45194
402.18        78.22913
402.63          78.149
403.08        78.31132
403.53        78.56684
403.97        78.90171
404.42        79.30051
404.87        79.57465
405.32        79.41471
405.76        78.78526
406.21        77.89389
406.66        76.97554
407.11         76.3966
407.55        76.29827
408.00        76.43862
408.45        76.71123
408.90        77.31824
409.34        77.86458
409.79        77.23156
410.24        75.79542
410.68        75.13239
411.13        75.37096
411.58        75.64268
412.03        75.85174
412.47        76.22301
412.92        76.63438
413.37        77.05203
413.81        77.33268
414.26        77.30296
414.71        76.92794
415.15        76.25902
415.60        75.50677
416.05        75.03041
416.49        74.93246
416.94        75.14474
417.39        75.44385
417.83         75.4215
418.28        75.00187
418.73        74.32775
419.17        73.68371
419.62        73.52231
420.07        73.88441
420.51         74.6058
420.96        75.38664
421.41         75.6702
421.85         75.3015
422.30        74.75576
422.74        74.17422
423.19        73.45403
423.64        72.83901
424.08        73.23444
424.53        74.39899
424.98        75.02623
425.42        74.93416
425.87        74.96136
426.31        75.18156
426.76        74.98749
427.21        74.63239
427.65         75.0628
428.10        76.09556
428.54         76.8968
428.99        77.38502
429.44        77.39114
429.88        77.04036
430.33         77.7765
430.77        78.85206
431.22        77.44604
431.66        74.26486
432.11        72.71329
432.56        73.10998
433.00        74.05529
433.45        75.33536
433.89        77.25584
434.34        78.33344
434.78         79.5051
435.23        75.82823
435.67        73.14533
436.12         75.7498
436.57        76.71183
437.01        77.21736
437.46        77.46477
437.90        77.67908
438.35        76.98026
438.79        77.77006
439.24        77.72028
439.68        77.57526
440.13        77.20277
440.57        76.96413
441.02        77.96362
441.46        79.70749
441.91        80.47826
442.35        80.05978
442.80        78.96845
443.24         77.7203
443.69        78.26833
444.13        80.09609
444.58        80.45721
445.02        78.19566
445.47        77.85928
445.91        78.96476
446.36        79.26266
446.80        78.68546
447.24        78.43559
447.69        78.61851
448.13        78.87351
448.58        79.20573
449.02        79.64462
449.47        80.08765
449.91         80.3869
450.36        80.50185
450.80        80.44846
451.25        80.27451
451.69        80.03084
452.13        79.77339
452.58        79.50139
453.02        79.26797
453.47        79.20182
453.91        79.29634
454.36        79.52097
454.80        79.77629
455.24        79.80508
455.69        79.58044
456.13        79.28976
456.58        79.05177
457.02        78.62802
457.46        78.23714
457.91        78.48343
458.35        79.17809
458.79        79.50298
459.24        79.42303
459.68        79.28629
460.13         79.0918
460.57        78.84112
461.01        78.65958
461.46        77.78098
461.90        77.08666
462.34        77.69957
462.79        77.18673
463.23        77.54522
463.68        77.96914
464.12        78.31786
464.56        78.51196
465.01        78.60195
465.45        78.43636
465.89        78.22227
466.34        77.89157
466.78        76.59517
467.22        74.92836
467.67        74.73746
468.11        75.94378
468.55         76.8447
468.99        77.03701
469.44         76.8026
469.88        76.34405
470.32        76.41891
470.77        76.94685
471.21        76.98997
471.65        76.50121
472.10        76.18101
472.54        76.12694
472.98        76.09309
473.42         76.0672
473.87        76.39883
474.31        76.84288
474.75        76.44975
475.20        75.48592
475.64        75.34631
476.08        75.98925
476.52        76.09815
476.97        75.59678
477.41        75.51882
477.85        75.98582
478.29        75.46583
478.74        75.76093
479.18         76.4313
479.62        75.00837
480.06         75.7372
480.50        76.10954
480.95        76.44363
481.39        76.24691
481.83        75.50316
482.27        75.44261
482.72        75.36649
483.16        73.97483
483.60        74.27784
484.04        75.78576
484.48        76.22606
484.93        76.13623
485.37        77.32822
485.81        78.03262
486.25        76.57894
486.69        104.2107
487.14          84.479
487.58         52.6507
488.02        64.64562
488.46        73.13344
488.90        72.42075
489.34        74.53493
489.79        73.14134
490.23        75.19007
490.67        76.07159
491.11        75.40778
491.55         75.5425
491.99        75.97839
492.43        75.76552
492.88        74.99358
493.32        74.83439
493.76        74.79691
494.20        74.92704
494.64        74.98723
495.08        75.18271
495.52        75.51052
495.96        75.51347
496.41        75.18729
496.85        75.66995
497.29        76.62994
497.73        75.37511
498.17        72.99516
498.61         73.0843
499.05        75.66427
499.49        76.21078
499.93        76.32054
500.37        76.04501
500.82        75.32806
501.26        75.45458
501.70        76.12566
502.14        76.45068
502.58        76.24621
503.02        76.04052
503.46          75.835
503.90        75.30467
504.34        74.66888
504.78        74.42584
505.22         74.6403
505.66        75.20233
506.10        75.88577
506.54        76.15064
506.98        75.85173
507.42        75.56389
507.86        75.08798
508.30        74.43577
508.74        74.83247
509.18        75.14616
509.62        75.56911
510.06        75.78096
510.50        75.71516
510.94        75.45897
511.38        75.13961
511.82        74.97984
512.26        75.03419
512.70        75.22549
513.14        75.46216
513.58        75.60396
514.02        75.60234
514.46        75.50188
514.90        75.36181
515.34        75.25565
515.78        75.20017
516.22        75.22504
516.66        75.29005
517.10        75.19163
517.54        74.91847
517.98        75.01465
518.42        74.81853
518.86        74.93221
519.30        75.14646
519.74        75.48134
520.18        75.83988
520.62        76.06187
521.06        76.11411
521.50        76.03856
521.93        75.89366
522.37        75.77589
522.81         75.7261
523.25        75.71842
523.69        75.74788
524.13        75.80729
524.57        75.88835
525.01        75.99605
525.45        76.11293
525.89        76.20642
526.32        76.25826
526.76        76.26862
527.20        76.23815
527.64        76.20263
528.08        76.18863
528.52        76.09692
528.96        75.90397
529.40        75.85503
529.83        75.96197
530.27        75.26022
530.71        75.30266
531.15        75.12284
531.59        75.18808
532.03        75.33876
532.46         75.5686
532.90        75.86803
533.34        76.18536
533.78        76.51045
534.22        76.76083
534.66        76.82567
535.09        76.68073
535.53        76.38717
535.97        76.02763
536.41         75.7612
536.85        75.63752
537.28         75.6227
537.72        75.65956
538.16        75.66267
538.60        75.60726
539.04        75.47184
539.47        75.29143
539.91        75.30745
540.35        75.45243
540.79        75.41091
541.22         75.2007
541.66         75.1387
542.10        75.22704
542.54        75.28261
542.97        75.30431
543.41        75.40057
543.85        75.55161
544.29        75.74377
544.72        75.88911
545.16        75.84946
545.60        75.59241
546.04        75.26247
546.47        74.99574
546.91        74.76669
547.35         74.7299
547.79        75.42294
548.22        76.47227
548.66        76.74023
549.10        76.13656
549.53         75.2809
549.97        74.53725
550.41        74.13583
550.84        74.16918
551.28        74.66171
551.72        75.40768
552.15        75.73772
552.59          75.479
553.03        75.89339
553.46        75.17039
553.90        75.09396
554.34        75.14833
554.77         75.2446
555.21        75.31391
555.65        75.36507
556.08        75.66221
556.52        75.11211
556.96        75.48701
557.39        75.30684
557.83        75.12651
558.27        75.21591
558.70        75.22123
559.14           75.36
559.57        75.49093
560.01        75.61152
560.45        75.67955
560.88        75.82904
561.32        75.97446
561.75        75.60687
562.19        74.94877
562.63         74.6179
563.06        74.68948
563.50        74.96796
563.93        75.29263
564.37        75.48925
564.80        75.46205
565.24        75.28232
565.68        75.02603
566.11        74.85829
566.55        74.86559
566.98        74.90868
567.42        74.99161
567.85        75.23989
568.29        75.62949
568.72        75.70806
569.16        75.65401
569.60        76.06674
570.03        76.58659
570.47        76.48827
570.90        75.92204
571.34        74.40642
571.77         75.1573
572.21        75.36337
572.64        74.96535
573.08        73.67557
573.51        70.56335
573.95        73.27901
574.38         77.9912
574.82        75.91161
