SpectraSmart Spectrum 2.9.0.0
--------- Device Information -----------
Spectrum Name :  反射率_0
Saving Time :  2024/04/26 01:39:14
Spectro-Module Model Name : SE2030-DUVN
Spectro-Module Serial Number : OS361AC55029948
Wavelength Start : 200
Wavelength End : 1025
Wavelength Unit : Wavelength(nm)
Spectrum Unit : Reflectance(%)
-----------Spectrum Setting ------------
Integration Time : 20ms
Average : 10
Boxcar : 0
Background removal :  enabled
linearity correction :  enabled
SC :  disabled
Intensity correction :  disabled
DWT denoise :  enabled
savitzky-golay :  disabled
FFT :  disabled
Running average :  disabled
Kalman :  disabled
High pass :  disabled
---------------BEGIN--------------------
Wavelength(nm)             Reflectance(%)
200.29               0
200.75        102.8108
201.21        95.71088
201.67        86.73677
202.13         79.9077
202.58        75.94048
203.04        74.11954
203.50        74.05611
203.96        75.16781
204.42        76.82217
204.88        78.83475
205.34        80.96385
205.80        83.29394
206.26        86.39782
206.72        91.60725
207.18        99.99268
207.64        104.3661
208.10        94.51057
208.55        81.03986
209.01        73.41628
209.47        70.99602
209.93        71.37346
210.39        73.85495
210.85        76.65385
211.31        76.00191
211.77        71.10083
212.23        63.55333
212.69        56.69585
213.14        55.77692
213.60        61.46318
214.06        72.12668
214.52        84.47118
214.98        93.42509
215.44        97.26942
215.90        97.35555
216.36        94.95512
216.81        91.74492
217.27        88.92846
217.73        86.18647
218.19        83.13462
218.65        79.02774
219.11        73.19872
219.57        64.77071
220.02        54.54913
220.48        48.36364
220.94        49.43433
221.40        56.56446
221.86        63.35779
222.32         63.0141
222.77        56.32011
223.23        47.12975
223.69         39.3885
224.15        37.15932
224.61        39.93959
225.06        45.69283
225.52        51.42314
225.98        53.44883
226.44         51.1867
226.90         46.2987
227.36        41.00961
227.81        38.27791
228.27        38.97608
228.73        41.81401
229.19        45.48477
229.65        48.07287
230.10        49.05619
230.56        49.17033
231.02        48.95961
231.48        49.01537
231.93        49.41246
232.39        49.87652
232.85        50.26464
233.31        50.45346
233.77        50.39514
234.22        50.22561
234.68        49.88343
235.14        49.19048
235.60        48.23236
236.05        47.14757
236.51        46.33224
236.97        46.30023
237.43        47.23759
237.88        49.28673
238.34        52.21832
238.80        55.20247
239.26        57.49128
239.71        59.03156
240.17        59.90055
240.63        61.09785
241.08        63.03112
241.54        65.36678
242.00        67.64452
242.46        69.36581
242.91        70.87057
243.37        72.54539
243.83         79.0284
244.28        116.4217
244.74        189.8666
245.20        186.4127
245.66        165.4505
246.11        159.6179
246.57        164.8732
247.03        185.6981
247.48        234.9537
247.94        162.4151
248.40        98.45421
248.85        84.36398
249.31        82.36171
249.77        84.51195
250.22        89.54959
250.68        98.65313
251.14        111.9126
251.59        121.3873
252.05        118.6542
252.51        106.9809
252.96        93.48458
253.42        85.33365
253.88        82.27965
254.33        81.93185
254.79        84.41068
255.25        89.17377
255.70        94.77592
256.16        100.8536
256.62        105.1222
257.07        105.2763
257.53        102.2804
257.99        96.89391
258.44        91.03865
258.90        88.02966
259.35        86.96956
259.81        86.86168
260.27        85.80173
260.72        81.93687
261.18        76.18339
261.63        69.39428
262.09        63.28183
262.55        59.06665
263.00        56.67106
263.46        55.54326
263.91        54.74187
264.37        53.62804
264.83        51.94476
265.28        49.82322
265.74        47.71172
266.19        46.00826
266.65        44.98067
267.11         44.3844
267.56        43.84255
268.02         42.9157
268.47        41.46716
268.93        39.64606
269.38        37.73557
269.84        36.45417
270.30        35.98038
270.75        36.11883
271.21        36.40659
271.66        36.14136
272.12        35.17032
272.57        33.72852
273.03        32.26306
273.48        31.35684
273.94        31.15988
274.39        31.40775
274.85        31.77291
275.31         31.7671
275.76        31.26435
276.22        30.46391
276.67        29.55788
277.13        28.92018
277.58        28.57589
278.04        28.43006
278.49         28.2806
278.95        27.91997
279.40        27.28556
279.86        26.53291
280.31        25.76206
280.77        25.23119
281.22        24.94415
281.68        24.83213
282.13        24.79647
282.59        24.74057
283.04        24.62206
283.50        24.51656
283.95        24.37881
284.41        24.16128
284.86        23.86555
285.32        23.51337
285.77        23.24066
286.22        23.31833
286.68        23.74564
287.13        24.39987
287.59        25.02005
288.04        25.20499
288.50        24.91362
288.95        24.26757
289.41        23.53542
289.86        23.01161
290.32        22.83554
290.77        22.90277
291.22        23.14787
291.68        23.42989
292.13        23.71673
292.59        24.07252
293.04        24.55282
293.50        25.23414
293.95        26.11281
294.40        27.12388
294.86        28.19227
295.31        29.22419
295.77         30.2037
296.22        31.16371
296.68        32.13843
297.13        33.14727
297.58        34.21807
298.04        35.35948
298.49        36.59708
298.95        38.02538
299.40        39.64259
299.85        41.41231
300.31        43.26072
300.76        45.06187
301.21        46.74517
301.67        48.36687
302.12        49.86958
302.58        51.27907
303.03        52.59722
303.48        53.85459
303.94        55.21554
304.39         56.8695
304.84        58.84631
305.30          61.069
305.75        63.28176
306.20        65.11376
306.66        66.50972
307.11        67.54402
307.57        68.46162
308.02        69.51209
308.47        70.82171
308.93        72.30638
309.38        73.86415
309.83        75.38869
310.29        76.81552
310.74         78.1427
311.19        79.36421
311.65        80.46732
312.10        81.44343
312.55        82.30042
313.00        83.01277
313.46        83.55804
313.91        83.93296
314.36        84.17566
314.82        84.40761
315.27        84.75795
315.72        85.29373
316.18        85.98397
316.63        86.75088
317.08         87.4149
317.53        87.91711
317.99        88.28857
318.44        88.63165
318.89        89.12683
319.35        89.78883
319.80        90.58267
320.25        91.32592
320.70        91.72496
321.16        91.72261
321.61        91.41654
322.06        91.02571
322.51        90.90034
322.97        91.10399
323.42        91.57108
323.87        92.12242
324.32        92.44701
324.78        92.44904
325.23        92.27165
325.68        92.02557
326.13        91.91821
326.59        91.99279
327.04        92.20535
327.49        92.51675
327.94        92.89664
328.39        93.31318
328.85        93.76361
329.30        94.22198
329.75        94.47268
330.20         94.5016
330.66        94.35822
331.11        94.27519
331.56        94.55438
332.01        95.28236
332.46        96.35158
332.92        97.58244
333.37        98.82761
333.82        99.88692
334.27        100.7992
334.72        101.4579
335.17        101.7134
335.63        101.5791
336.08        101.1547
336.53        100.6856
336.98         100.619
337.43        101.0699
337.88          101.92
338.34        102.9885
338.79        104.0506
339.24        104.9552
339.69         105.785
340.14        106.4391
340.59        106.7513
341.05        106.7273
341.50        106.3899
341.95        106.0182
342.40        106.0616
342.85        106.6105
343.30        107.5598
343.75        108.6181
344.20        109.2574
344.66        109.3414
345.11        109.0058
345.56        108.5245
346.01        108.3122
346.46        108.4785
346.91        108.8979
347.36        109.3808
347.81        109.6395
348.26         109.614
348.72         109.427
349.17        109.2302
349.62        109.3102
350.07        109.7149
350.52        110.3094
350.97        110.9106
351.42        111.2585
351.87        111.2804
352.32        111.0619
352.77        110.6769
353.22        110.2426
353.67        109.8183
354.13        109.3943
354.58        108.9683
355.03        108.5992
355.48        108.2896
355.93        108.0306
356.38        107.7888
356.83         107.497
357.28        107.1283
357.73        106.6959
358.18        106.1848
358.63        105.5766
359.08        104.8877
359.53        104.1392
359.98        103.3865
360.43        102.7172
360.88        102.1429
361.33         101.622
361.78        101.1326
362.23        100.6362
362.68        100.1154
363.13        99.59883
363.58        99.02074
364.03         98.2719
364.48        97.35439
364.93        96.30449
365.38        95.28603
365.83         94.5709
366.28        94.19845
366.73        94.05963
367.18        93.97383
367.63        93.64081
368.08        92.98904
368.53        92.15234
368.98        91.19703
369.43        90.21396
369.88        89.26268
370.33        88.30427
370.78        87.48896
371.23        87.07523
371.68        87.08826
372.13        87.45065
372.58        87.87649
373.03        87.86869
373.48        87.30936
373.93        86.36018
374.38        85.27557
374.83        84.45216
375.28        83.99739
375.72         83.7674
376.17        83.68978
376.62        83.62324
377.07        83.49132
377.52        83.33013
377.97        83.08317
378.42        82.65105
378.87        82.04205
379.32        81.30767
379.77        80.52539
380.22        79.81058
380.67        79.18867
381.11        78.62056
381.56        78.13453
382.01        77.77667
382.46        77.55167
382.91        77.47588
383.36        77.40264
383.81        77.09588
384.26        76.52445
384.71        75.74234
385.15        74.98124
385.60         74.6629
386.05        74.79697
386.50        75.24202
386.95        75.66963
387.40         75.5308
387.85         74.7579
388.29        73.57854
388.74        72.42436
389.19        71.60289
389.64        71.16887
390.09        70.96037
390.54        70.94886
390.98        71.08927
391.43        71.31987
391.88        71.64002
392.33        71.84768
392.78        71.61404
393.23        70.95016
393.67        70.02005
394.12        69.18767
394.57        68.63145
395.02        68.48006
395.47        68.88419
395.91        69.69285
396.36        70.25999
396.81        70.44319
397.26        70.47698
397.71        70.36151
398.15        69.96217
398.60        69.40859
399.05        68.77078
399.50        68.15159
399.95        67.47366
400.39        67.08807
400.84        66.82167
401.29        66.73535
401.74        66.77048
402.18         66.8858
402.63        66.93145
403.08        66.96858
403.53        67.18342
403.97        67.56482
404.42        67.97778
404.87        68.24866
405.32        68.13056
405.76        67.58724
406.21        66.79597
406.66        65.98875
407.11        65.49275
407.55        65.42708
408.00        65.67258
408.45        66.10021
408.90        66.55896
409.34        66.80907
409.79        66.47558
410.24        65.77219
410.68        65.42521
411.13        65.52039
411.58        65.64951
412.03        65.78452
412.47        66.05748
412.92        66.38972
413.37        66.77473
413.81        67.07451
414.26        67.11624
414.71        66.86216
415.15        66.35956
415.60        65.79436
416.05        65.48821
416.49        65.52601
416.94        65.83842
417.39        66.21227
417.83        66.26448
418.28        65.92658
418.73        65.33799
419.17        64.76898
419.62        64.64568
420.07         65.0197
420.51        65.74007
420.96        66.54971
421.41        66.97727
421.85        66.86987
422.30        66.58561
422.74         66.2292
423.19        65.77439
423.64        65.39925
424.08        65.73083
424.53        66.57989
424.98        67.05362
425.42        67.03671
425.87        67.03751
426.31        67.15088
426.76        67.19958
427.21        67.29758
427.65        67.66434
428.10        68.21664
428.54        68.90915
428.99        69.70908
429.44        70.02753
429.88        69.91013
430.33        70.79472
430.77        71.98129
431.22        70.65595
431.66        67.94044
432.11        66.46431
432.56        66.73524
433.00        67.76443
433.45        69.33826
433.89        71.38761
434.34        72.48805
434.78        73.56356
435.23        70.26933
435.67        67.89922
436.12        70.66988
436.57         71.5783
437.01        71.78571
437.46        72.17294
437.90        72.28712
438.35         71.8437
438.79        72.55518
439.24        72.61051
439.68        72.57721
440.13        72.43693
440.57        72.49039
441.02        73.33518
441.46        74.62462
441.91        75.68176
442.35        76.06351
442.80          74.939
443.24        73.00471
443.69        73.53343
444.13        76.01067
444.58        76.61975
445.02        74.38146
445.47        74.08268
445.91        75.33184
446.36        75.75835
446.80        75.29194
447.24          75.136
447.69        75.37312
448.13        75.63743
448.58        75.93728
449.02        76.30006
449.47        76.66959
449.91        76.98512
450.36        77.22807
450.80        77.35565
451.25        77.35259
451.69        77.26749
452.13        77.15896
452.58        76.66428
453.02        76.55824
453.47        76.46043
453.91        76.57442
454.36         76.8367
454.80         77.1847
455.24        77.31477
455.69        77.16328
456.13        77.21106
456.58        77.24611
457.02         76.6004
457.46        75.82905
457.91        76.02517
458.35        77.03249
458.79        77.42484
459.24        77.18672
459.68        76.92257
460.13        76.64817
460.57        76.48045
461.01        76.60054
461.46        75.12302
461.90        75.16039
462.34         75.2752
462.79        74.87994
463.23         74.9035
463.68        75.56475
464.12        75.95718
464.56        76.15853
465.01        76.25508
465.45        76.13409
465.89        76.00388
466.34        75.76521
466.78         74.6925
467.22        73.37798
467.67        72.80989
468.11        74.33073
468.55        75.09264
468.99        75.14516
469.44        74.77506
469.88        74.20737
470.32        74.15645
470.77         74.5565
471.21        74.56232
471.65        74.13304
472.10        73.93055
472.54        74.01588
472.98        74.09806
473.42        74.15689
473.87        74.51306
474.31        74.92814
474.75        74.58524
475.20        73.77345
475.64        73.41795
476.08         74.3003
476.52        74.41264
476.97        73.91556
477.41        74.05784
477.85        74.56011
478.29        73.86834
478.74        74.80263
479.18        74.69701
479.62        73.32029
480.06        73.76105
480.50        74.10282
480.95        74.59505
481.39        74.74001
481.83        73.57946
482.27        73.94122
482.72        73.69894
483.16        72.34595
483.60        72.67722
484.04        74.28583
484.48        74.78381
484.93        74.65581
485.37        76.19859
485.81        76.96252
486.25         75.4103
486.69        102.9144
487.14        82.96957
487.58        51.61045
488.02        63.19112
488.46        71.91396
488.90         71.6012
489.34        73.01107
489.79        71.98783
490.23        74.35601
490.67        75.31747
491.11        74.31688
491.55        74.24387
491.99        74.67811
492.43        74.47396
492.88        73.74429
493.32        73.74857
493.76        73.95837
494.20        74.27522
494.64        74.43259
495.08        74.69386
495.52        75.05175
495.96        75.00027
496.41        74.56268
496.85        74.97745
497.29        75.94775
497.73        74.70834
498.17        72.35958
498.61         72.6581
499.05         75.5293
499.49         76.0523
499.93        75.82987
500.37        75.25912
500.82        74.38223
501.26        74.45472
501.70        75.17964
502.14         75.6037
502.58        75.52008
503.02        75.48286
503.46        75.46761
503.90        75.09927
504.34        74.56225
504.78        74.32165
505.22        74.40507
505.66        74.80822
506.10        75.41337
506.54        75.50076
506.98        74.87494
507.42        75.60751
507.86        74.70186
508.30        74.33035
508.74         74.6207
509.18        74.77766
509.62        74.97723
510.06        75.06367
510.50        75.03447
510.94        74.90073
511.38        74.75459
511.82        74.75479
512.26         74.9277
512.70        75.21664
513.14        75.51836
513.58        75.67109
514.02        75.62865
514.46        75.43851
514.90        75.19507
515.34        75.03278
515.78        74.98126
516.22        75.05444
516.66        75.18517
517.10        75.11969
517.54        74.83294
517.98        74.89165
518.42         74.6385
518.86        74.68891
519.30        74.84052
519.74        75.10702
520.18        75.41499
520.62        75.64295
521.06        75.76113
521.50        75.80175
521.93        75.77714
522.37        75.70578
522.81        75.61326
523.25        75.49844
523.69        75.40895
524.13        75.42005
524.57        75.54161
525.01         75.7501
525.45        75.98731
525.89        76.15509
526.32        76.21236
526.76        76.17974
527.20        76.08045
527.64        75.97319
528.08         75.8986
528.52        75.78636
528.96        75.60091
529.40        75.50143
529.83        75.53026
530.27        74.87822
530.71        75.08141
531.15        75.03416
531.59        75.18732
532.03        75.46223
532.46        75.80856
532.90        76.10583
533.34        76.29478
533.78        76.40486
534.22        76.43006
534.66        76.37505
535.09        76.24037
535.53        76.05188
535.97        75.83633
536.41        75.66102
536.85        75.55116
537.28        75.50542
537.72        75.49558
538.16        75.48383
538.60        75.45979
539.04        75.37406
539.47        75.25773
539.91          75.361
540.35        75.60446
540.79        75.65101
541.22        75.49808
541.66        75.44895
542.10        75.50127
542.54        75.46996
542.97        75.38245
543.41        75.39942
543.85        75.51924
544.29        75.71845
544.72        75.88874
545.16        75.88081
545.60        75.65696
546.04        75.29867
546.47        74.96999
546.91        74.84415
547.35        75.00701
547.79        75.63644
548.22        76.40532
548.66        76.56779
549.10        76.05047
549.53        75.22779
549.97        74.46766
550.41         74.1432
550.84        74.36789
551.28        75.02713
551.72        75.84777
552.15        76.34277
552.59        76.37649
553.03        76.10661
553.46        75.68899
553.90        75.41661
554.34        75.36313
554.77        75.38644
555.21        75.42979
555.65        75.48205
556.08        75.82847
556.52        75.29462
556.96        75.72663
557.39        75.67936
557.83        75.70885
558.27        75.74782
558.70        75.82372
559.14        75.99573
559.57        76.22654
560.01         76.4368
560.45        76.57641
560.88        76.72424
561.32        76.80756
561.75        76.50113
562.19        75.96519
562.63         75.4813
563.06        75.19862
563.50        75.34422
563.93        75.76762
564.37        76.00666
564.80        75.95213
565.24        75.81397
565.68         75.6509
566.11        75.55738
566.55         75.6204
566.98        75.68909
567.42        75.77364
567.85        76.09859
568.29        76.59106
568.72        76.57264
569.16        76.29795
569.60        76.62303
570.03        77.19309
570.47        77.18383
570.90        76.89175
571.34        75.10438
571.77        75.82524
572.21        76.09168
572.64        75.64172
573.08        74.49873
573.51        71.44137
573.95         74.2111
574.38        78.88232
574.82        76.65144
