SpectraSmart Spectrum 2.9.0.0
--------- Device Information -----------
Spectrum Name :  反射率_0
Saving Time :  2024/04/26 02:02:46
Spectro-Module Model Name : SE2030-DUVN
Spectro-Module Serial Number : OS361AC55029948
Wavelength Start : 200
Wavelength End : 1025
Wavelength Unit : Wavelength(nm)
Spectrum Unit : Reflectance(%)
-----------Spectrum Setting ------------
Integration Time : 20ms
Average : 10
Boxcar : 0
Background removal :  enabled
linearity correction :  enabled
SC :  disabled
Intensity correction :  disabled
DWT denoise :  enabled
savitzky-golay :  disabled
FFT :  disabled
Running average :  disabled
Kalman :  disabled
High pass :  disabled
---------------BEGIN--------------------
Wavelength(nm)             Reflectance(%)
200.29               0
200.75        97.36928
201.21        92.64544
201.67          86.946
202.13        83.42935
202.58        82.48821
203.04        83.76374
203.50        85.44423
203.96        84.64148
204.42        81.27676
204.88         76.7862
205.34         73.2079
205.80        72.60217
206.26        75.78478
206.72        84.88168
207.18        104.0058
207.64        122.5431
208.10        114.2807
208.55        93.00856
209.01        78.78267
209.47        73.36422
209.93        72.97173
210.39        75.56161
210.85        78.74325
211.31        77.91469
211.77         71.9963
212.23        62.99644
212.69        54.97831
213.14        54.12056
213.60        61.19293
214.06         74.2241
214.52         88.6853
214.98        97.65488
215.44        99.29457
215.90        95.85526
216.36        90.05833
216.81        85.65901
217.27        84.05684
217.73        83.94205
218.19        83.99078
218.65        82.48978
219.11         78.6051
219.57        71.80473
220.02        62.76042
220.48        56.62916
220.94        56.33318
221.40         61.0068
221.86        65.01704
222.32        62.26573
222.77         53.7968
223.23        43.45728
223.69        35.27417
224.15        33.38227
224.61        37.09645
225.06        44.14854
225.52        51.25617
225.98        54.31709
226.44        52.59776
226.90         47.8464
227.36        42.30055
227.81        38.97654
228.27        38.80798
228.73        40.50422
229.19        42.98007
229.65        44.66803
230.10        45.14309
230.56        45.07424
231.02        44.78048
231.48        44.54095
231.93        44.41507
232.39        44.22773
232.85        44.03132
233.31        44.01032
233.77        44.16483
234.22        44.48529
234.68        44.74229
235.14        44.41869
235.60        43.44966
236.05        42.07956
236.51         40.7457
236.97        39.98344
237.43        39.98167
237.88        40.79644
238.34        42.35761
238.80        44.33544
239.26        46.33841
239.71        48.28947
240.17        50.14922
240.63        52.47466
241.08        55.40639
241.54         58.6182
242.00        61.48981
242.46        63.40298
242.91        64.51501
243.37        64.46982
243.83         65.2992
244.28        86.17209
244.74        144.9421
245.20        155.7541
245.66        144.1935
246.11        138.8467
246.57        138.0049
247.03        139.2506
247.48        130.8808
247.94        82.17008
248.40        78.02057
248.85         82.6761
249.31        86.76204
249.77        90.26029
250.22        94.23021
250.68        100.1832
251.14        107.6421
251.59        110.2244
252.05        103.0982
252.51         90.0781
252.96        77.68325
253.42        71.66277
253.88        71.07878
254.33        73.58662
254.79        78.47445
255.25        83.95033
255.70        88.58213
256.16        92.75867
256.62         94.5935
257.07        92.13364
257.53        86.59132
257.99        78.86925
258.44        71.55063
258.90        68.54282
259.35        68.72998
259.81        70.37458
260.27        70.93711
260.72        67.99483
261.18        62.44692
261.63        55.52051
262.09        49.14581
262.55        44.87339
263.00        42.68956
263.46        41.86959
263.91        41.40467
264.37        40.48721
264.83        38.90332
265.28        36.84299
265.74        34.86661
266.19        33.57138
266.65        33.14209
267.11        33.21562
267.56        33.25141
268.02        32.59531
268.47         31.1457
268.93        29.13585
269.38        26.96967
269.84        25.57988
270.30        25.21465
270.75        25.60701
271.21        26.24247
271.66        26.35009
272.12         25.7249
272.57        24.61403
273.03        23.40281
273.48        22.59274
273.94        22.32564
274.39        22.38357
274.85        22.49918
275.31        22.29556
275.76        21.68645
276.22        20.83556
276.67        19.94958
277.13         19.3911
277.58        19.18131
278.04        19.21228
278.49        19.23564
278.95        18.94792
279.40        18.28942
279.86        17.42604
280.31        16.54219
280.77         16.0025
281.22        15.83777
281.68        15.93182
282.13        16.10792
282.59        16.13478
283.04        15.96066
283.50        15.69095
283.95        15.38142
284.41        15.12229
284.86        14.93962
285.32        14.79288
285.77        14.71166
286.22         14.7969
286.68        15.02144
287.13        15.34177
287.59        15.59807
288.04        15.55313
288.50        15.19705
288.95        14.60603
289.41        13.98058
289.86        13.53563
290.32        13.37119
290.77        13.40834
291.22        13.59085
291.68        13.79423
292.13        13.98844
292.59        14.21212
293.04        14.49711
293.50        14.88803
293.95         15.3782
294.40        15.91302
294.86        16.44193
295.31        16.90922
295.77         17.3054
296.22        17.65862
296.68        17.98229
297.13        18.26782
297.58        18.54595
298.04        18.83841
298.49         19.2132
298.95        19.80619
299.40        20.62847
299.85        21.63858
300.31        22.72122
300.76        23.69907
301.21        24.50603
301.67        25.20985
302.12         25.8485
302.58        26.53415
303.03        27.28781
303.48        28.08763
303.94        28.98008
304.39        30.00114
304.84        31.15539
305.30        32.43412
305.75        33.72794
306.20        34.86905
306.66        35.85033
307.11        36.70818
307.57        37.58628
308.02        38.62983
308.47        39.91255
308.93        41.38295
309.38        42.98065
309.83        44.63653
310.29        46.29171
310.74        47.93431
311.19        49.52975
311.65        51.03852
312.10        52.46006
312.55        53.81303
313.00        55.09819
313.46        56.32105
313.91        57.46433
314.36        58.52473
314.82        59.58344
315.27        60.74675
315.72        62.06253
316.18        63.50951
316.63        64.97507
317.08        66.22572
317.53        67.19342
317.99        67.91904
318.44        68.57912
318.89        69.47753
319.35        70.66222
319.80        72.06229
320.25        73.41069
320.70        74.25496
321.16        74.49425
321.61        74.28255
322.06         73.9259
322.51        73.90988
322.97        74.34707
323.42        75.12763
323.87        76.04276
324.32        76.72404
324.78        77.04418
325.23        77.15404
325.68        77.15524
326.13        77.23368
326.59        77.43625
327.04         77.7149
327.49        78.04981
327.94        78.44614
328.39        78.88755
328.85        79.37159
329.30        79.87251
329.75        80.19395
330.20        80.31613
330.66        80.28234
331.11        80.28893
331.56        80.58408
332.01        81.24489
332.46        82.18939
332.92        83.27149
333.37        84.37372
333.82        85.33292
334.27        86.17548
334.72        86.83235
335.17        87.21142
335.63        87.31807
336.08        87.21511
336.53        87.04633
336.98         87.0923
337.43        87.43347
337.88        88.00423
338.34        88.71181
338.79        89.47398
339.24        90.19666
339.69        90.92162
340.14         91.5514
340.59        91.91544
341.05        91.99686
341.50        91.83103
341.95        91.61872
342.40        91.68711
342.85        92.10812
343.30        92.79825
343.75        93.57661
344.20        94.11334
344.66        94.31782
345.11          94.272
345.56        94.11464
346.01         94.0534
346.46        94.15652
346.91        94.36494
347.36        94.61623
347.81        94.82118
348.26        94.96132
348.72        95.08991
349.17        95.23669
349.62        95.49582
350.07         95.8655
350.52        96.28204
350.97         96.6606
351.42        96.88532
351.87        96.92957
352.32        96.83971
352.77        96.64258
353.22        96.38367
353.67        96.09599
354.13        95.78451
354.58        95.48703
355.03        95.31529
355.48        95.27866
355.93        95.35127
356.38        95.41904
356.83         95.2945
357.28          94.936
357.73        94.39506
358.18         93.7861
358.63         93.2955
359.08        92.97066
359.53        92.75664
359.98        92.55833
360.43        92.22749
360.88        91.72485
361.33        91.09483
361.78        90.42557
362.23        89.85598
362.68         89.4267
363.13        89.10574
363.58        88.79639
364.03        88.34571
364.48        87.72578
364.93        86.98527
365.38        86.25154
365.83        85.72965
366.28        85.45049
366.73        85.32602
367.18        85.21198
367.63        84.87837
368.08        84.27676
368.53        83.51402
368.98        82.67254
369.43        81.86593
369.88        81.14632
370.33        80.47638
370.78         79.9247
371.23        79.60909
371.68        79.53276
372.13        79.66024
372.58        79.83436
373.03        79.78016
373.48        79.43121
373.93        78.87145
374.38        78.23451
374.83        77.73278
375.28        77.42272
375.72        77.22037
376.17        77.10138
376.62        76.99911
377.07        76.87398
377.52        76.74204
377.97         76.5579
378.42        76.24433
378.87        75.80414
379.32        75.27695
379.77        74.72324
380.22        74.23074
380.67        73.81591
381.11         73.4483
381.56        73.12878
382.01        72.86182
382.46        72.64697
382.91        72.50552
383.36        72.35965
383.81        72.08465
384.26        71.66829
384.71        71.13551
385.15        70.62279
385.60        70.40372
386.05        70.47018
386.50        70.73192
386.95        70.96864
387.40          70.814
387.85        70.23042
388.29        69.36069
388.74        68.52601
389.19        67.91795
389.64        67.56891
390.09        67.36086
390.54        67.28956
390.98        67.34896
391.43         67.5061
391.88        67.75515
392.33        67.91215
392.78         67.6945
393.23        67.11403
393.67        66.27095
394.12        65.51767
394.57        65.13184
395.02        65.18391
395.47        65.59033
395.91        66.22252
396.36        66.70982
396.81        66.93587
397.26        66.97569
397.71        66.84899
398.15        66.50513
398.60        66.05917
399.05        65.59731
399.50         65.1619
399.95        64.48544
400.39        63.94476
400.84        63.66824
401.29        63.70677
401.74        63.70173
402.18        63.63576
402.63         63.6584
403.08        63.81216
403.53        64.05364
403.97        64.36097
404.42        64.70849
404.87        64.96259
405.32         64.8905
405.76        64.46253
406.21        63.86345
406.66        63.26582
407.11        62.87287
407.55        62.82993
408.00        63.11902
408.45        63.61162
408.90        64.21706
409.34         64.5899
409.79        63.97072
410.24        62.73658
410.68        62.20316
411.13        62.49416
411.58        62.90834
412.03        63.29354
412.47        63.68706
412.92        63.95515
413.37        64.11958
413.81        64.15976
414.26        64.08437
414.71        63.89516
415.15        63.58134
415.60        63.23633
416.05        63.03196
416.49        63.01761
416.94        63.18441
417.39        63.38639
417.83        63.35036
418.28        63.04021
418.73        62.54395
419.17        62.10706
419.62        62.12449
420.07        62.62864
420.51        63.47971
420.96        64.37237
421.41        64.76283
421.85        64.50154
422.30        63.94967
422.74        63.30443
423.19        62.73553
423.64         62.4026
424.08         62.7258
424.53        63.51102
424.98        63.98102
425.42         64.0088
425.87        64.10264
426.31         64.3197
426.76        64.26607
427.21        64.12949
427.65        64.59272
428.10        65.51711
428.54        66.25188
428.99        66.71765
429.44        66.88767
429.88        66.80382
430.33        67.24178
430.77        67.76058
431.22        66.80794
431.66        64.81941
432.11        63.81129
432.56        64.02248
433.00        64.76005
433.45         65.9053
433.89        67.62141
434.34        68.60576
434.78        69.70892
435.23        66.23069
435.67        64.21113
436.12        66.49265
436.57        67.56087
437.01        68.18356
437.46        68.41397
437.90        68.39092
438.35        68.11472
438.79        68.36964
439.24        68.35398
439.68        68.23316
440.13        68.05886
440.57        68.06175
441.02        68.91376
441.46          70.271
441.91        71.18124
442.35        71.32307
442.80        70.43764
443.24        68.99527
443.69        69.31586
444.13         71.0687
444.58        71.00037
445.02        69.34624
445.47        69.19835
445.91        70.43372
446.36        70.87746
446.80        70.43636
447.24        70.23518
447.69        70.33366
448.13        70.46925
448.58        70.65453
449.02        70.90758
449.47        71.18499
449.91        71.43668
450.36        71.63885
450.80        71.78323
451.25        71.84633
451.69        71.76223
452.13        71.55611
452.58        71.26153
453.02        70.97644
453.47        70.89224
453.91        71.02193
454.36        71.31834
454.80        71.68573
455.24        71.79578
455.69        71.58991
456.13        71.42846
456.58        71.44541
457.02        70.69958
457.46        70.50317
457.91        70.79337
458.35        71.63866
458.79        71.95557
459.24        71.69304
459.68        71.34528
460.13         71.0179
460.57        70.68677
461.01        70.46252
461.46        70.07133
461.90        69.76981
462.34        70.07114
462.79        69.86786
463.23        70.03693
463.68        70.20572
464.12        70.63751
464.56        71.15425
465.01        71.24389
465.45          70.883
465.89        70.70031
466.34        70.55402
466.78         69.7103
467.22        68.59457
467.67        67.41128
468.11        68.70176
468.55        69.25675
468.99        69.50181
469.44        69.23973
469.88        68.66781
470.32        68.69895
470.77        69.23981
471.21        69.34394
471.65        68.95724
472.10        68.75123
472.54        68.78164
472.98        68.81126
473.42        68.83231
473.87        69.04588
474.31        69.30568
474.75        69.13813
475.20        68.65682
475.64        68.51457
476.08         68.7435
476.52        68.72598
476.97        68.43405
477.41        68.67453
477.85         68.7888
478.29        68.60461
478.74        69.09814
479.18        68.88005
479.62        67.86596
480.06        68.33745
480.50        68.68283
480.95        69.20863
481.39          69.441
481.83        68.49187
482.27        68.62489
482.72        68.51414
483.16        67.01136
483.60         67.2791
484.04        68.72812
484.48        69.28162
484.93        69.39172
485.37        70.66024
485.81        70.75518
486.25        69.96132
486.69         94.8046
487.14        76.04015
487.58        47.65738
488.02        58.75368
488.46        66.71861
488.90         65.7427
489.34        68.07354
489.79        66.91577
490.23        68.94733
490.67        69.43638
491.11        68.21077
491.55        68.21459
491.99        68.97124
492.43        68.91908
492.88         68.1106
493.32        68.05592
493.76        68.26317
494.20        68.51273
494.64        68.56847
495.08        68.57835
495.52        68.63053
495.96        68.70455
496.41        68.69588
496.85           69.05
497.29        69.52991
497.73        68.17638
498.17        66.06406
498.61        66.46428
499.05        69.29517
499.49        69.91385
499.93        69.76945
500.37        69.51559
500.82        69.07462
501.26        69.03918
501.70        69.22301
502.14        69.43388
502.58        69.48848
503.02        69.37697
503.46        69.08297
503.90        68.58514
504.34        68.06279
504.78         67.8251
505.22        67.93072
505.66         68.2854
506.10        68.76143
506.54        69.03328
506.98        68.97728
507.42        68.87035
507.86        68.90424
508.30        68.10607
508.74        68.64229
509.18        68.71992
509.62        68.87444
510.06        68.93011
510.50        68.86835
510.94        68.71864
511.38        68.54813
511.82        68.50964
512.26         68.6276
512.70        68.85247
513.14        69.09872
513.58         69.2307
514.02         69.2051
514.46        69.05758
514.90         68.8614
515.34        68.71452
515.78        68.63804
516.22        68.67498
516.66        68.77037
517.10        68.65462
517.54        68.30999
517.98        68.42487
518.42        68.16765
518.86        68.30786
519.30        68.58187
519.74        69.01118
520.18          69.466
520.62        69.73292
521.06        69.76835
521.50        69.63007
521.93        69.39985
522.37         69.2142
522.81        69.12777
523.25        69.10329
523.69        69.13091
524.13        69.19543
524.57        69.28375
525.01        69.40564
525.45        69.53638
525.89        69.62965
526.32         69.6657
526.76         69.6478
527.20        69.58916
527.64        69.54353
528.08        69.54105
528.52        69.48814
528.96        69.35224
529.40        69.33601
529.83        69.44743
530.27        68.81553
530.71        68.86843
531.15        68.72948
531.59        68.82499
532.03        69.00382
532.46        69.24377
532.90        69.50841
533.34        69.74763
533.78        69.97026
534.22         70.1143
534.66        70.09647
535.09        69.90498
535.53        69.59235
535.97        69.25152
536.41        69.05373
536.85        69.04342
537.28        69.17871
537.72        69.36819
538.16        69.47098
538.60        69.44747
539.04        69.28811
539.47        69.05976
539.91        69.04813
540.35        69.20081
540.79        69.19289
541.22        69.01869
541.66         68.9525
542.10        68.98727
542.54        68.95474
542.97        68.87862
543.41        68.90028
543.85         69.0168
544.29        69.20981
544.72        69.36653
545.16         69.3407
545.60        69.10435
546.04        68.70782
546.47        68.33804
546.91        68.29861
547.35        68.64144
547.79        69.29485
548.22         69.9546
548.66        70.18321
549.10        69.84857
549.53        68.95316
549.97        67.89706
550.41        67.37777
550.84        67.51919
551.28        68.09841
551.72        68.87938
552.15        69.32758
552.59        69.27384
553.03        69.56238
553.46        69.06606
553.90        69.02404
554.34        69.12373
554.77        69.24735
555.21        69.28539
555.65         69.3835
556.08        69.55971
556.52        68.94562
556.96        69.18307
557.39        68.98763
557.83        68.87933
558.27        68.79755
558.70        68.79144
559.14        68.91634
559.57        69.13098
560.01        69.42769
560.45        69.70879
560.88        69.78881
561.32        69.67254
561.75        69.47515
562.19        69.27237
562.63        68.88235
563.06        68.43752
563.50        68.40752
563.93         68.7137
564.37         68.9082
564.80        68.90305
565.24        68.88329
565.68        68.85004
566.11        68.82346
566.55        68.85919
566.98        68.80906
567.42        68.71566
567.85        68.91834
568.29        69.39268
568.72         69.3884
569.16        69.08121
569.60        69.73318
570.03        70.14835
570.47        70.17463
570.90        69.84121
571.34        68.34765
571.77        69.40273
572.21        69.27988
572.64        69.01294
573.08        67.95285
573.51        64.67123
573.95        67.12788
574.38        71.57056
574.82        69.66628
