SpectraSmart Spectrum 2.9.0.0
--------- Device Information -----------
Spectrum Name :  反射率_0
Saving Time :  2024/04/26 02:00:00
Spectro-Module Model Name : SE2030-DUVN
Spectro-Module Serial Number : OS361AC55029948
Wavelength Start : 200
Wavelength End : 1025
Wavelength Unit : Wavelength(nm)
Spectrum Unit : Reflectance(%)
-----------Spectrum Setting ------------
Integration Time : 20ms
Average : 10
Boxcar : 0
Background removal :  enabled
linearity correction :  enabled
SC :  disabled
Intensity correction :  disabled
DWT denoise :  enabled
savitzky-golay :  disabled
FFT :  disabled
Running average :  disabled
Kalman :  disabled
High pass :  disabled
---------------BEGIN--------------------
Wavelength(nm)             Reflectance(%)
200.29               0
200.75        96.23583
201.21        90.21853
201.67         82.5798
202.13        77.00425
202.58        74.13696
203.04        73.49222
203.50        74.01836
203.96        74.10029
204.42        73.39174
204.88        72.36822
205.34         72.0729
205.80         73.9138
206.26         78.9408
206.72        89.91035
207.18        110.7436
207.64        127.7437
208.10        113.7132
208.55        87.69939
209.01        71.51408
209.47        65.87217
209.93        66.21207
210.39        70.36367
210.85        75.79976
211.31        77.25219
211.77        73.06454
212.23        65.27839
212.69        57.76765
213.14        56.50813
213.60        62.32413
214.06        73.29623
214.52        85.36032
214.98        92.41296
215.44        92.84822
215.90        88.66579
216.36        82.54453
216.81        78.13577
217.27        76.67622
217.73        76.93172
218.19        77.11144
218.65        74.77148
219.11        68.90357
219.57        58.88369
220.02        46.06422
220.48        38.54795
220.94        40.91726
221.40        51.06952
221.86        61.04843
222.32        62.55645
222.77        56.46287
223.23        47.37174
223.69        39.75338
224.15        38.18277
224.61        42.16788
225.06        49.36135
225.52        56.65985
225.98           60.21
226.44         59.2606
226.90        55.46684
227.36        50.82352
227.81        47.95663
228.27        47.78655
228.73        49.23782
229.19        51.36332
229.65        52.81112
230.10        53.23489
230.56        53.21838
231.02        53.23107
231.48        53.77142
231.93         54.8482
232.39          56.229
232.85        57.56772
233.31        58.44067
233.77        58.71283
234.22        58.48919
234.68        57.97236
235.14        57.52882
235.60        57.33202
236.05        57.35906
236.51        57.40499
236.97        57.08998
237.43        56.35923
237.88        55.37056
238.34        54.52122
238.80         55.0897
239.26        57.57967
239.71        61.68414
240.17        66.24204
240.63        69.72673
241.08        71.64548
241.54        72.30278
242.00        72.13451
242.46        71.78181
242.91        71.70202
243.37        71.20217
243.83        72.52216
244.28        94.42655
244.74        150.9978
245.20        159.5671
245.66        148.2548
246.11        144.5348
246.57        147.2806
247.03        157.6517
247.48        175.7618
247.94        119.9586
248.40         89.3231
248.85        85.18079
249.31        86.02166
249.77        88.02518
250.22        91.10931
250.68        96.42432
251.14        103.8833
251.59        108.4257
252.05        105.3774
252.51        96.99866
252.96        88.39393
253.42        84.92999
253.88        86.02262
254.33        89.61898
254.79        94.65346
255.25        98.95809
255.70        101.6229
256.16         103.666
256.62        104.4551
257.07        103.2406
257.53        100.8039
257.99        97.10303
258.44        93.20482
258.90        91.45538
259.35        90.87556
259.81        90.89487
260.27        89.92873
260.72        86.42572
261.18        81.27647
261.63        75.10335
262.09        69.47852
262.55        65.43471
263.00        62.90738
263.46        61.51353
263.91        60.38709
264.37        58.99583
264.83        57.07865
265.28        54.72634
265.74        52.39838
266.19        50.50695
266.65        49.33647
267.11        48.63488
267.56        47.98967
268.02        46.92107
268.47        45.27884
268.93        43.24041
269.38        41.10816
269.84        39.64541
270.30        39.06203
270.75        39.14766
271.21        39.46836
271.66        39.36378
272.12        38.66111
272.57        37.55105
273.03        36.38665
273.48        35.60812
273.94         35.3396
274.39         35.3633
274.85        35.41734
275.31        35.10588
275.76        34.34706
276.22        33.33625
276.67        32.27767
277.13        31.56672
277.58        31.21938
278.04        31.12994
278.49        31.07283
278.95        30.81366
279.40        30.26734
279.86        29.59071
280.31         28.8521
280.77        28.27363
281.22        27.86302
281.68        27.58126
282.13        27.37486
282.59        27.21955
283.04        27.08316
283.50        27.01775
283.95        26.95853
284.41        26.82976
284.86        26.61466
285.32        26.34399
285.77         26.1246
286.22        26.18974
286.68        26.53636
287.13        27.04572
287.59        27.50911
288.04        27.60114
288.50         27.2963
288.95        26.69626
289.41        26.01032
289.86        25.43668
290.32         25.1061
290.77        24.94803
291.22        24.97363
291.68        25.15625
292.13        25.48024
292.59        25.96471
293.04        26.58787
293.50        27.30781
293.95        28.08854
294.40        28.90307
294.86        29.72765
295.31        30.54535
295.77        31.36531
296.22        32.19917
296.68        33.05758
297.13        33.92585
297.58        34.82237
298.04        35.76814
298.49        36.81464
298.95        38.08949
299.40         39.5949
299.85         41.2849
300.31        43.04042
300.76        44.66967
301.21        46.09464
301.67        47.39227
302.12        48.57856
302.58         49.7819
303.03        51.01881
303.48        52.28971
303.94        53.66952
304.39        55.21117
304.84        56.92638
305.30        58.78898
305.75        60.65096
306.20        62.30927
306.66        63.73303
307.11        64.92432
307.57        66.03034
308.02        67.15976
308.47         68.4056
308.93          69.746
309.38        71.10837
309.83        72.43011
310.29        73.67767
310.74         74.8335
311.19        75.95529
311.65        77.13025
312.10        78.35707
312.55         79.6194
313.00        80.76798
313.46        81.56734
313.91        81.96558
314.36        82.05978
314.82        82.10972
315.27        82.46633
315.72        83.24461
316.18        84.34143
316.63        85.56033
317.08        86.52794
317.53        87.12447
317.99        87.43585
318.44        87.65216
318.89         88.0898
319.35        88.80447
319.80        89.72549
320.25        90.59664
320.70        91.00441
321.16        90.86881
321.61        90.33506
322.06        89.72845
322.51        89.55563
322.97        89.90915
323.42        90.67139
323.87         91.5475
324.32        92.02818
324.78        91.96301
325.23        91.55886
325.68        91.03128
326.13        90.75887
326.59        90.84114
327.04        91.18581
327.49        91.70142
327.94        92.26958
328.39        92.82314
328.85        93.38432
329.30         93.9427
329.75        94.30482
330.20        94.45814
330.66        94.43038
331.11        94.43011
331.56        94.73165
332.01         95.4183
332.46        96.39643
332.92        97.51627
333.37         98.6819
333.82        99.71376
334.27        100.6413
334.72        101.3423
335.17        101.6348
335.63        101.5181
336.08        101.0997
336.53        100.6237
336.98        100.5348
337.43        100.9499
337.88        101.7496
338.34        102.7611
338.79        103.7739
339.24        104.6438
339.69        105.4552
340.14        106.1084
340.59        106.4365
341.05        106.4422
341.50        106.1433
341.95         105.816
342.40         105.908
342.85        106.5036
343.30        107.4918
343.75        108.5711
344.20        109.1949
344.66        109.2335
345.11        108.8517
345.56        108.3273
346.01        108.0808
346.46        108.2277
346.91        108.6227
347.36        109.1356
347.81        109.5747
348.26        109.8706
348.72        110.1035
349.17        110.2612
349.62        110.3627
350.07        110.4164
350.52        110.3977
350.97        110.3255
351.42        110.2465
351.87         110.172
352.32        110.0995
352.77        110.0089
353.22        109.8611
353.67        109.6498
354.13        109.4044
354.58        109.1194
355.03        108.8458
355.48        108.5891
355.93        108.3301
356.38        108.0452
356.83        107.6994
357.28        107.2811
357.73        106.8032
358.18         106.273
358.63        105.7003
359.08        105.1002
359.53        104.4839
359.98        103.8637
360.43        103.2567
360.88        102.6612
361.33        102.0583
361.78        101.4649
362.23        100.9083
362.68        100.3917
363.13        99.92409
363.58        99.42381
364.03        98.75715
364.48        97.91405
364.93        96.93743
365.38        95.98757
365.83        95.32685
366.28        94.99648
366.73        94.89384
367.18        94.83636
367.63         94.5266
368.08        93.89153
368.53        93.04951
368.98          92.098
369.43        91.17654
369.88        90.34566
370.33        89.56132
370.78         88.8837
371.23        88.41871
371.68        88.17447
372.13         88.1303
372.58        88.15819
373.03        88.02746
373.48        87.67919
373.93        87.17596
374.38        86.62216
374.83         86.1856
375.28         85.9046
375.72        85.70419
376.17         85.5465
376.62        85.35101
377.07        85.07916
377.52         84.7447
377.97        84.34447
378.42        83.87157
378.87        83.34405
379.32        82.79131
379.77        82.21384
380.22        81.60287
380.67        80.96313
381.11        80.29922
381.56        79.69049
382.01        79.27189
382.46        79.07353
382.91        79.06994
383.36        79.10789
383.81         78.9424
384.26        78.52327
384.71        77.90905
385.15        77.27189
385.60        76.94553
386.05        76.93537
386.50        77.13036
386.95        77.30125
387.40        77.07306
387.85        76.41342
388.29        75.47904
388.74        74.60468
389.19        73.97138
389.64         73.6104
390.09        73.39893
390.54        73.34452
390.98        73.46114
391.43         73.7085
391.88        74.06351
392.33        74.30411
392.78        74.08578
393.23        73.41458
393.67         72.4388
394.12        71.55077
394.57        71.00314
395.02        70.90667
395.47        71.30503
395.91        72.03462
396.36        72.52607
396.81        72.64594
397.26        72.57827
397.71        72.38239
398.15        72.02016
398.60        71.61914
399.05        71.24752
399.50        70.92078
399.95        70.32651
400.39        69.85655
400.84         69.6212
401.29        69.68253
401.74        69.69427
402.18        69.64198
402.63        69.66292
403.08        69.80068
403.53        70.01742
403.97        70.29282
404.42        70.59933
404.87        70.80345
405.32        70.67408
405.76        70.18182
406.21         69.5084
406.66        68.82613
407.11        68.35241
407.55         68.2168
408.00        68.37036
408.45        68.71367
408.90        69.18144
409.34        69.49357
409.79        69.04497
410.24        68.11089
410.68        67.70502
411.13         67.9255
411.58        68.21017
412.03        68.48101
412.47         68.8525
412.92        69.21854
413.37        69.57149
413.81        69.81463
414.26        69.84589
414.71        69.63996
415.15        69.21997
415.60        68.73302
416.05        68.43733
416.49        68.40553
416.94        68.59727
417.39        68.83002
417.83        68.76858
418.28        68.36408
418.73        67.73997
419.17        67.16181
419.62        67.04919
420.07         67.4346
420.51        68.16626
420.96        68.96498
421.41         69.2795
421.85        68.95735
422.30        68.51981
422.74         68.0733
423.19        67.33431
423.64        66.60365
424.08        67.07589
424.53        68.50246
424.98        69.27157
425.42        69.17072
425.87        69.24956
426.31        69.56007
426.76        69.31652
427.21        68.79696
427.65        69.12882
428.10        70.17104
428.54        70.97941
428.99        71.46513
429.44        71.63068
429.88        71.55342
430.33        72.26163
430.77        73.11104
431.22        71.98899
431.66        69.43888
432.11        67.87334
432.56        67.71158
433.00        68.66676
433.45        70.51685
433.89        72.46561
434.34        73.06446
434.78        74.06834
435.23         70.6649
435.67        68.20197
436.12        70.94852
436.57        72.07598
437.01        72.75987
437.46         73.1366
437.90        73.36232
438.35        73.04182
438.79        73.51527
439.24        73.40725
439.68        73.15975
440.13        72.73711
440.57        72.46731
441.02        73.22112
441.46        74.63879
441.91        75.48387
442.35        75.48333
442.80        74.74581
443.24        73.67739
443.69        74.19595
444.13        75.91305
444.58        75.96255
445.02        74.20447
445.47          74.022
445.91        75.20358
446.36        75.61667
446.80        75.18432
447.24        75.03983
447.69        75.26343
448.13        75.50149
448.58        75.76189
449.02        76.07877
449.47        76.40658
449.91        76.68704
450.36        76.89704
450.80        77.03098
451.25        77.06673
451.69        76.94023
452.13        76.68391
452.58        76.33831
453.02        76.02532
453.47        75.95197
453.91        76.12682
454.36        76.53162
454.80        77.04236
455.24        77.07954
455.69        76.96715
456.13        76.70561
456.58        76.54644
457.02        75.95699
457.46        75.19045
457.91         75.8774
458.35        76.44814
458.79        76.86624
459.24        76.69975
459.68        76.45564
460.13        76.18999
460.57        75.95438
461.01        75.89658
461.46        74.91131
461.90        74.94967
462.34        74.87522
462.79        74.78893
463.23        75.01412
463.68        75.33561
464.12        75.68722
464.56        75.92365
465.01        75.97985
465.45        75.74794
465.89        75.49773
466.34        75.20316
466.78        74.38174
467.22        73.25365
467.67        73.07172
468.11        74.21519
468.55        74.82229
468.99        74.77767
469.44        74.37879
469.88         73.8716
470.32        73.99571
470.77        74.62031
471.21        74.73943
471.65        74.28461
472.10        73.97771
472.54        73.92734
472.98        73.94139
473.42         74.0237
473.87        74.40002
474.31        74.85523
474.75        74.72485
475.20        74.14783
475.64        73.98543
476.08        74.30801
476.52        74.30132
476.97        73.91011
477.41        74.06947
477.85         74.8508
478.29        73.77328
478.74        74.32893
479.18        74.51783
479.62        73.43631
480.06        74.10782
480.50        74.41476
480.95        74.69093
481.39        74.42413
481.83        73.87694
482.27        74.05245
482.72        73.48731
483.16        72.60757
483.60        72.79446
484.04        74.37563
484.48        74.66701
484.93        74.39245
485.37        75.80891
485.81        76.83542
486.25        75.35612
486.69        101.1518
487.14        81.71725
487.58        50.90108
488.02        63.43993
488.46        71.80526
488.90        71.36691
489.34         73.1118
489.79        72.36147
490.23        74.36869
490.67        75.16894
491.11        74.06153
491.55        74.08762
491.99        74.76672
492.43        74.67592
492.88        73.89878
493.32        73.85891
493.76        74.02763
494.20        74.26141
494.64        74.31097
495.08         74.3708
495.52        74.49924
495.96        74.51155
496.41        74.35829
496.85        74.75084
497.29        75.43565
497.73        74.22536
498.17        72.17774
498.61         72.5474
499.05        75.27159
499.49        75.81426
499.93        75.77387
500.37        75.31004
500.82         74.4418
501.26        74.50829
501.70        75.20872
502.14        75.55575
502.58         75.3677
503.02        75.25026
503.46        75.19473
503.90        74.81892
504.34        74.28413
504.78        74.05067
505.22        74.17712
505.66        74.50443
506.10        74.90848
506.54        75.15005
506.98        75.07767
507.42         74.9053
507.86        74.52636
508.30        73.83498
508.74         74.2121
509.18         74.3284
509.62        74.50974
510.06        74.64973
510.50        74.71893
510.94        74.73521
511.38         74.7167
511.82        74.72068
512.26        74.75915
512.70        74.80744
513.14        74.86419
513.58        74.93494
514.02        75.01174
514.46        75.09175
514.90        75.15836
515.34        75.17002
515.78        75.11353
516.22        75.05478
516.66         75.0141
517.10        74.88177
517.54        74.66972
517.98        74.89162
518.42        74.81961
518.86        74.96817
519.30        75.10929
519.74        75.29773
520.18        75.49307
520.62        75.62082
521.06        75.67329
521.50        75.66831
521.93        75.62461
522.37        75.57479
522.81        75.53829
523.25        75.50432
523.69        75.49979
524.13        75.56467
524.57        75.70036
525.01        75.89846
525.45        76.09541
525.89        76.18756
526.32        76.14414
526.76        75.98894
527.20        75.79649
527.64        75.70659
528.08         75.7654
528.52        75.86918
528.96        75.90313
529.40        75.90574
529.83        75.89057
530.27        75.07919
530.71        75.07518
531.15        74.87464
531.59        74.96049
532.03        75.22162
532.46        75.59236
532.90        75.92857
533.34        76.15723
533.78        76.31781
534.22        76.39467
534.66        76.37383
535.09        76.25317
535.53        76.05992
535.97        75.83092
536.41        75.65382
536.85        75.55936
537.28        75.53987
537.72        75.56264
538.16        75.58218
538.60        75.58276
539.04        75.51453
539.47        75.40596
539.91        75.50343
540.35        75.72776
540.79        75.74516
541.22          75.553
541.66         75.4559
542.10        75.45544
542.54        75.36732
542.97        75.23585
543.41        75.24887
543.85        75.40788
544.29        75.67744
544.72        75.92392
545.16        75.97338
545.60        75.78765
546.04        75.41595
546.47        75.03854
546.91        74.99048
547.35        75.31557
547.79         75.8526
548.22        76.35405
548.66        76.58942
549.10        76.41353
549.53        75.64291
549.97        74.65031
550.41        74.19173
550.84         74.3539
551.28        74.92085
551.72        75.69357
552.15        76.00513
552.59        75.65614
553.03        76.38077
553.46        75.49427
553.90        75.42633
554.34        75.40898
554.77        75.40918
555.21        75.39218
555.65        75.35275
556.08        75.74348
556.52        75.24831
556.96        75.71972
557.39         75.6516
557.83        75.59489
558.27        75.52496
558.70        75.50339
559.14        75.60868
559.57        75.81123
560.01        76.07263
560.45         76.3037
560.88        76.40581
561.32        76.33942
561.75         76.0554
562.19        75.68649
562.63        75.19724
563.06        74.77232
563.50        74.97867
563.93        75.62579
564.37        75.90771
564.80        75.72948
565.24         75.5678
565.68        75.48055
566.11        75.40584
566.55         75.4221
566.98         75.4436
567.42        75.49426
567.85        75.77383
568.29        76.21947
568.72        76.24782
569.16        76.08784
569.60        76.38355
570.03        76.77367
570.47        76.86945
570.90        76.36697
571.34        74.45987
571.77        75.46958
572.21        75.34576
572.64        74.95392
573.08          74.247
573.51        71.05151
573.95        73.81075
574.38        78.22801
574.82        76.21566
