SpectraSmart Spectrum 2.9.0.0
--------- Device Information -----------
Spectrum Name :  反射率_0
Saving Time :  2024/04/26 01:39:49
Spectro-Module Model Name : SE2030-DUVN
Spectro-Module Serial Number : OS361AC55029948
Wavelength Start : 200
Wavelength End : 1025
Wavelength Unit : Wavelength(nm)
Spectrum Unit : Reflectance(%)
-----------Spectrum Setting ------------
Integration Time : 20ms
Average : 10
Boxcar : 0
Background removal :  enabled
linearity correction :  enabled
SC :  disabled
Intensity correction :  disabled
DWT denoise :  enabled
savitzky-golay :  disabled
FFT :  disabled
Running average :  disabled
Kalman :  disabled
High pass :  disabled
---------------BEGIN--------------------
Wavelength(nm)             Reflectance(%)
200.29               0
200.75        86.26784
201.21        84.00996
201.67        81.53294
202.13        79.94586
202.58        79.38227
203.04        79.87135
203.50        80.89402
203.96        81.64387
204.42        81.82375
204.88        81.53492
205.34         81.3331
205.80        81.93089
206.26        83.76155
206.72        87.98429
207.18        95.49869
207.64        98.92841
208.10        88.97749
208.55        76.40658
209.01        70.03341
209.47        69.40991
209.93        72.33237
210.39        78.18143
210.85        84.84109
211.31        87.26131
211.77        83.79415
212.23        76.26331
212.69          68.702
213.14        67.47559
213.60        73.46793
214.06        84.65352
214.52        96.83384
214.98         103.633
215.44         103.435
215.90        98.49066
216.36        91.45181
216.81        85.90052
217.27        83.23802
217.73        82.29769
218.19        81.56837
218.65        78.99696
219.11        73.56609
219.57        64.51036
220.02        52.93224
220.48        45.83404
220.94        47.23274
221.40        55.74439
221.86        63.67357
222.32        62.88882
222.77         54.6122
223.23        43.46822
223.69        34.72879
224.15        33.87455
224.61        40.02929
225.06        50.20695
225.52        60.09517
225.98        64.02404
226.44         61.0473
226.90        53.66272
227.36        44.97598
227.81        39.17433
228.27        37.60798
228.73         38.7424
229.19        41.41553
229.65        43.89949
230.10        45.52876
230.56        46.83611
231.02        48.00052
231.48        49.17875
231.93        50.38756
232.39         51.4635
232.85        52.27971
233.31        52.77063
233.77        52.90855
234.22        52.74712
234.68        52.36007
235.14        51.83992
235.60        51.31634
236.05        50.89332
236.51        50.62022
236.97        50.47961
237.43        50.51642
237.88        50.85152
238.34        51.69054
238.80        53.54714
239.26        56.45002
239.71        60.24572
240.17        64.00016
240.63        66.74679
241.08        68.26575
241.54        68.62486
242.00        68.57131
242.46        69.34498
242.91         72.0988
243.37        78.78503
243.83        99.02225
244.28        162.2363
244.74        229.1308
245.20        186.2983
245.66         150.598
246.11        142.6176
246.57        152.1737
247.03        189.3823
247.48        301.9833
247.94        255.4396
248.40        137.7699
248.85        100.5271
249.31        89.03543
249.77        87.23768
250.22        90.63671
250.68        98.88559
251.14        111.7468
251.59        121.1135
252.05        118.5713
252.51        107.6926
252.96        95.50821
253.42        89.10677
253.88        88.13729
254.33        89.85825
254.79        93.80989
255.25        98.77018
255.70        103.3628
256.16         107.814
256.62        110.3772
257.07        109.2003
257.53        105.3119
257.99        99.34333
258.44        93.06735
258.90        89.65561
259.35        88.21719
259.81        87.81782
260.27        86.63038
260.72        82.87755
261.18        77.39423
261.63        70.90515
262.09        65.00551
262.55        60.77814
263.00        58.16798
263.46        56.73944
263.91        55.60638
264.37        54.17649
264.83        52.20755
265.28        49.82262
265.74        47.52027
266.19        45.78599
266.65        44.87659
267.11        44.48487
267.56        44.16592
268.02        43.40949
268.47        42.07195
268.93        40.33444
269.38         38.4702
269.84        37.17981
270.30        36.64814
270.75        36.67886
271.21        36.87826
271.66        36.65308
272.12        35.85662
272.57        34.67994
273.03        33.46492
273.48        32.63243
273.94          32.305
274.39         32.2793
274.85        32.31768
275.31        32.06202
275.76        31.42562
276.22        30.57315
276.67         29.6631
277.13        29.01969
277.58        28.65277
278.04        28.48388
278.49        28.32293
278.95        27.97716
279.40        27.37885
279.86        26.66534
280.31         25.9163
280.77        25.36325
281.22        25.01131
281.68        24.81529
282.13        24.68946
282.59        24.55298
283.04        24.37412
283.50        24.22345
283.95        24.08346
284.41        23.94663
284.86        23.81105
285.32        23.67888
285.77        23.62264
286.22        23.82032
286.68          24.252
287.13        24.81684
287.59        25.31613
288.04        25.44439
288.50        25.18034
288.95        24.61863
289.41        23.96815
289.86        23.43303
290.32        23.14317
290.77        23.03281
291.22        23.10799
291.68        23.33178
292.13        23.69154
292.59        24.21369
293.04        24.88791
293.50         25.6883
293.95        26.58207
294.40        27.53285
294.86        28.51269
295.31         29.5009
295.77        30.50062
296.22        31.52229
296.68        32.56225
297.13        33.58094
297.58        34.59554
298.04        35.64069
298.49         36.7876
298.95        38.19664
299.40        39.88055
299.85        41.78054
300.31        43.77948
300.76        45.68396
301.21        47.40238
301.67        49.00622
302.12        50.47269
302.58        51.88042
303.03        53.24113
303.48        54.57159
303.94        55.99798
304.39        57.65053
304.84        59.55687
305.30        61.66932
305.75          63.787
306.20        65.62365
306.66        67.13345
307.11        68.34581
307.57        69.45894
308.02        70.65315
308.47        72.03489
308.93        73.54897
309.38        75.08419
309.83        76.52167
310.29        77.81101
310.74        78.95625
311.19        80.02349
311.65         81.1101
312.10        82.22541
312.55        83.35197
313.00        84.36838
313.46        85.08816
313.91        85.46667
314.36        85.58566
314.82        85.66902
315.27         86.0053
315.72        86.69665
316.18        87.66229
316.63        88.72507
317.08        89.54474
317.53        90.01978
317.99        90.22885
318.44        90.37698
318.89        90.80393
319.35         91.5634
319.80        92.57767
320.25        93.55763
320.70        94.03126
321.16        93.90057
321.61        93.32397
322.06        92.64902
322.51        92.42045
322.97        92.74433
323.42        93.49626
323.87        94.37669
324.32        94.86897
324.78        94.81811
325.23        94.43276
325.68        93.93293
326.13        93.70366
326.59        93.83974
327.04        94.24267
327.49        94.79435
327.94        95.33695
328.39        95.79482
328.85        96.19984
329.30        96.57877
329.75          96.799
330.20        96.87167
330.66        96.81756
331.11        96.82003
331.56        97.10419
332.01        97.74312
332.46         98.6611
332.92        99.73775
333.37        100.9344
333.82        102.0809
334.27        103.1765
334.72         104.064
335.17        104.5059
335.63         104.476
336.08         104.098
336.53        103.6059
336.98        103.4334
337.43        103.7084
337.88        104.3179
338.34        105.1458
338.79        106.0781
339.24        106.9915
339.69        107.9482
340.14        108.7836
340.59        109.2082
341.05        109.1927
341.50         108.799
341.95        108.3509
342.40        108.3682
342.85        108.9563
343.30        109.9713
343.75        111.1138
344.20        111.8443
344.66        112.0134
345.11        111.7715
345.56        111.3407
346.01        111.0562
346.46        111.0253
346.91        111.1413
347.36        111.3266
347.81        111.4723
348.26        111.5444
348.72        111.6096
349.17        111.6709
349.62        111.7666
350.07        111.8957
350.52        112.0199
350.97        112.1107
351.42        112.1392
351.87        112.0967
352.32        112.0001
352.77         111.844
353.22        111.6206
353.67        111.3407
354.13        111.0244
354.58        110.6934
355.03         110.443
355.48        110.2794
355.93        110.1676
356.38        110.0315
356.83        109.7484
357.28        109.2883
357.73        108.6939
358.18        108.0132
358.63        107.3244
359.08        106.6634
359.53        106.0162
359.98        105.3911
360.43        104.7981
360.88         104.227
361.33        103.6684
361.78        103.1046
362.23        102.5044
362.68        101.8653
363.13        101.2108
363.58        100.5236
364.03        99.77447
364.48        98.96909
364.93        98.11311
365.38         97.2916
365.83        96.64426
366.28        96.18223
366.73         95.8463
367.18        95.51183
367.63        94.97622
368.08        94.20526
368.53        93.29606
368.98        92.33002
369.43        91.42184
369.88        90.61562
370.33        89.86617
370.78        89.23338
371.23        88.82004
371.68        88.62455
372.13        88.62001
372.58        88.63954
373.03        88.39465
373.48        87.83079
373.93        87.04662
374.38        86.22282
374.83        85.64008
375.28        85.35841
375.72        85.26058
376.17        85.26513
376.62        85.21528
377.07        85.03796
377.52        84.76941
377.97         84.3772
378.42        83.81095
378.87        83.10033
379.32         82.2944
379.77        81.47777
380.22        80.76823
380.67        80.18573
381.11        79.69009
381.56        79.28321
382.01        78.96626
382.46        78.73113
382.91        78.60009
383.36         78.4511
383.81        78.09331
384.26        77.50522
384.71        76.72588
385.15        75.96399
385.60        75.60635
386.05        75.65752
386.50        75.99591
386.95        76.31509
387.40        76.10275
387.85        75.30687
388.29        74.14336
388.74        73.03921
389.19        72.29444
389.64        71.95972
390.09        71.87552
390.54        71.99337
390.98         72.2308
391.43        72.50494
391.88        72.81514
392.33        72.98534
392.78         72.6943
393.23        71.95752
393.67         71.0397
394.12        70.25887
394.57        69.50169
395.02        69.00329
395.47        69.44058
395.91        70.61621
396.36        71.32755
396.81        71.38059
397.26        71.31853
397.71         71.1948
398.15        70.78669
398.60        70.23006
399.05        69.69855
399.50        69.21716
399.95        68.41798
400.39        67.74347
400.84        67.43661
401.29        67.55367
401.74        67.71828
402.18        67.81838
402.63        67.73593
403.08        67.57258
403.53        67.65781
403.97        67.99934
404.42        68.35285
404.87        68.57001
405.32        68.48631
405.76        68.05401
406.21        67.47386
406.66        66.90958
407.11        66.41834
407.55        66.17281
408.00        66.50727
408.45        67.23798
408.90        67.61764
409.34        67.44238
409.79        66.90428
410.24        66.24599
410.68        65.87634
411.13         65.8861
411.58        66.04372
412.03        66.29508
412.47         66.6379
412.92        66.96967
413.37        67.31243
413.81         67.5611
414.26        67.59887
414.71        67.39838
415.15        66.98453
415.60        66.50336
416.05        66.21715
416.49         66.2007
416.94        66.40958
417.39        66.68049
417.83        66.70813
418.28        66.44584
418.73        66.00793
419.17        65.61482
419.62        65.62137
420.07        66.04488
420.51        66.74303
420.96        67.49374
421.41        67.81671
421.85        67.57212
422.30        67.32327
422.74        67.08105
423.19        66.27941
423.64        65.27161
424.08        65.61955
424.53        67.11947
424.98        67.89468
425.42        67.72308
425.87         67.9221
426.31        68.47531
426.76        68.15482
427.21        67.33176
427.65         67.7551
428.10        69.20013
428.54        70.13337
428.99        70.46003
429.44         70.3437
429.88         70.0128
430.33         71.0414
430.77        72.60046
431.22        71.48454
431.66        68.38627
432.11        66.97448
432.56        67.54589
433.00        68.52911
433.45        69.74844
433.89         71.5248
434.34        72.49131
434.78        74.09967
435.23        70.90031
435.67        68.52584
436.12        70.95219
436.57        71.98824
437.01        72.81135
437.46        73.08174
437.90        72.93747
438.35        72.97826
438.79        73.22044
439.24        73.18673
439.68        72.92999
440.13         72.4379
440.57        72.09221
441.02         72.9996
441.46        74.75825
441.91        75.75725
442.35        75.72611
442.80        75.02047
443.24        74.05251
443.69        74.68027
444.13        76.50285
444.58        76.41678
445.02        74.67826
445.47        74.38531
445.91        75.47923
446.36        75.85889
446.80        75.46329
447.24        75.42189
447.69        75.75585
448.13        76.02095
448.58         76.2075
449.02         76.3744
449.47        76.55547
449.91        76.81611
450.36        77.15439
450.80        77.53466
451.25        77.83041
451.69        77.78197
452.13        77.40706
452.58        76.87605
453.02         76.3832
453.47        76.20357
453.91        76.38358
454.36        76.86469
454.80        77.45368
455.24        77.69456
455.69        77.49991
456.13        77.16082
456.58        76.87249
457.02        76.27346
457.46        75.99134
457.91        76.27233
458.35         76.8657
458.79        77.19001
459.24        77.13971
459.68        77.01615
460.13        76.85756
460.57         76.5836
461.01        76.28082
461.46        75.65395
461.90        75.25967
462.34        75.14272
462.79        74.55224
463.23        74.77751
463.68        75.38808
464.12        75.92856
464.56        76.23545
465.01        76.25699
465.45        75.97243
465.89        76.09474
466.34         76.3708
466.78        75.29473
467.22        73.50317
467.67        72.73119
468.11        74.13184
468.55        74.94445
468.99        75.10158
469.44        74.78868
469.88        74.21413
470.32        74.21703
470.77        74.71696
471.21        74.75509
471.65        74.28119
472.10        73.98968
472.54        73.98698
472.98        74.05587
473.42        74.19321
473.87        74.67474
474.31         75.1925
474.75        74.88564
475.20        74.04177
475.64        73.37154
476.08        74.09757
476.52        74.09478
476.97        73.70126
477.41        73.84077
477.85        74.02388
478.29        74.27689
478.74        74.59819
479.18        74.63261
479.62         73.3615
480.06        73.88548
480.50        74.27476
480.95        74.79945
481.39        74.98476
481.83        73.97205
482.27        73.99284
482.72        74.04301
483.16        72.64117
483.60        72.55124
484.04         74.3241
484.48        74.71613
484.93        74.64443
485.37        75.86561
485.81        77.01653
486.25        75.42954
486.69        103.0016
487.14        83.01939
487.58        51.48904
488.02        63.47951
488.46        71.92817
488.90        71.34711
489.34        73.14565
489.79        72.13816
490.23        74.94218
490.67        75.77855
491.11        74.36748
491.55         74.1997
491.99         74.8476
492.43        74.66434
492.88        73.74362
493.32        73.66308
493.76        73.88836
494.20        74.16961
494.64        74.24126
495.08        74.38856
495.52        74.63108
495.96        74.59061
496.41        74.27624
496.85         74.6832
497.29        75.53549
497.73        74.42177
498.17        72.35059
498.61        72.58346
499.05         75.1115
499.49        75.56251
499.93        75.56516
500.37        75.25388
500.82        74.57774
501.26        74.66219
501.70        75.19712
502.14        75.60166
502.58        75.26396
503.02        75.10871
503.46        75.00162
503.90        74.61098
504.34        74.09934
504.78        73.89667
505.22        74.05801
505.66        74.47964
506.10        74.98824
506.54        75.20514
506.98        75.02641
507.42        74.88297
507.86        74.39684
508.30        74.20413
508.74        74.29469
509.18        74.53056
509.62        74.81989
510.06        74.98587
510.50        74.98289
510.94        74.86842
511.38        74.72317
511.82        74.66513
512.26         74.7268
512.70        74.86649
513.14        75.02459
513.58         75.1126
514.02        75.10103
514.46        75.01277
514.90        74.90547
515.34        74.85339
515.78        74.86523
516.22        74.97161
516.66        75.10525
517.10        75.01408
517.54        74.67995
517.98         74.6703
518.42        74.34828
518.86        74.37653
519.30        74.55718
519.74        74.89455
520.18        75.28423
520.62        75.55132
521.06        75.65369
521.50        75.64089
521.93        75.54917
522.37         75.4378
522.81        75.34406
523.25        75.25096
523.69        75.19686
524.13         75.2435
524.57        75.39491
525.01        75.63573
525.45        75.89915
525.89        76.07079
526.32        76.11034
526.76        76.04287
527.20         75.9144
527.64        75.82234
528.08        75.80982
528.52        75.78647
528.96        75.69035
529.40        75.63953
529.83        75.66524
530.27        74.97511
530.71        75.10927
531.15        74.96266
531.59        74.99731
532.03        75.13723
532.46        75.37076
532.90        75.64077
533.34        75.89754
533.78        76.14931
534.22        76.33619
534.66        76.37938
535.09        76.25976
535.53        76.02523
535.97        75.73679
536.41        75.52013
536.85        75.41387
537.28        75.39174
537.72        75.40703
538.16        75.39312
538.60        75.33316
539.04        75.19939
539.47        75.02184
539.91        75.04323
540.35        75.19153
540.79        75.13428
541.22        74.90801
541.66        74.87435
542.10        75.03616
542.54        75.18655
542.97        75.29189
543.41        75.41628
543.85        75.53266
544.29        75.64531
544.72        75.69592
545.16        75.59904
545.60        75.33875
546.04        75.02711
546.47        74.79301
546.91        74.64445
547.35        74.70783
547.79         75.4174
548.22        76.41486
548.66        76.69729
549.10         76.1665
549.53        75.31447
549.97        74.51176
550.41        74.10103
550.84        74.20493
551.28        74.71283
551.72        75.39375
552.15        75.83018
552.59        75.89741
553.03        75.75558
553.46        75.51524
553.90        75.31303
554.34        75.29578
554.77        75.39968
555.21         75.2659
555.65        75.39977
556.08        75.83711
556.52        75.21044
556.96        75.37483
557.39        75.19172
557.83        75.23136
558.27        75.26098
558.70        75.30894
559.14        75.47765
559.57        75.72172
560.01        76.01306
560.45        76.25308
560.88        76.30841
561.32        76.17038
561.75        75.83357
562.19        75.45181
562.63        75.06085
563.06        74.78977
563.50        74.97753
563.93        75.45451
564.37        75.68291
564.80         75.5593
565.24        75.33768
565.68        75.11487
566.11        75.00351
566.55        75.08751
566.98        75.25999
567.42        75.47002
567.85        75.72306
568.29         76.0174
568.72        76.01027
569.16        75.92502
569.60        76.44101
570.03        76.83344
570.47        76.86472
570.90        76.77558
571.34        74.78355
571.77        75.76153
572.21        76.13675
572.64        75.65683
573.08         74.4659
573.51        71.45505
573.95        74.10578
574.38        78.54868
574.82        76.38229
