SpectraSmart Spectrum 2.9.0.0
--------- Device Information -----------
Spectrum Name :  反射率_0
Saving Time :  2024/04/26 01:21:32
Spectro-Module Model Name : SE2030-DUVN
Spectro-Module Serial Number : OS361AC55029948
Wavelength Start : 200
Wavelength End : 1025
Wavelength Unit : Wavelength(nm)
Spectrum Unit : Reflectance(%)
-----------Spectrum Setting ------------
Integration Time : 20ms
Average : 10
Boxcar : 0
Background removal :  enabled
linearity correction :  enabled
SC :  disabled
Intensity correction :  disabled
DWT denoise :  enabled
savitzky-golay :  disabled
FFT :  disabled
Running average :  disabled
Kalman :  disabled
High pass :  disabled
---------------BEGIN--------------------
Wavelength(nm)             Reflectance(%)
200.29               0
200.75        107.9807
201.21        101.2616
201.67        92.20263
202.13        85.94431
202.58        83.34479
203.04        83.37395
203.50        84.25614
203.96        83.33115
204.42        80.37729
204.88        76.74892
205.34        74.01894
205.80        73.67807
206.26        76.43101
206.72        84.22245
207.18        100.5157
207.64        116.2909
208.10        109.3514
208.55        91.08634
209.01         79.4289
209.47        76.50314
209.93        78.96278
210.39        85.02989
210.85        91.70081
211.31        92.41451
211.77        85.34445
212.23        73.33815
212.69        61.57851
213.14         57.9032
213.60        63.62082
214.06        76.32304
214.52        91.34695
214.98        101.4805
215.44        104.4851
215.90        102.5036
216.36        97.71573
216.81        93.05412
217.27        89.97202
217.73        87.64753
218.19        85.09846
218.65        80.82719
219.11        73.96212
219.57        63.73296
220.02        51.42094
220.48        44.55759
220.94        47.31535
221.40        57.65007
221.86        67.72719
222.32        69.44355
222.77        63.55696
223.23        54.50928
223.69        46.57555
224.15        44.14137
224.61        46.79295
225.06        52.37503
225.52        57.97519
225.98        60.03389
226.44        57.93447
226.90        53.27839
227.36        48.10305
227.81        45.06938
228.27        45.04512
228.73        46.91283
229.19        49.56052
229.65        51.36954
230.10        51.93145
230.56        51.89801
231.02        51.80048
231.48        52.23084
231.93        53.20764
232.39        54.42765
232.85        55.60078
233.31        56.38709
233.77        56.66657
234.22        56.58899
234.68        56.18059
235.14        55.45644
235.60        54.58274
236.05        53.70039
236.51        53.04078
236.97        52.87073
237.43        53.30838
237.88        54.45514
238.34        56.46729
238.80        59.54985
239.26        63.44819
239.71        68.06049
240.17        72.21231
240.63        74.68065
241.08        75.30901
241.54        74.21938
242.00        72.78666
242.46        73.15917
242.91        76.96999
243.37         87.3653
243.83        118.1955
244.28        205.2085
244.74         278.494
245.20        207.1712
245.66        156.7213
246.11        143.1289
246.57        149.3342
247.03        181.9333
247.48        284.3376
247.94        242.9452
248.40        135.7578
248.85        101.9323
249.31        91.83082
249.77        90.92146
250.22        95.24805
250.68        104.6584
251.14        119.0674
251.59        129.9396
252.05        127.9086
252.51        116.5547
252.96        103.3098
253.42        95.71402
253.88        93.54709
254.33        94.13461
254.79        97.23273
255.25        101.8856
255.70        106.7225
256.16        111.7826
256.62        115.2261
257.07         115.136
257.53        112.4579
257.99        107.7186
258.44        102.4388
258.90        99.56987
259.35        98.21642
259.81        97.67442
260.27         96.3055
260.72        92.50602
261.18        87.16531
261.63        80.89326
262.09        75.21177
262.55        71.05029
263.00        68.33721
263.46        66.73314
263.91        65.42914
264.37        64.00124
264.83        62.15884
265.28        59.94772
265.74        57.72573
266.19        55.73154
266.65        54.27667
267.11        53.20467
267.56        52.22269
268.02        50.99686
268.47        49.37146
268.93        47.46867
269.38        45.52752
269.84        44.19867
270.30        43.64411
270.75        43.67994
271.21        43.88834
271.66        43.63099
272.12        42.75465
272.57        41.44763
273.03         40.0784
273.48        39.10817
273.94        38.67507
274.39        38.55891
274.85        38.51752
275.31        38.17159
275.76         37.4326
276.22        36.48933
276.67        35.49753
277.13        34.79053
277.58        34.37246
278.04        34.16139
278.49        33.97672
278.95         33.6604
279.40        33.12904
279.86        32.50999
280.31        31.82284
280.77        31.22497
281.22        30.71066
281.68        30.27773
282.13        29.89755
282.59        29.58484
283.04         29.3188
283.50        29.14306
283.95        28.99923
284.41        28.82681
284.86        28.60365
285.32         28.3541
285.77        28.15989
286.22        28.21704
286.68        28.51575
287.13        28.94875
287.59        29.32078
288.04        29.32573
288.50        28.94695
288.95        28.27539
289.41        27.53024
289.86        26.92204
290.32        26.57942
290.77        26.42691
291.22        26.45062
291.68        26.58162
292.13        26.80284
292.59        27.15656
293.04        27.65055
293.50        28.29283
293.95        29.05683
294.40        29.88653
294.86        30.75478
295.31        31.63969
295.77        32.53436
296.22        33.44936
296.68        34.33176
297.13        35.06751
297.58        35.66523
298.04        36.17907
298.49        36.76712
298.95        37.72228
299.40        39.08097
299.85        40.75072
300.31        42.51411
300.76        44.01978
301.21        45.15528
301.67        46.05518
302.12        46.81823
302.58        47.68726
303.03        48.70311
303.48        49.82098
303.94        51.06004
304.39        52.39576
304.84         53.8213
305.30        55.34148
305.75        56.85143
306.20        58.20887
306.66        59.40129
307.11        60.41702
307.57        61.37199
308.02        62.33656
308.47        63.38887
308.93        64.51467
309.38        65.67252
309.83        66.84308
310.29        68.00172
310.74        69.12567
311.19        70.22184
311.65        71.30038
312.10        72.35191
312.55        73.38121
313.00        74.32291
313.46        75.07939
313.91        75.61816
314.36        75.97818
314.82        76.30614
315.27        76.78733
315.72        77.49667
316.18        78.38692
316.63        79.33369
317.08         80.0863
317.53        80.57181
317.99        80.84313
318.44        81.07233
318.89         81.5462
319.35        82.30559
319.80        83.28895
320.25        84.23338
320.70        84.70503
321.16        84.61585
321.61        84.11145
322.06        83.51237
322.51        83.32342
322.97        83.64492
323.42        84.36018
323.87        85.20322
324.32        85.71328
324.78        85.74703
325.23         85.4889
325.68        85.11697
326.13        84.94553
326.59         85.0551
327.04        85.36905
327.49        85.80733
327.94        86.27218
328.39         86.7113
328.85        87.14437
329.30        87.58412
329.75        87.88783
330.20         88.0523
330.66        88.09634
331.11        88.18567
331.56        88.52282
332.01        89.17233
332.46        90.06216
332.92        91.07635
333.37        92.16777
333.82        93.18622
334.27        94.14565
334.72         94.9205
335.17         95.3233
335.63        95.33729
336.08        95.05561
336.53         94.7008
336.98        94.68187
337.43        95.10599
337.88        95.86864
338.34        96.78989
338.79        97.64713
339.24        98.31099
339.69        98.87538
340.14        99.31762
340.59        99.59805
341.05        99.74052
341.50        99.72263
341.95        99.71204
342.40         99.9952
342.85        100.6221
343.30        101.5264
343.75        102.4751
344.20        103.0454
344.66        103.1384
345.11        102.8633
345.56        102.4576
346.01        102.2864
346.46        102.4435
346.91        102.8123
347.36        103.2465
347.81        103.5217
348.26        103.5818
348.72        103.5304
349.17        103.4276
349.62        103.4137
350.07        103.5271
350.52        103.7072
350.97         103.912
351.42        104.0912
351.87        104.2185
352.32         104.306
352.77         104.338
353.22        104.2874
353.67         104.152
354.13        103.9508
354.58        103.6779
355.03        103.3885
355.48        103.0959
355.93         102.789
356.38        102.4647
356.83        102.1134
357.28         101.731
357.73        101.3288
358.18         100.893
358.63        100.3982
359.08        99.85001
359.53        99.26372
359.98         98.6776
360.43        98.15025
360.88        97.68766
361.33         97.2622
361.78        96.84619
362.23        96.39586
362.68        95.90154
363.13        95.39043
363.58         94.8494
364.03        94.25336
364.48        93.60854
364.93        92.91879
365.38        92.25542
365.83        91.73867
366.28        91.37582
366.73        91.11043
367.18        90.84219
367.63        90.40739
368.08        89.77798
368.53         89.0411
368.98        88.24277
369.43        87.44204
369.88        86.67879
370.33        85.93289
370.78        85.31026
371.23        84.98922
371.68        84.98517
372.13        85.23912
372.58        85.54822
373.03        85.56245
373.48        85.19491
373.93        84.55515
374.38        83.81342
374.83        83.23747
375.28        82.90148
375.72        82.70542
376.17        82.61195
376.62        82.53584
377.07        82.42641
377.52         82.3018
377.97        82.11693
378.42        81.79221
378.87        81.33167
379.32        80.78014
379.77        80.18515
380.22        79.61752
380.67        79.09365
381.11        78.58396
381.56        78.13575
382.01        77.82744
382.46        77.67407
382.91        77.68646
383.36        77.70228
383.81        77.45982
384.26        76.92502
384.71        76.16177
385.15         75.4297
385.60        75.19357
386.05        75.46728
386.50        76.09142
386.95        76.69714
387.40        76.66353
387.85        75.90489
388.29         74.6778
388.74        73.45149
389.19         72.5778
389.64         72.1248
390.09        71.91821
390.54        71.93322
390.98        72.12903
391.43        72.44051
391.88         72.8668
392.33        73.18272
392.78        73.02982
393.23        72.41309
393.67         71.4837
394.12        70.63679
394.57         70.1282
395.02        70.07635
395.47        70.54382
395.91        71.36229
396.36        71.92318
396.81        72.08341
397.26        72.05094
397.71        71.85476
398.15        71.42144
398.60        70.88868
399.05        70.30151
399.50        69.74933
399.95         69.1273
400.39        68.78412
400.84        68.57061
401.29        68.53695
401.74        68.54096
402.18        68.56821
402.63        68.61513
403.08        68.73877
403.53        68.99299
403.97        69.36541
404.42         69.8054
404.87        70.13476
405.32        70.06111
405.76        69.54153
406.21        68.74593
406.66        67.92653
407.11        67.47234
407.55        67.49305
408.00        67.79267
408.45        68.20643
408.90        68.59761
409.34        68.71959
409.79        68.15897
410.24        67.21097
410.68         66.7562
411.13        66.89944
411.58        67.17834
412.03        67.50557
412.47        67.91373
412.92        68.28012
413.37        68.62049
413.81        68.83217
414.26        68.79889
414.71        68.50132
415.15        67.97443
415.60        67.37981
416.05        67.00156
416.49        66.92316
416.94        67.09458
417.39        67.35403
417.83        67.39772
418.28        67.16647
418.73         66.7606
419.17        66.37608
419.62        66.33421
420.07        66.65166
420.51          67.203
420.96        67.77193
421.41        67.92881
421.85        67.55885
422.30        67.12749
422.74        66.70194
423.19        65.98558
423.64        65.24359
424.08        65.58324
424.53        66.79828
424.98        67.47476
425.42        67.43401
425.87        67.56754
426.31        67.89571
426.76        67.76779
427.21        67.37879
427.65        67.52595
428.10        68.15478
428.54        68.76905
428.99        69.32644
429.44        69.60504
429.88        69.62392
430.33        70.40529
430.77        71.29322
431.22        70.17207
431.66        67.60487
432.11        66.07991
432.56         65.9713
433.00        66.82869
433.45         68.4409
433.89        70.24721
434.34        70.84872
434.78        72.21406
435.23        68.22145
435.67        66.73418
436.12          69.244
436.57        70.38976
437.01        70.69499
437.46        70.90166
437.90          70.846
438.35        70.81524
438.79         70.9026
439.24        70.82435
439.68        70.68112
440.13        70.33753
440.57        70.11253
441.02        71.08489
441.46        72.80993
441.91        73.54807
442.35         73.1301
442.80         72.2682
443.24        71.34084
443.69        71.76322
444.13        73.18388
444.58         73.2622
445.02        71.65043
445.47        71.66618
445.91           72.98
446.36         73.4539
446.80        72.98324
447.24        72.70735
447.69        72.76745
448.13        72.85376
448.58        73.09921
449.02        73.43536
449.47        73.80541
449.91        74.08417
450.36        74.23463
450.80        74.27019
451.25        74.21412
451.69        74.08408
452.13        73.91833
452.58        73.70647
453.02        73.52131
453.47        73.52473
453.91         73.7162
454.36        74.05759
454.80         74.4052
455.24        74.42706
455.69        74.08405
456.13        73.59188
456.58        73.16461
457.02        72.60586
457.46        72.40739
457.91        72.72371
458.35        73.40467
458.79        73.68851
459.24         73.5147
459.68        73.20975
460.13        72.86383
460.57        72.50927
461.01        72.25568
461.46        71.86842
461.90        71.31774
462.34        71.87527
462.79        71.43728
463.23        71.76156
463.68        72.13339
464.12        72.44562
464.56        72.61699
465.01        72.72228
465.45        72.64135
465.89        72.52213
466.34        72.27198
466.78        71.21249
467.22        69.91631
467.67        69.37969
468.11        70.80807
468.55        71.50282
468.99        71.51015
469.44        71.13671
469.88        70.58347
470.32        70.66122
470.77        70.98392
471.21        70.97572
471.65        70.51315
472.10        70.26209
472.54         70.2595
472.98        70.25554
473.42        70.25942
473.87        70.40745
474.31         70.5916
474.75        70.60257
475.20        70.52905
475.64        70.30572
476.08        70.78207
476.52        70.78194
476.97        70.48877
477.41        70.71884
477.85         70.9645
478.29        70.38593
478.74        70.67644
479.18        70.89928
479.62        69.89104
480.06        70.50582
480.50        70.77477
480.95        70.90795
481.39        70.44858
481.83         70.1058
482.27        69.98467
482.72        69.59982
483.16        68.87572
483.60        68.90674
484.04        70.21413
484.48        70.75329
484.93          71.117
485.37        72.48911
485.81        72.95071
486.25        71.60304
486.69        96.50208
487.14        78.08887
487.58        48.72484
488.02        60.15916
488.46         68.1153
488.90         68.1037
489.34        69.08341
489.79        68.69916
490.23        70.76865
490.67         71.5639
491.11        70.24755
491.55        70.11961
491.99        70.77853
492.43        70.67665
492.88        69.91942
493.32        69.97955
493.76        70.29868
494.20        70.59618
494.64        70.60963
495.08        70.51574
495.52        70.47198
495.96         70.5239
496.41        70.58943
496.85        71.19174
497.29        71.98801
497.73         70.6311
498.17          68.245
498.61         68.5481
499.05        71.46027
499.49        71.90587
499.93         71.4627
500.37        71.09195
500.82        70.88813
501.26        70.97105
501.70        71.17049
502.14        71.51232
502.58        71.62019
503.02         71.5909
503.46        71.34367
503.90        70.83948
504.34        70.27693
504.78        70.02271
505.22        70.14716
505.66        70.54313
506.10         71.0316
506.54         71.2512
506.98        71.10172
507.42        70.80695
507.86        70.56169
508.30        70.08014
508.74        70.35783
509.18        70.55538
509.62        70.84321
510.06        71.03243
510.50        71.07809
510.94        71.03675
511.38        70.94689
511.82        70.88484
512.26        70.87791
512.70        70.89288
513.14        70.92657
513.58        71.02757
514.02         71.1936
514.46        71.32614
514.90        71.37014
515.34        71.65834
515.78        71.47036
516.22        71.43752
516.66        71.37452
517.10        71.17302
517.54        70.84634
517.98        71.00123
518.42        70.81306
518.86        70.87667
519.30        70.93913
519.74        71.07106
520.18        71.24216
520.62        71.39028
521.06        71.50491
521.50        71.58914
521.93        71.64272
522.37         71.6674
522.81        71.67124
523.25        71.65508
523.69        71.63616
524.13        71.64317
524.57         71.6836
525.01         71.7502
525.45        71.83156
525.89        71.90862
526.32        71.96189
526.76        71.98944
527.20        71.98321
527.64        71.94872
528.08        71.90686
528.52        71.80611
528.96        71.61774
529.40        71.49932
529.83        71.49848
530.27        70.84924
530.71        71.01363
531.15        70.96069
531.59        71.12025
532.03        71.41222
532.46        71.78976
532.90        72.13814
533.34        72.39278
533.78        72.57656
534.22        72.66013
534.66        72.61439
535.09        72.43664
535.53        72.16335
535.97        71.84978
536.41        71.60771
536.85        71.47548
537.28        71.44183
537.72        71.46124
538.16        71.46518
538.60        71.43394
539.04        71.32939
539.47        71.19637
539.91        71.29361
540.35        71.54948
540.79        71.63684
541.22        71.53122
541.66        71.48727
542.10        71.49803
542.54        71.39942
542.97        71.24813
543.41        71.24387
543.85        71.39379
544.29        71.65963
544.72        71.90569
545.16        71.93972
545.60        71.71481
546.04        71.32072
546.47        70.93861
546.91        70.78465
547.35        70.94083
547.79        71.53722
548.22        72.26845
548.66         72.4029
549.10        71.86662
549.53        71.12269
549.97        70.51221
550.41        69.94329
550.84        70.14345
551.28        70.58171
551.72        71.25993
552.15        71.63759
552.59        71.57274
553.03        71.86249
553.46        71.42831
553.90        71.37009
554.34        71.37609
554.77        71.45544
555.21        71.58874
555.65        71.34104
556.08        71.79704
556.52        71.20927
556.96        71.54908
557.39        71.37797
557.83        71.24186
558.27        71.16315
558.70        71.18044
559.14        71.28272
559.57        71.43657
560.01        71.70197
560.45        71.98495
560.88        72.06838
561.32          71.956
561.75        71.77271
562.19        71.60735
562.63         71.2739
563.06        70.90553
563.50        71.00763
563.93        71.44094
564.37        71.61551
564.80         71.4436
565.24        71.21885
565.68        71.02704
566.11        70.93253
566.55        71.00911
566.98        71.18622
567.42        71.41479
567.85        71.64794
568.29        71.89805
568.72        71.93988
569.16        71.96091
569.60        72.42535
570.03        72.76649
570.47        72.72073
570.90        72.51207
571.34        70.52834
571.77        71.59135
572.21        71.29066
572.64        71.00708
573.08        70.08595
573.51        67.43336
573.95        69.94977
574.38        73.87034
574.82        72.06998
