SpectraSmart Spectrum 2.9.0.0
--------- Device Information -----------
Spectrum Name :  反射率_0
Saving Time :  2024/04/26 01:44:10
Spectro-Module Model Name : SE2030-DUVN
Spectro-Module Serial Number : OS361AC55029948
Wavelength Start : 200
Wavelength End : 1025
Wavelength Unit : Wavelength(nm)
Spectrum Unit : Reflectance(%)
-----------Spectrum Setting ------------
Integration Time : 20ms
Average : 10
Boxcar : 0
Background removal :  enabled
linearity correction :  enabled
SC :  disabled
Intensity correction :  disabled
DWT denoise :  enabled
savitzky-golay :  disabled
FFT :  disabled
Running average :  disabled
Kalman :  disabled
High pass :  disabled
---------------BEGIN--------------------
Wavelength(nm)             Reflectance(%)
200.29               0
200.75         84.4327
201.21        82.91531
201.67        80.29755
202.13        77.25898
202.58        74.03639
203.04         70.8345
203.50        67.98669
203.96        66.38671
204.42        66.18784
204.88        66.88379
205.34        67.95686
205.80        68.97135
206.26        70.01273
206.72        71.74317
207.18        74.40426
207.64        75.25042
208.10         71.2086
208.55        66.16181
209.01        63.68165
209.47        63.90775
209.93        65.89363
210.39        69.49292
210.85        73.33207
211.31        74.13303
211.77        70.95347
212.23        65.04089
212.69        59.24184
213.14        58.07268
213.60        62.07703
214.06        70.03232
214.52        78.96272
214.98        84.28674
215.44        84.77884
215.90         81.8693
216.36        77.57307
216.81        74.60067
217.27        73.91457
217.73        74.56465
218.19        74.99771
218.65        73.15687
219.11        68.09121
219.57        58.86789
220.02        46.60267
220.48        38.78317
220.94        39.68897
221.40        47.96181
221.86        55.56863
222.32        53.85758
222.77        44.30273
223.23        31.97013
223.69        22.43002
224.15        21.40984
224.61        28.00193
225.06        39.00471
225.52        50.10884
225.98         55.7027
226.44        54.70998
226.90        49.51338
227.36        42.83421
227.81         38.3515
228.27        37.32427
228.73        38.33294
229.19        40.51803
229.65         42.6487
230.10        44.18129
230.56        45.51506
231.02        46.66675
231.48        47.57532
231.93        48.26076
232.39        48.68513
232.85        48.85146
233.31         48.8753
233.77        48.77254
234.22        48.50948
234.68        48.12489
235.14        47.64211
235.60        47.14112
236.05        46.75672
236.51        46.45259
236.97        46.06298
237.43        45.59251
237.88        45.12518
238.34         45.0066
238.80        46.19567
239.26        48.98626
239.71        53.11774
240.17        57.49282
240.63        60.73105
241.08        62.40738
241.54        62.69711
242.00        62.19328
242.46        61.77903
242.91         61.9492
243.37        62.55414
243.83        66.24703
244.28        87.37681
244.74        127.8999
245.20        127.3245
245.66        116.6007
246.11        114.0565
246.57        118.1416
247.03        131.8559
247.48        169.5085
247.94        144.1042
248.40        102.2592
248.85        90.09922
249.31        86.64548
249.77        85.79166
250.22         86.0779
250.68         87.3278
251.14        89.11802
251.59        89.02963
252.05        85.85278
252.51        81.35364
252.96        77.55443
253.42        76.68432
253.88        78.14988
254.33        80.85556
254.79        84.73283
255.25        88.99228
255.70        92.73035
256.16        96.07849
256.62        97.80508
257.07        96.66061
257.53         93.4767
257.99        88.61018
258.44          83.496
258.90        80.79834
259.35        79.67808
259.81        79.40703
260.27        78.27457
260.72        74.60887
261.18         69.2356
261.63        62.87099
262.09        57.17776
262.55        53.37384
263.00        51.35143
263.46        50.55236
263.91         49.9553
264.37        48.78387
264.83        46.83373
265.28        44.30604
265.74        41.83197
266.19        40.12051
266.65        39.42352
267.11        39.33643
267.56        39.28989
268.02        38.61209
268.47         37.1665
268.93        35.19958
269.38         33.0683
269.84        31.62174
270.30        31.09868
270.75        31.25512
271.21        31.65668
271.66        31.65466
272.12        31.06645
272.57        30.09082
273.03        29.04517
273.48        28.31891
273.94        28.02979
274.39        27.99439
274.85        27.98695
275.31        27.67752
275.76        27.00375
276.22         26.1319
276.67        25.25888
277.13        24.74984
277.58        24.61152
278.04        24.72647
278.49        24.86039
278.95        24.74862
279.40        24.31118
279.86        23.70232
280.31        23.00749
280.77        22.46241
281.22        22.08644
281.68        21.83042
282.13         21.6468
282.59        21.50204
283.04        21.37183
283.50        21.31003
283.95        21.25729
284.41        21.13334
284.86        20.92713
285.32        20.66603
285.77        20.46925
286.22        20.58035
286.68        20.99434
287.13        21.59174
287.59        22.14362
288.04        22.30536
288.50        22.04266
288.95        21.46795
289.41        20.80341
289.86        20.27741
290.32        20.02163
290.77        19.96147
291.22        20.08742
291.68          20.344
292.13        20.71164
292.59        21.21386
293.04        21.85099
293.50          22.613
293.95        23.46874
294.40        24.37786
294.86        25.28589
295.31        26.13139
295.77        26.91693
296.22        27.67469
296.68        28.44754
297.13        29.27258
297.58        30.18319
298.04        31.18137
298.49        32.30496
298.95        33.65688
299.40        35.23006
299.85        36.98692
300.31        38.79675
300.76        40.44931
301.21        41.86786
301.67         43.1335
302.12        44.29298
302.58        45.51464
303.03        46.82281
303.48        48.19763
303.94        49.68707
304.39        51.30586
304.84        53.05321
305.30        54.91698
305.75        56.75704
306.20        58.37867
306.66        59.75925
307.11         60.9037
307.57        61.97065
308.02        63.09467
308.47        64.36598
308.93        65.74815
309.38        67.15557
309.83        68.50039
310.29        69.73962
310.74        70.86907
311.19        71.93356
311.65        73.00087
312.10        74.07669
312.55        75.15266
313.00        76.12946
313.46        76.85454
313.91        77.28873
314.36        77.49678
314.82        77.67616
315.27        78.08404
315.72        78.80909
316.18        79.77896
316.63        80.82385
317.08        81.61779
317.53        82.06703
317.99        82.24934
318.44        82.36759
318.89        82.75731
319.35         83.4743
319.80        84.43928
320.25        85.37962
320.70        85.84844
321.16        85.74813
321.61        85.22713
322.06        84.59978
322.51        84.35787
322.97        84.60107
323.42        85.22153
323.87        85.95737
324.32        86.35664
324.78        86.28838
325.23         85.9409
325.68        85.51591
326.13        85.36524
326.59        85.56685
327.04        86.01862
327.49        86.60176
327.94        87.15465
328.39         87.6007
328.85        87.97877
329.30        88.29254
329.75        88.38943
330.20        88.28796
330.66        88.02393
331.11         87.8436
331.56        88.07253
332.01        88.80243
332.46        89.93542
332.92        91.27253
333.37        92.60568
333.82        93.71687
334.27        94.63967
334.72        95.29678
335.17        95.59798
335.63        95.56075
336.08        95.25468
336.53        94.85574
336.98        94.70171
337.43        94.89378
337.88        95.36216
338.34        96.01386
338.79        96.76134
339.24        97.50033
339.69        98.27572
340.14        98.96171
340.59        99.33646
341.05        99.37767
341.50        99.13726
341.95        98.84904
342.40          98.896
342.85         99.3584
343.30        100.1214
343.75        100.9984
344.20        101.6466
344.66          101.96
345.11        102.0283
345.56        101.9267
346.01        101.7688
346.46        101.6193
346.91        101.4447
347.36        101.3122
347.81        101.3368
348.26        101.5369
348.72        101.9108
349.17        102.3286
349.62        102.6135
350.07        102.7112
350.52        102.6571
350.97        102.5419
351.42        102.5178
351.87        102.6123
352.32        102.7669
352.77        102.8856
353.22        102.8227
353.67        102.5502
354.13        102.1436
354.58        101.6653
355.03         101.266
355.48        100.9853
355.93        100.7786
356.38        100.5948
356.83        100.3546
357.28        100.0261
357.73        99.63049
358.18        99.18114
358.63        98.69479
359.08        98.18636
359.53        97.66306
359.98         97.1143
360.43        96.52602
360.88        95.89938
361.33        95.23216
361.78        94.59389
362.23        94.09404
362.68        93.74821
363.13        93.53212
363.58        93.30415
364.03        92.83842
364.48        92.09575
364.93        91.13964
365.38        90.15636
365.83        89.45399
366.28         89.0912
366.73        88.95532
367.18        88.85851
367.63        88.49354
368.08        87.79534
368.53        86.90554
368.98        85.93801
369.43        85.05121
369.88        84.30802
370.33         83.6459
370.78        83.12793
371.23        82.86659
371.68        82.85419
372.13        83.05707
372.58        83.28075
373.03        83.18937
373.48        82.70851
373.93        81.94047
374.38        81.08422
374.83        80.45079
375.28        80.12006
375.72        79.98829
376.17        79.96723
376.62        79.88475
377.07        79.67355
377.52        79.37226
377.97        79.00994
378.42        78.63267
378.87        78.26637
379.32        77.88603
379.77        77.44272
380.22        76.92559
380.67         76.3416
381.11        75.47202
381.56        74.85205
382.01        74.33147
382.46        74.08621
382.91        74.07045
383.36        74.11994
383.81        73.96064
384.26        73.53252
384.71        72.91078
385.15        72.27888
385.60        71.98105
386.05        72.02456
386.50        72.28603
386.95         72.5233
387.40        72.34096
387.85        71.69756
388.29        70.76154
388.74        69.86213
389.19        69.18637
389.64        68.77229
390.09        68.50346
390.54        68.40057
390.98        68.50051
391.43        68.76714
391.88        69.16636
392.33        69.47413
392.78        69.33616
393.23        68.74842
393.67         67.8756
394.12        67.07547
394.57        66.53542
395.02        66.37984
395.47        66.73344
395.91        67.45393
396.36         67.9499
396.81        68.09354
397.26        68.09483
397.71         67.9744
398.15        67.64196
398.60        67.22057
399.05        66.74371
399.50        66.26482
399.95        65.69629
400.39        65.35664
400.84        64.96514
401.29         64.6481
401.74        64.66394
402.18        64.95732
402.63        65.03487
403.08        64.94893
403.53        65.12488
403.97        65.55028
404.42        65.95136
404.87        66.15357
405.32        65.98551
405.76        65.42313
406.21        64.61295
406.66         63.7905
407.11         63.3414
407.55         63.3622
408.00        63.63875
408.45        63.85295
408.90        64.48042
409.34        65.09724
409.79        64.62601
410.24        63.39752
410.68        62.85362
411.13        63.11134
411.58        63.39225
412.03        63.58944
412.47        63.86319
412.92        64.11107
413.37        64.32807
413.81        64.44714
414.26        64.39989
414.71        64.17051
415.15        63.77419
415.60        63.34431
416.05        63.11515
416.49        63.14558
416.94        63.39592
417.39        63.67746
417.83        63.64781
418.28        63.25528
418.73        62.62357
419.17        62.01866
419.62        61.85963
420.07        62.19037
420.51        62.86235
420.96        63.61534
421.41        63.95584
421.85        63.73708
422.30        63.37113
422.74        62.95703
423.19        62.36861
423.64        61.81552
424.08        62.11034
424.53        63.04249
424.98        63.56766
425.42        63.53432
425.87        63.66187
426.31        63.96374
426.76        63.82898
427.21         63.4578
427.65        63.70457
428.10        64.47082
428.54        65.08489
428.99        65.48955
429.44        65.61795
429.88         65.5149
430.33        66.09323
430.77         66.8064
431.22        65.76142
431.66        63.46634
432.11        62.26178
432.56        62.39209
433.00        63.16619
433.45        64.46451
433.89         66.1132
434.34        66.75003
434.78        68.77866
435.23        64.53667
435.67        63.33497
436.12          65.249
436.57        66.32153
437.01        66.73205
437.46         67.0061
437.90        67.38071
438.35        66.40437
438.79        67.24218
439.24        67.07903
439.68         66.8687
440.13        66.60674
440.57        66.54647
441.02        67.20921
441.46        68.29597
441.91        69.10308
442.35        69.33565
442.80        68.66439
443.24         67.4955
443.69        67.97886
444.13        69.75449
444.58        69.72012
445.02        68.09808
445.47        67.83315
445.91        68.84643
446.36        69.14902
446.80        68.68108
447.24        68.47934
447.69        68.62228
448.13         68.8055
448.58         69.0379
449.02        69.34856
449.47        69.67332
449.91        69.92278
450.36        70.07001
450.80        70.11726
451.25        70.08176
451.69        69.96648
452.13        69.80726
452.58        69.61126
453.02         69.4372
453.47        69.41283
453.91        69.53314
454.36        69.77944
454.80          70.089
455.24        70.11123
455.69        69.78982
456.13         69.6211
456.58        69.78454
457.02        68.68332
457.46        68.84048
457.91        69.11276
458.35         69.9364
458.79        70.27793
459.24        70.08694
459.68        69.79811
460.13        69.50176
460.57         69.1651
461.01         68.8876
461.46        68.50459
461.90        68.23218
462.34        68.35088
462.79        68.11483
463.23          68.331
463.68        68.68088
464.12        69.10635
464.56        69.43159
465.01        69.40606
465.45        68.98669
465.89        68.69659
466.34        68.51647
466.78        67.71839
467.22        66.69987
467.67        66.56244
468.11        67.49306
468.55        68.22006
468.99          68.485
469.44        68.22968
469.88        67.64914
470.32        67.59531
470.77        68.02052
471.21        68.05292
471.65        67.65691
472.10        67.47061
472.54        67.54339
472.98        67.61337
473.42        67.65556
473.87         67.9304
474.31        68.26517
474.75        68.00932
475.20        67.35788
475.64        67.26765
476.08         67.7067
476.52         67.7843
476.97        67.47646
477.41        67.37621
477.85        67.60034
478.29        67.38746
478.74        68.30499
479.18        68.22473
479.62        67.25687
480.06        67.69743
480.50        67.98141
480.95        68.29649
481.39        68.28313
481.83        67.01031
482.27         67.6648
482.72        67.08871
483.16        66.45187
483.60        66.38723
484.04        68.06573
484.48        68.30339
484.93        67.92415
485.37        69.60445
485.81        70.51201
486.25        68.88139
486.69        93.05502
487.14         75.1124
487.58         46.9706
488.02        58.20079
488.46        65.71227
488.90        65.47565
489.34        67.03007
489.79        66.15195
490.23        68.42439
490.67        69.30219
491.11        68.36488
491.55        68.24237
491.99        68.58774
492.43        68.40261
492.88        67.79601
493.32        67.90715
493.76        68.20506
494.20         68.5325
494.64        68.62899
495.08        68.75245
495.52        68.94711
495.96         68.8333
496.41        68.43641
496.85        68.87209
497.29        69.84677
497.73        68.68513
498.17        66.42831
498.61        66.85251
499.05        69.83721
499.49        70.25674
499.93        69.67406
500.37        69.24093
500.82        68.90727
501.26        69.03487
501.70        69.36713
502.14        69.62027
502.58        69.62788
503.02          69.578
503.46        69.45383
503.90        69.06622
504.34        68.58495
504.78        68.39972
505.22        68.57124
505.66         68.9796
506.10        69.46619
506.54        69.72407
506.98        69.65993
507.42         69.4518
507.86        69.25792
508.30        68.86404
508.74        69.05124
509.18        69.17602
509.62        69.36095
510.06         69.4445
510.50        69.39538
510.94         69.2604
511.38        69.11903
511.82        69.10536
512.26        69.24461
512.70        69.48786
513.14        69.74495
513.58        69.87516
514.02        69.83662
514.46        69.66881
514.90         69.4561
515.34          69.314
515.78        69.26695
516.22        69.34986
516.66        69.49753
517.10        69.42781
517.54        69.11512
517.98        69.23284
518.42        68.97303
518.86        69.08955
519.30        69.33014
519.74        69.71983
520.18         70.1321
520.62        70.35885
521.06        70.36076
521.50         70.1944
521.93        69.95753
522.37        69.81074
522.81        69.80641
523.25        69.89464
523.69        70.02642
524.13        70.12781
524.57        70.17389
525.01        70.19096
525.45        70.19109
525.89        70.18894
526.32        70.18298
526.76        70.16315
527.20        70.11752
527.64        70.05095
528.08        69.98178
528.52        69.85517
528.96        69.66282
529.40        69.58509
529.83        69.66496
530.27         69.1459
530.71        69.39304
531.15        69.30708
531.59         69.2986
532.03        69.32341
532.46         69.4282
532.90        69.65482
533.34        69.97733
533.78        70.36811
534.22        70.71241
534.66        70.85036
535.09        70.74369
535.53        70.46537
535.97        70.11295
536.41        69.86557
536.85        69.77863
537.28        69.81085
537.72        69.89116
538.16        69.91438
538.60        69.85236
539.04        69.69165
539.47        69.49206
539.91        69.52013
540.35        69.71697
540.79        69.76884
541.22        69.65504
541.66        69.61965
542.10        69.65438
542.54        69.60226
542.97        69.50515
543.41        69.53755
543.85        69.69788
544.29        69.94135
544.72        70.14928
545.16        70.16786
545.60        69.95514
546.04        69.58174
546.47        69.20635
546.91        69.03802
547.35        69.17874
547.79        69.71868
548.22        70.38982
548.66         70.7199
549.10        70.54613
549.53        69.80172
549.97        68.86174
550.41        68.46412
550.84        68.72912
551.28        69.33642
551.72        70.03565
552.15        70.45197
552.59        70.45821
553.03        70.33688
553.46        69.93887
553.90        69.77721
554.34        69.83113
554.77        69.94283
555.21        70.02933
555.65        70.19459
556.08        70.44386
556.52        69.89667
556.96        70.21331
557.39        70.09061
557.83        70.05418
558.27        70.04316
558.70        70.07597
559.14        70.17989
559.57        70.31772
560.01        70.44408
560.45        70.53441
560.88        70.64111
561.32        70.71701
561.75        70.56805
562.19        70.27859
562.63        69.86578
563.06        69.48099
563.50        69.57661
563.93        70.02554
564.37        70.22034
564.80        70.09196
565.24        70.02546
565.68        70.03747
566.11        70.01697
566.55        70.02017
566.98        70.01239
567.42        70.03165
567.85         70.2296
568.29        70.60006
568.72        70.70164
569.16        70.68931
569.60        71.08411
570.03        71.55004
570.47        71.41014
570.90        70.98669
571.34        69.34119
571.77         70.2504
572.21        70.28029
572.64        69.73186
573.08        68.88297
573.51        66.05743
573.95        68.65102
574.38        72.91721
574.82        70.64154
