SpectraSmart Spectrum 2.9.0.0
--------- Device Information -----------
Spectrum Name :  反射率_0
Saving Time :  2024/04/26 01:30:13
Spectro-Module Model Name : SE2030-DUVN
Spectro-Module Serial Number : OS361AC55029948
Wavelength Start : 200
Wavelength End : 1025
Wavelength Unit : Wavelength(nm)
Spectrum Unit : Reflectance(%)
-----------Spectrum Setting ------------
Integration Time : 20ms
Average : 10
Boxcar : 0
Background removal :  enabled
linearity correction :  enabled
SC :  disabled
Intensity correction :  disabled
DWT denoise :  enabled
savitzky-golay :  disabled
FFT :  disabled
Running average :  disabled
Kalman :  disabled
High pass :  disabled
---------------BEGIN--------------------
Wavelength(nm)             Reflectance(%)
200.29               0
200.75        96.37291
201.21        86.90127
201.67        76.43064
202.13        70.59494
202.58        70.02887
203.04        73.43732
203.50        78.64397
203.96        81.77847
204.42        81.75658
204.88        79.99685
205.34        78.16117
205.80        77.99451
206.26        80.18904
206.72        85.83359
207.18        96.56005
207.64         103.679
208.10        93.25423
208.55        77.98203
209.01        69.27528
209.47        66.78093
209.93        67.81042
210.39        71.27322
210.85        75.37562
211.31        76.23295
211.77        72.72924
212.23        66.47151
212.69        60.42646
213.14        59.27109
213.60         63.5994
214.06        71.91302
214.52         81.5361
214.98        88.41149
215.44        91.12259
215.90        90.78761
216.36        88.32971
216.81        84.90993
217.27        81.60214
217.73        78.28364
218.19        74.68104
218.65        70.13615
219.11        63.99281
219.57        55.34447
220.02        44.98035
220.48        38.84002
220.94        40.24443
221.40        48.04783
221.86        55.87234
222.32        56.96622
222.77        51.91634
223.23          44.229
223.69        37.76567
224.15        36.55896
224.61        40.09467
225.06         46.3922
225.52        52.30362
225.98        53.88319
226.44         50.5749
226.90         44.2118
227.36        37.32677
227.81        33.29847
228.27        33.12442
228.73        35.45692
229.19         38.9241
229.65        41.48193
230.10        42.54539
230.56        42.82371
231.02        42.85072
231.48        43.19675
231.93        43.93393
232.39        44.77857
232.85        45.51239
233.31        45.91197
233.77         45.8963
234.22        45.55875
234.68        45.01554
235.14        44.41197
235.60        43.88965
236.05        43.52219
236.51        43.27705
236.97        43.02056
237.43         42.7732
237.88        42.65736
238.34        43.00565
238.80        44.62714
239.26        47.70618
239.71        51.95728
240.17        56.36913
240.63        59.75615
241.08        61.75702
241.54         62.4995
242.00        62.48111
242.46        62.50414
242.91        63.15702
243.37        64.59613
243.83          70.732
244.28        100.6756
244.74        153.2461
245.20        148.0697
245.66        132.3992
246.11        129.1525
246.57        135.8489
247.03        158.7583
247.48        224.4831
247.94        189.1603
248.40        118.7487
248.85        97.41575
249.31        91.39992
249.77         91.0356
250.22        93.87381
250.68        99.93145
251.14        109.0225
251.59        115.2319
252.05        112.5307
252.51         103.615
252.96        93.52541
253.42         87.3451
253.88        84.72347
254.33        83.99661
254.79        85.27597
255.25        88.10818
255.70         91.5198
256.16        95.30593
256.62        97.93858
257.07        97.86525
257.53        95.74875
257.99        91.90046
258.44         87.4281
258.90        84.70111
259.35        82.98485
259.81        81.80404
260.27        79.85458
260.72        75.83494
261.18        70.51206
261.63         64.4278
262.09        58.94636
262.55        54.94273
263.00        52.37984
263.46         50.9111
263.91        49.78181
264.37        48.49157
264.83        46.80162
265.28        44.76382
265.74        42.79422
266.19        41.26635
266.65        40.40131
267.11        39.96989
267.56        39.55858
268.02        38.66362
268.47        37.16655
268.93        35.23088
269.38        33.20596
269.84         31.9328
270.30        31.61485
270.75        32.01124
271.21        32.58136
271.66        32.50994
272.12        31.61065
272.57        30.15372
273.03        28.61976
273.48        27.64775
273.94        27.41084
274.39        27.64224
274.85        28.00679
275.31        28.01332
275.76        27.53662
276.22        26.77159
276.67        25.93884
277.13        25.43815
277.58        25.29195
278.04        25.38589
278.49        25.45457
278.95         25.1959
279.40        24.54525
279.86        23.68349
280.31        22.80289
280.77        22.29459
281.22        22.17843
281.68        22.32636
282.13        22.54037
282.59        22.57613
283.04        22.37409
283.50        22.06761
283.95        21.69731
284.41         21.3391
284.86        21.03113
285.32        20.75452
285.77        20.60316
286.22        20.78146
286.68        21.26744
287.13        21.96057
287.59        22.61658
288.04        22.86125
288.50        22.65338
288.95        22.09936
289.41        21.44355
289.86        20.95404
290.32        20.76495
290.77        20.78601
291.22        20.97282
291.68        21.21576
292.13        21.49132
292.59        21.85283
293.04        22.34254
293.50        23.01416
293.95        23.85833
294.40        24.81846
294.86        25.82673
295.31        26.79958
295.77        27.72556
296.22        28.63678
296.68        29.56444
297.13        30.52503
297.58        31.54408
298.04        32.62498
298.49        33.80149
298.95          35.179
299.40        36.75223
299.85        38.47706
300.31        40.24797
300.76        41.89394
301.21        43.34149
301.67        44.66494
302.12        45.85692
302.58        47.00548
303.03        48.12955
303.48        49.24397
303.94        50.47184
304.39        51.94204
304.84        53.67285
305.30        55.60619
305.75        57.53534
306.20         59.1642
306.66        60.44144
307.11         61.4059
307.57        62.24547
308.02        63.13386
308.47        64.18093
308.93        65.34363
309.38          66.542
309.83         67.7013
310.29        68.78075
310.74        69.77151
311.19        70.72292
311.65        71.70399
312.10        72.71316
312.55        73.74086
313.00        74.64908
313.46        75.22512
313.91        75.42796
314.36        75.34742
314.82        75.24933
315.27        75.49544
315.72        76.19135
316.18        77.22958
316.63        78.37828
317.08         79.2088
317.53        79.59551
317.99        79.64584
318.44        79.59521
318.89        79.83064
319.35        80.42725
319.80        81.28909
320.25        82.14053
320.70        82.53193
321.16        82.36657
321.61        81.80285
322.06        81.15431
322.51        80.90556
322.97        81.15225
323.42        81.77798
323.87        82.52178
324.32        82.93747
324.78         82.8891
325.23        82.55685
325.68        82.12383
326.13         81.9102
326.59        81.99618
327.04        82.30218
327.49        82.73631
327.94        83.17933
328.39        83.57167
328.85        83.93584
329.30        84.29214
329.75        84.51963
330.20        84.62157
330.66        84.61224
331.11        84.64365
331.56        84.89684
332.01        85.42953
332.46        86.17474
332.92        87.03466
333.37        87.98742
333.82        88.89613
334.27        89.76834
334.72        90.46458
335.17        90.77074
335.63        90.66679
336.08        90.26206
336.53        89.79347
336.98         89.6863
337.43         90.0571
337.88        90.79797
338.34         91.7375
338.79        92.66499
339.24        93.44698
339.69        94.16243
340.14        94.76791
340.59        95.18589
341.05        95.42056
341.50        95.45808
341.95        95.45445
342.40        95.68401
342.85        96.20304
343.30        96.94715
343.75        97.73747
344.20         98.2453
344.66        98.38907
345.11        98.25242
345.56        97.99479
346.01         97.8561
346.46        97.91167
346.91        98.09669
347.36        98.33673
347.81        98.51849
348.26        98.61853
348.72        98.70244
349.17        98.80305
349.62        99.01832
350.07        99.35235
350.52        99.73886
350.97         100.111
351.42         100.382
351.87        100.5237
352.32        100.5684
352.77        100.5068
353.22        100.3278
353.67        100.0504
354.13          99.696
354.58        99.32815
355.03        99.10284
355.48        99.04324
355.93        99.11019
356.38        99.18061
356.83        99.05218
357.28        98.67764
357.73        98.11592
358.18        97.47883
358.63        96.94704
359.08        96.56693
359.53        96.28129
359.98        96.00321
360.43        95.59855
360.88        95.03024
361.33        94.34046
361.78        93.60239
362.23        92.93204
362.68        92.36709
363.13        91.88271
363.58        91.40908
364.03        90.83276
364.48        90.13538
364.93        89.36158
365.38         88.6057
365.83        88.01633
366.28        87.61853
366.73        87.34551
367.18        87.10624
367.63        86.75944
368.08        86.26516
368.53        85.68055
368.98        85.03032
369.43        84.34234
369.88        83.64172
370.33         82.9241
370.78        82.25034
371.23        81.72747
371.68        81.37809
372.13        81.17475
372.58        81.05466
373.03        80.90021
373.48        80.67421
373.93        80.41336
374.38        80.12428
374.83        79.81912
375.28        79.50346
375.72        79.14351
376.17        78.79731
376.62         78.5425
377.07        78.37804
377.52        78.26559
377.97        78.10677
378.42        77.74393
378.87        77.16316
379.32        76.45189
379.77        75.69377
380.22        74.99841
380.67        74.39462
381.11        73.84032
381.56        73.36532
382.01        73.02548
382.46        72.82555
382.91        72.77329
383.36        72.73125
383.81        72.47575
384.26        71.97527
384.71        71.28555
385.15         70.6035
385.60        70.29512
386.05        70.36835
386.50        70.69521
386.95        71.01714
387.40        70.90244
387.85        70.29496
388.29        69.37348
388.74        68.46523
389.19         67.7597
389.64        67.30109
390.09        66.97437
390.54        66.81638
390.98        66.89487
391.43        67.17406
391.88        67.60123
392.33        67.93831
392.78        67.79865
393.23        67.17057
393.67        66.26656
394.12         65.4207
394.57        64.72345
395.02        64.33286
395.47        64.52707
395.91        65.19582
396.36        65.67239
396.81        65.83428
397.26        65.95992
397.71        66.01139
398.15        65.75559
398.60         65.2873
399.05        64.71876
399.50        64.15137
399.95        63.45463
400.39        62.99211
400.84        62.75675
401.29          62.773
401.74        62.74734
402.18        62.65713
402.63        62.60079
403.08        62.65826
403.53        62.87351
403.97        63.23275
404.42        63.67975
404.87        64.02849
405.32        63.95566
405.76        63.40638
406.21        62.61308
406.66        61.79751
407.11        61.16161
407.55        60.86707
408.00        61.06575
408.45        61.61218
408.90        62.00219
409.34        62.03998
409.79        61.75562
410.24        61.32328
410.68         61.1281
411.13        61.24049
411.58        61.42727
412.03        61.64919
412.47        61.94362
412.92        62.23139
413.37        62.52441
413.81        62.74389
414.26        62.80931
414.71         62.6973
415.15        62.42632
415.60        62.10123
416.05        61.91317
416.49        61.91735
416.94          62.085
417.39        62.28566
417.83        62.27643
418.28        62.02578
418.73        61.62422
419.17        61.26685
419.62        61.26891
420.07        61.64808
420.51        62.28259
420.96        62.96192
421.41        63.26188
421.85        63.05609
422.30        62.77257
422.74        62.45676
423.19        61.82023
423.64         61.1071
424.08        61.34339
424.53        62.36915
424.98        62.91843
425.42        62.84391
425.87        63.03641
426.31        63.48748
426.76        63.37588
427.21        62.95348
427.65        63.36506
428.10        64.48047
428.54        65.36346
428.99        65.93174
429.44        66.17177
429.88        66.15536
430.33        66.94991
430.77        67.92381
431.22        66.82795
431.66        64.23684
432.11        62.89566
432.56        63.12142
433.00         63.9227
433.45        65.17171
433.89        67.13806
434.34          68.366
434.78        69.78816
435.23        65.93665
435.67        64.04133
436.12        65.75208
436.57        67.24873
437.01        68.11951
437.46        68.79364
437.90        69.25319
438.35        67.85098
438.79        68.98798
439.24        68.75396
439.68        68.49505
440.13        68.11669
440.57        67.96493
441.02        68.86706
441.46        70.42449
441.91        71.46295
442.35        71.64525
442.80        70.90993
443.24        69.70928
443.69        70.20297
444.13        72.03299
444.58        72.00243
445.02        70.34804
445.47        70.14409
445.91        71.31428
446.36        71.75032
446.80        71.36935
447.24        71.31219
447.69        71.60613
448.13        71.72408
448.58        71.72546
449.02        71.93926
449.47        72.31327
449.91        72.54005
450.36        72.59747
450.80        72.63485
451.25        72.65764
451.69        72.57181
452.13        72.40733
452.58        72.20412
453.02        72.03238
453.47        72.04078
453.91        72.22962
454.36        72.55303
454.80         72.9195
455.24        73.04393
455.69        72.87535
456.13        72.71033
456.58         72.6606
457.02        72.02972
457.46        71.62882
457.91        71.93558
458.35        72.71254
458.79        73.00209
459.24        72.70666
459.68        72.32514
460.13        71.99187
460.57        71.77839
461.01        71.47771
461.46        71.34159
461.90        71.24683
462.34        71.25391
462.79        71.35452
463.23         71.2733
463.68        71.41595
464.12        71.70608
464.56        72.12778
465.01        72.19703
465.45        71.86935
465.89         71.6873
466.34        71.51968
466.78        70.72495
467.22        69.82346
467.67        68.64226
468.11        70.06325
468.55        70.60178
468.99         70.7962
469.44        70.48222
469.88        69.87583
470.32        69.88923
470.77        70.40828
471.21        70.45892
471.65        69.98097
472.10        69.65948
472.54        69.60483
472.98        69.61964
473.42        69.69699
473.87        70.13255
474.31         70.6664
474.75        70.39101
475.20        69.55881
475.64          69.373
476.08        70.06547
476.52        70.16401
476.97        69.68681
477.41        69.65621
477.85        69.97903
478.29        69.55859
478.74        69.99607
479.18        70.25382
479.62        68.96582
480.06         69.3875
480.50        69.86642
480.95        70.28981
481.39        70.33914
481.83        69.56081
482.27        69.61471
482.72        69.72052
483.16        68.76542
483.60         68.5113
484.04        70.33385
484.48        70.52377
484.93        70.21239
485.37        71.53059
485.81        72.82893
486.25        71.32269
486.69        98.02465
487.14        79.25611
487.58        48.90554
488.02        60.11903
488.46         67.9439
488.90        67.16683
489.34        68.64772
489.79        67.57032
490.23         69.8028
490.67        70.65921
491.11        69.68788
491.55          69.729
491.99        70.32986
492.43        70.19503
492.88        69.40232
493.32        69.25556
493.76        69.31176
494.20        69.49789
494.64        69.57847
495.08         69.8549
495.52        70.28221
495.96        70.15339
496.41        69.53799
496.85        70.01678
497.29        71.23968
497.73         70.0475
498.17        67.50197
498.61         67.7276
499.05        70.52742
499.49        71.03224
499.93        70.71477
500.37        70.45213
500.82        70.13491
501.26        70.17501
501.70        70.38322
502.14        70.70016
502.58        70.91467
503.02        70.89168
503.46        70.60008
503.90        70.06104
504.34        69.47668
504.78        69.17417
505.22        69.21499
505.66        69.53423
506.10         69.9781
506.54        70.13097
506.98        69.87791
507.42        69.81712
507.86        69.45778
508.30        69.01558
508.74        69.26783
509.18         69.4168
509.62        69.64289
510.06        69.78971
510.50        69.82654
510.94        69.80032
511.38         69.7509
511.82        69.69805
512.26        69.75377
512.70        69.81298
513.14        69.88589
513.58        69.96404
514.02        70.03747
514.46          70.081
514.90        70.08467
515.34        70.15913
515.78        70.06799
516.22        70.05769
516.66        70.06902
517.10        69.94937
517.54         69.7023
517.98        69.95332
518.42         69.8357
518.86         69.9662
519.30        70.07672
519.74        70.23124
520.18         70.3955
520.62        70.50423
521.06        70.55067
521.50        70.54923
521.93        70.50257
522.37        70.41519
522.81        70.30654
523.25        70.18477
523.69        70.09676
524.13        70.11301
524.57        70.24182
525.01        70.45636
525.45        70.70014
525.89        70.88068
526.32        70.95667
526.76        70.94464
527.20        70.86107
527.64        70.75457
528.08        70.66083
528.52        70.51463
528.96        70.28887
529.40        70.14073
529.83        70.11462
530.27        69.46427
530.71        69.60983
531.15        69.51419
531.59        69.59832
532.03        69.79664
532.46        70.08595
532.90        70.39214
533.34         70.6625
533.78        70.90417
534.22        71.07816
534.66        71.14127
535.09        71.07927
535.53        70.92631
535.97        70.71751
536.41        70.53413
536.85        70.40775
537.28        70.33204
537.72          70.283
538.16        70.23057
538.60        70.16679
539.04        70.04752
539.47        69.90384
539.91          69.966
540.35        70.16179
540.79        70.18555
541.22        70.02695
541.66        69.95438
542.10        69.96526
542.54        69.88634
542.97        69.77303
543.41        69.82242
543.85        70.03371
544.29        70.36674
544.72        70.66212
545.16        70.68707
545.60        70.39393
546.04         69.9004
546.47        69.42268
546.91        69.21673
547.35        69.39734
547.79         70.0976
548.22        70.96383
548.66        71.26557
549.10        70.86774
549.53        69.99557
549.97        69.05065
550.41        68.58678
550.84        68.71809
551.28        69.30506
551.72        70.14537
552.15        70.49739
552.59        70.45787
553.03        70.74136
553.46         70.4912
553.90        69.94729
554.34        70.17555
554.77        70.09346
555.21        70.11225
555.65        69.90257
556.08        70.42174
556.52        70.04002
556.96        70.57336
557.39        70.44956
557.83        70.21815
558.27        70.07681
558.70        70.08594
559.14        70.17297
559.57         70.3135
560.01        70.54436
560.45        70.79327
560.88        70.97618
561.32        71.02178
561.75         70.8076
562.19        70.44833
562.63        69.93091
563.06        69.46097
563.50        69.64837
563.93        70.31329
564.37        70.60388
564.80        70.43046
565.24         70.3162
565.68        70.28149
566.11         70.1923
566.55        70.12518
566.98        69.98534
567.42        69.86652
567.85        70.19562
568.29        70.88943
568.72          71.068
569.16        70.94448
569.60        71.47705
570.03        72.01355
570.47         72.1612
570.90        72.15896
571.34        69.91737
571.77        71.22343
572.21        71.25848
572.64        70.54204
573.08        69.66451
573.51        66.58469
573.95        69.23919
574.38        73.68806
574.82        71.62223
