SpectraSmart Spectrum 2.9.0.0
--------- Device Information -----------
Spectrum Name :  反射率_0
Saving Time :  2024/04/26 01:22:10
Spectro-Module Model Name : SE2030-DUVN
Spectro-Module Serial Number : OS361AC55029948
Wavelength Start : 200
Wavelength End : 1025
Wavelength Unit : Wavelength(nm)
Spectrum Unit : Reflectance(%)
-----------Spectrum Setting ------------
Integration Time : 20ms
Average : 10
Boxcar : 0
Background removal :  enabled
linearity correction :  enabled
SC :  disabled
Intensity correction :  disabled
DWT denoise :  enabled
savitzky-golay :  disabled
FFT :  disabled
Running average :  disabled
Kalman :  disabled
High pass :  disabled
---------------BEGIN--------------------
Wavelength(nm)             Reflectance(%)
200.29               0
200.75         99.4989
201.21        90.33553
201.67        80.30168
202.13        75.10832
202.58        75.40337
203.04        79.88163
203.50        85.76408
203.96        88.31896
204.42        86.60426
204.88        82.53629
205.34        78.86028
205.80         78.4401
206.26         82.4297
206.72        93.32806
207.18        115.0976
207.64         132.382
208.10        116.4676
208.55        88.81024
209.01        72.51792
209.47         68.3364
209.93        71.40567
210.39        79.34257
210.85        88.92034
211.31        92.84573
211.77        88.50285
212.23        78.67062
212.69        68.25995
213.14        64.79699
213.60        69.59225
214.06        80.29816
214.52        92.52859
214.98        99.65025
215.44        99.86504
215.90        95.40092
216.36        88.99088
216.81        84.29004
217.27        82.55477
217.73        82.49755
218.19        82.24001
218.65        79.20284
219.11        72.26365
219.57        60.65883
220.02        45.81216
220.48        36.57763
220.94        38.25088
221.40        48.68056
221.86         59.3552
222.32        61.25059
222.77        55.09625
223.23         45.6604
223.69         37.5418
224.15        35.42904
224.61        38.80915
225.06        45.26456
225.52        51.61182
225.98        53.91664
226.44        51.53259
226.90        46.33267
227.36        40.43376
227.81         36.6055
228.27        35.80642
228.73         36.8462
229.19        39.03548
229.65        41.35592
230.10        43.24265
230.56         44.9187
231.02        46.16785
231.48        46.69165
231.93        46.55302
232.39        45.85687
232.85        44.92939
233.31        44.36617
233.77        44.30418
234.22        44.60217
234.68        45.03314
235.14        45.07016
235.60        44.57999
236.05         43.8107
236.51        43.02974
236.97        42.52474
237.43        42.43603
237.88        42.82738
238.34        43.73972
238.80        45.25565
239.26        47.27024
239.71        49.72102
240.17        52.41908
240.63        55.59318
241.08        59.19656
241.54        62.82471
242.00        66.15076
242.46        69.15882
242.91        72.67996
243.37         78.3142
243.83        93.20399
244.28        140.8367
244.74        195.3918
245.20        165.8616
245.66        138.9694
246.11        132.7415
246.57        139.7605
247.03        167.2779
247.48        251.7946
247.94        220.3849
248.40        132.7781
248.85        104.5853
249.31        95.57157
249.77         93.2313
250.22        94.03632
250.68        97.23553
251.14        102.2862
251.59        104.8219
252.05        101.1639
252.51        93.71446
252.96        86.03986
253.42        81.61921
253.88        79.83566
254.33        79.37539
254.79        80.23226
255.25        81.83994
255.70        83.56623
256.16        85.51505
256.62        86.45173
257.07        85.10429
257.53        82.08308
257.99        77.61042
258.44        72.97678
258.90        70.62334
259.35        69.71944
259.81        69.52033
260.27        68.39121
260.72        64.72871
261.18        59.34009
261.63        53.01887
262.09        47.38779
262.55        43.68744
263.00        41.84464
263.46        41.25833
263.91         40.9786
264.37        40.24733
264.83        38.87567
265.28        37.03594
265.74        35.27402
266.19        34.16197
266.65        33.87409
267.11        34.05291
267.56        34.19135
268.02        33.68795
268.47        32.44493
268.93        30.67926
269.38        28.74881
269.84        27.49522
270.30        27.13769
270.75        27.44198
271.21        27.93715
271.66        27.91555
272.12        27.20385
272.57        26.04334
273.03        24.82214
273.48        24.04367
273.94        23.84068
274.39          23.978
274.85         24.1927
275.31        24.10726
275.76        23.62493
276.22        22.91507
276.67        22.11545
277.13        21.49819
277.58         21.0874
278.04        20.81478
278.49        20.56421
278.95        20.22188
279.40         19.7404
279.86        19.21883
280.31         18.6791
280.77         18.2455
281.22        17.90973
281.68          17.649
282.13        17.44032
282.59        17.27404
283.04        17.13491
283.50        17.05004
283.95        16.95663
284.41        16.77012
284.86        16.47779
285.32        16.10671
285.77        15.77496
286.22        15.71308
286.68        15.92299
287.13        16.31116
287.59         16.6583
288.04        16.64007
288.50        16.22905
288.95         15.5373
289.41        14.80259
289.86        14.28956
290.32        14.10943
290.77        14.15674
291.22        14.35871
291.68         14.5697
292.13        14.74757
292.59        14.93605
293.04        15.15535
293.50        15.43317
293.95        15.76149
294.40        16.08842
294.86        16.38453
295.31        16.62737
295.77        16.81454
296.22        16.96913
296.68        17.08609
297.13        17.12449
297.58        17.11694
298.04        17.10801
298.49        17.19173
298.95        17.53901
299.40        18.16607
299.85        19.00788
300.31        19.94518
300.76        20.79862
301.21        21.48904
301.67         22.0794
302.12        22.56493
302.58        22.98752
303.03         23.3695
303.48        23.71833
303.94        24.14814
304.39         24.8033
304.84        25.71317
305.30        26.83726
305.75        28.02586
306.20        29.04256
306.66        29.85614
307.11        30.52589
307.57        31.20791
308.02        32.07261
308.47        33.19782
308.93        34.52588
309.38        35.98502
309.83        37.48812
310.29        38.97836
310.74        40.45663
311.19        41.92445
311.65        43.39579
312.10        44.87775
312.55        46.37005
313.00        47.82283
313.46        49.15367
313.91        50.32698
314.36        51.37107
314.82         52.4119
315.27        53.63357
315.72        55.09898
316.18        56.75255
316.63         58.4628
317.08        59.96716
317.53        61.17351
317.99        62.12663
318.44        62.96568
318.89        63.93639
319.35        65.08527
319.80        66.35818
320.25         67.5519
320.70        68.32603
321.16        68.61053
321.61        68.52804
322.06        68.33879
322.51        68.45148
322.97        68.95712
323.42          69.771
323.87        70.69112
324.32        71.35965
324.78        71.65919
325.23        71.72889
325.68        71.69798
326.13        71.79893
326.59        72.08923
327.04        72.51408
327.49        73.00917
327.94        73.49901
328.39        73.94715
328.85        74.36917
329.30        74.79511
329.75        75.13556
330.20        75.39381
330.66        75.57761
331.11        75.80349
331.56        76.19812
332.01        76.80396
332.46        77.56757
332.92        78.41548
333.37        79.35125
333.82        80.26398
334.27         81.1606
334.72        81.90347
335.17         82.2799
335.63        82.26701
336.08        81.96349
336.53        81.61855
336.98        81.67123
337.43        82.23363
337.88        83.19471
338.34         84.3241
338.79        85.31197
339.24        86.00862
339.69        86.51173
340.14        86.88476
340.59        87.23792
341.05        87.61342
341.50        87.93948
341.95        88.23413
342.40        88.56426
342.85        88.95054
343.30        89.40414
343.75        89.86372
344.20        90.20242
344.66        90.39854
345.11        90.46237
345.56        90.48367
346.01         90.5995
346.46        90.84425
346.91        91.18507
347.36        91.53153
347.81        91.74404
348.26        91.80204
348.72        91.76989
349.17        91.73616
349.62        91.89761
350.07        92.28645
350.52        92.82506
350.97        93.37752
351.42        93.74596
351.87         93.8802
352.32        93.83734
352.77        93.70269
353.22        93.61214
353.67        93.60811
354.13        93.66648
354.58        93.70849
355.03        93.66753
355.48        93.52537
355.93        93.30927
356.38        93.07478
356.83        92.90385
357.28         92.8054
357.73        92.74373
358.18        92.64244
358.63         92.3836
359.08        91.95203
359.53        91.40379
359.98        90.81138
360.43         90.2868
360.88        89.85716
361.33        89.47177
361.78        89.12618
362.23        88.81264
362.68        88.51692
363.13        88.26169
363.58         87.9561
364.03        87.44959
364.48        86.73453
364.93        85.85764
365.38        85.00361
365.83        84.47771
366.28        84.33129
366.73         84.4513
367.18        84.63412
367.63        84.54239
368.08        84.09084
368.53        83.41143
368.98        82.61182
369.43        81.85049
369.88        81.19614
370.33        80.59463
370.78        80.11297
371.23        79.86995
371.68        79.86756
372.13        80.07605
372.58        80.33301
373.03        80.34908
373.48        80.05327
373.93        79.53101
374.38        78.92264
374.83        78.45232
375.28         78.1818
375.72        78.02738
376.17        77.95802
376.62        77.89725
377.07        77.80067
377.52        77.68024
377.97        77.50635
378.42        77.22578
378.87        76.84274
379.32        76.39311
379.77        75.89626
380.22        75.37974
380.67        74.85665
381.11        74.31661
381.56        73.83221
382.01        73.52489
382.46        73.41905
382.91        73.50182
383.36        73.60677
383.81        73.46523
384.26        73.03151
384.71        72.37403
385.15        71.71259
385.60        71.44839
386.05        71.59677
386.50        72.02046
386.95        72.43234
387.40        72.35195
387.85        71.71771
388.29        70.73287
388.74        69.77071
389.19         69.0727
389.64        68.69492
390.09        68.51168
390.54        68.52982
390.98         68.7589
391.43        69.13985
391.88        69.63407
392.33        70.03414
392.78        69.97437
393.23        69.44228
393.67        68.70235
394.12        68.05025
394.57         67.3583
395.02        66.86003
395.47        67.22668
395.91         68.2873
396.36        68.90464
396.81        68.91593
397.26        68.86061
397.71        68.77592
398.15        68.43763
398.60         67.9692
399.05        67.46783
399.50         66.9992
399.95        66.39658
400.39        66.01775
400.84        65.80881
401.29         65.8171
401.74        65.85286
402.18        65.88451
402.63        65.88341
403.08        65.93506
403.53        66.18219
403.97        66.61088
404.42        67.11671
404.87        67.49666
405.32        67.39217
405.76        66.74554
406.21        65.88843
406.66        65.06474
407.11        64.33273
407.55        63.94881
408.00        64.44585
408.45        65.57695
408.90         66.2804
409.34        66.24157
409.79        65.68569
410.24        64.91066
410.68        64.46628
411.13        64.46952
411.58        64.60251
412.03        64.81131
412.47        65.14462
412.92        65.50667
413.37        65.90704
413.81        66.24255
414.26         66.3951
414.71        66.32777
415.15        66.05695
415.60        65.69738
416.05        65.46489
416.49        65.42288
416.94        65.53605
417.39          65.669
417.83        65.57175
418.28         65.2151
418.73        64.69881
419.17        64.23194
419.62        64.14765
420.07        64.46565
420.51        65.05861
420.96        65.70248
421.41        65.96468
421.85        65.71947
422.30        65.37006
422.74        64.97477
423.19        64.35065
423.64        63.70265
424.08        63.85704
424.53        64.69808
424.98        65.22784
425.42        65.32628
425.87        65.72993
426.31        66.35043
426.76        66.33115
427.21        65.87758
427.65         66.0731
428.10         66.8847
428.54        67.58044
428.99        68.11092
429.44        68.46741
429.88        68.62543
430.33         69.2967
430.77        69.91956
431.22        68.81671
431.66         66.4881
432.11        65.02306
432.56        64.79525
433.00         65.5441
433.45        67.12341
433.89        69.01231
434.34        69.79391
434.78        71.07291
435.23        67.54077
435.67        65.52756
436.12        67.68618
436.57        68.89812
437.01        69.86162
437.46        70.21054
437.90        70.04381
438.35        69.88996
438.79        70.00249
439.24          69.996
439.68        69.97126
440.13        69.87379
440.57        69.91209
441.02        70.83319
441.46        72.24236
441.91        72.87121
442.35        72.56145
442.80        71.65672
443.24        70.59637
443.69        71.08889
444.13         72.7578
444.58        73.06486
445.02        71.69317
445.47        71.45536
445.91         72.2151
446.36        72.45236
446.80        72.12859
447.24        72.07043
447.69        72.31829
448.13        72.48732
448.58        72.63594
449.02        73.05819
449.47        73.65161
449.91        74.01475
450.36        74.10046
450.80        74.08814
451.25         74.0127
451.69        73.82803
452.13        73.58109
452.58        73.29417
453.02        73.04263
453.47        72.98385
453.91        73.12366
454.36        73.42385
454.80        73.75306
455.24        73.82851
455.69        73.61179
456.13        73.23431
456.58        72.87109
457.02        72.50774
457.46        72.30516
457.91        72.55829
458.35        73.06826
458.79        73.24346
459.24        73.03925
459.68        72.70236
460.13        72.34696
460.57        72.01286
461.01        71.79162
461.46        71.55653
461.90        71.22799
462.34        71.54109
462.79        70.95555
463.23        71.16228
463.68        71.59687
464.12        71.86427
464.56        71.89319
465.01        71.88185
465.45        71.74479
465.89        71.69316
466.34        71.55859
466.78        70.47852
467.22        69.07954
467.67        68.29417
468.11        69.90165
468.55        70.73747
468.99        70.91928
469.44        70.61057
469.88        69.99972
470.32        69.79641
470.77        69.99362
471.21        69.88407
471.65        69.47089
472.10        69.36951
472.54        69.55566
472.98        69.69745
473.42        69.76059
473.87        69.86589
474.31        69.95628
474.75        69.96089
475.20        69.88077
475.64         69.7156
476.08        69.55908
476.52         69.3903
476.97        69.18488
477.41        69.36303
477.85        69.68788
478.29         69.1534
478.74        69.59898
479.18        69.90909
479.62        68.59758
480.06        69.14296
480.50        69.43765
480.95        69.92529
481.39        70.15148
481.83        68.84897
482.27         69.4398
482.72        68.82781
483.16        67.65897
483.60        67.86369
484.04        69.32203
484.48        69.78288
484.93        69.66728
485.37        71.06645
485.81        71.50559
486.25        70.10434
486.69         95.5285
487.14         77.0327
487.58        47.74771
488.02        58.90529
488.46        66.79971
488.90           66.43
489.34        67.80663
489.79         67.4943
490.23         69.2172
490.67        70.04492
491.11        68.99886
491.55        68.93072
491.99        69.42101
492.43        69.23981
492.88        68.49805
493.32        68.47839
493.76        68.70423
494.20         69.0021
494.64         69.1105
495.08        69.37769
495.52        69.78085
495.96        69.60104
496.41         68.9606
496.85        69.53114
497.29        70.91088
497.73         69.8559
498.17        67.38924
498.61        67.40404
499.05        69.93355
499.49        70.47704
499.93          70.491
500.37        70.12267
500.82        69.34718
501.26        69.42122
501.70        70.05697
502.14        70.30551
502.58        70.02299
503.02        69.83085
503.46         69.7386
503.90        69.38553
504.34        68.89701
504.78        68.67493
505.22        68.77886
505.66        69.00303
506.10        69.24377
506.54        69.56914
506.98        69.80337
507.42         69.4571
507.86        68.74725
508.30        68.47605
508.74        68.74699
509.18        69.13859
509.62        69.49016
510.06         69.6848
510.50        69.66004
510.94        69.46715
511.38        69.22973
511.82        69.13573
512.26        69.23464
512.70        69.46462
513.14        69.74229
513.58        69.93372
514.02        69.99079
514.46        69.95274
514.90        69.87031
515.34        69.80186
515.78        69.76077
516.22        69.79551
516.66        69.87006
517.10        69.75612
517.54        69.44108
517.98         69.5749
518.42        69.34607
518.86        69.46487
519.30        69.66958
519.74        70.04198
520.18        70.44864
520.62         70.5536
521.06        70.37362
521.50        70.22916
521.93        70.16863
522.37        70.03941
522.81        69.87773
523.25         69.8113
523.69        69.84516
524.13        69.91684
524.57        70.01704
525.01        70.16097
525.45        70.32742
525.89        70.47849
526.32        70.58736
526.76        70.64744
527.20        70.64795
527.64         70.5982
528.08        70.52454
528.52        70.37888
528.96        70.14957
529.40        70.01706
529.83        70.03069
530.27        69.42825
530.71        69.62803
531.15        69.59603
531.59        69.74574
532.03         70.0087
532.46        70.33224
532.90        70.59417
533.34        70.73918
533.78        70.79865
534.22        70.78016
534.66        70.70758
535.09        70.58705
535.53        70.43983
535.97        70.27966
536.41        70.15131
536.85        70.07153
537.28        70.03777
537.72        70.03743
538.16        70.05765
538.60        70.08868
539.04        70.07584
539.47        70.01518
539.91        70.09006
540.35         70.2243
540.79        70.12783
541.22        69.84594
541.66        69.73372
542.10        69.80376
542.54        69.85462
542.97        69.88074
543.41        69.98148
543.85        70.13698
544.29        70.34477
544.72        70.49181
545.16        70.42194
545.60        70.10771
546.04        69.62333
546.47        69.17507
546.91        69.02817
547.35        69.26461
547.79        69.98441
548.22         70.8284
548.66        71.03298
549.10         70.5142
549.53        69.66264
549.97        68.84511
550.41          68.418
550.84         68.4899
551.28        69.01261
551.72         69.7596
552.15        70.15005
552.59        70.02757
553.03         70.1881
553.46         69.6483
553.90         69.5259
554.34        69.56532
554.77        69.65923
555.21        69.75302
555.65        69.78459
556.08        70.12915
556.52         69.6154
556.96        69.97612
557.39        69.86496
557.83        69.79824
558.27        69.71916
558.70        69.68904
559.14        69.79489
559.57        70.00049
560.01        70.28831
560.45        70.55368
560.88        70.58868
561.32        70.39231
561.75         70.1314
562.19        69.89142
562.63        69.39098
563.06         68.8271
563.50        68.93123
563.93        69.55119
564.37        69.87885
564.80         69.7989
565.24        69.70277
565.68        69.63908
566.11         69.5844
566.55        69.60114
566.98        69.61971
567.42         69.6424
567.85        69.73567
568.29        69.92146
568.72        69.91259
569.16        69.88512
569.60        70.24252
570.03         70.6352
570.47        70.54256
570.90        70.28841
571.34         68.5472
571.77        69.47662
572.21        69.82331
572.64        69.02583
573.08        68.37436
573.51        65.26144
573.95        67.81627
574.38        72.04671
574.82        70.20294
