SpectraSmart Spectrum 2.9.0.0
--------- Device Information -----------
Spectrum Name :  反射率_0
Saving Time :  2024/04/26 01:11:33
Spectro-Module Model Name : SE2030-DUVN
Spectro-Module Serial Number : OS361AC55029948
Wavelength Start : 200
Wavelength End : 1025
Wavelength Unit : Wavelength(nm)
Spectrum Unit : Reflectance(%)
-----------Spectrum Setting ------------
Integration Time : 20ms
Average : 10
Boxcar : 0
Background removal :  enabled
linearity correction :  enabled
SC :  disabled
Intensity correction :  disabled
DWT denoise :  enabled
savitzky-golay :  disabled
FFT :  disabled
Running average :  disabled
Kalman :  disabled
High pass :  disabled
---------------BEGIN--------------------
Wavelength(nm)             Reflectance(%)
200.29               0
200.75        104.7232
201.21        96.33692
201.67        86.02945
202.13        79.30324
202.58        77.00024
203.04        78.05592
203.50        80.49973
203.96        81.15219
204.42         79.4287
204.88        76.59197
205.34        74.50179
205.80        75.21307
206.26          79.825
206.72        91.08092
207.18        113.1365
207.64        131.3273
208.10        116.6411
208.55        89.29751
209.01        72.67654
209.47        67.86407
209.93        69.99608
210.39        76.61649
210.85        84.63013
211.31        87.22906
211.77        82.12795
212.23        72.07588
212.69        61.59216
213.14        57.56654
213.60        61.20237
214.06        70.38144
214.52        81.45814
214.98        88.85453
215.44        90.83691
215.90         89.1476
216.36         85.4965
216.81        82.09855
217.27        80.06369
217.73        78.66687
218.19        77.01022
218.65        73.80414
219.11        68.27471
219.57        59.63287
220.02        48.78754
220.48        42.09664
220.94        43.21643
221.40        50.93961
221.86        58.52022
222.32        58.80967
222.77        52.54066
223.23        43.52525
223.69        36.11444
224.15        34.79367
224.61        38.96878
225.06        46.46956
225.52        53.59155
225.98        55.58466
226.44        51.82143
226.90        44.41061
227.36        36.66072
227.81        33.07196
228.27         34.7205
228.73        39.74826
229.19        45.77121
229.65        49.28503
230.10        49.56824
230.56         48.0775
231.02        46.18222
231.48        45.37222
231.93        45.81517
232.39        46.90092
232.85        48.04843
233.31        48.50235
233.77        48.05721
234.22        47.00573
234.68        45.74034
235.14        44.91676
235.60        44.81632
236.05         45.2657
236.51        45.94828
236.97        46.38742
237.43        46.50843
237.88        46.54871
238.34        46.79242
238.80        48.00076
239.26        50.42025
239.71        53.80045
240.17        57.42467
240.63        60.63875
241.08        63.18816
241.54        65.02848
242.00        66.41933
242.46        67.95913
242.91        70.54945
243.37        75.60947
243.83        90.27525
244.28        138.2091
244.74        193.7583
245.20        164.4361
245.66        137.7506
246.11        132.5388
246.57        141.9265
247.03        175.9177
247.48        278.6283
247.94        239.2047
248.40        132.8922
248.85        99.06016
249.31         88.4781
249.77        86.53689
250.22        89.09692
250.68        95.48557
251.14        105.8805
251.59        114.7943
252.05        115.5423
252.51        110.2439
252.96         102.207
253.42        95.48362
253.88        90.22907
254.33        85.13773
254.79        82.57105
255.25         85.2042
255.70        91.67665
256.16        99.88963
256.62        106.0072
257.07        106.2413
257.53        101.7488
257.99        94.26467
258.44        86.35794
258.90        82.00979
259.35        80.42484
259.81        80.16425
260.27        79.28201
260.72        75.92435
261.18        70.82465
261.63        64.79153
262.09        59.24671
262.55        55.09588
263.00        52.36151
263.46         50.6998
263.91        49.44039
264.37        48.18483
264.83        46.68504
265.28        44.94906
265.74        43.31086
266.19        42.00338
266.65        41.21011
267.11        40.74247
267.56         40.2507
268.02         39.3086
268.47         37.8061
268.93         35.8866
269.38         33.8523
269.84        32.46737
270.30        31.93298
270.75         32.0556
271.21        32.38175
271.66        32.21515
272.12        31.39356
272.57        30.14695
273.03        28.88154
273.48        28.12647
273.94        28.01162
274.39        28.27766
274.85        28.62708
275.31        28.62648
275.76        28.16148
276.22        27.41821
276.67        26.54913
277.13        25.86102
277.58        25.38736
278.04        25.06715
278.49        24.77439
278.95        24.39329
279.40        23.87488
279.86        23.32962
280.31        22.79849
280.77        22.44139
281.22        22.24219
281.68        22.16255
282.13        22.13512
282.59        22.10313
283.04        22.03749
283.50        21.98729
283.95        21.91501
284.41        21.78205
284.86        21.58773
285.32        21.35672
285.77        21.18438
286.22         21.2756
286.68        21.62561
287.13        22.13409
287.59        22.61519
288.04          22.785
288.50        22.61529
288.95        22.18972
289.41        21.68363
289.86        21.25652
290.32        21.02403
290.77        20.93183
291.22        20.99997
291.68        21.21677
292.13        21.57874
292.59        22.10358
293.04        22.77838
293.50        23.57268
293.95        24.45308
294.40        25.38775
294.86        26.35101
295.31        27.32292
295.77        28.30937
296.22        29.32588
296.68        30.36655
297.13        31.38865
297.58        32.40893
298.04        33.45697
298.49        34.62001
298.95         36.0829
299.40        37.85706
299.85         39.8731
300.31          41.971
300.76         43.8907
301.21         45.5331
301.67        46.99713
302.12        48.31696
302.58        49.65073
303.03        51.02821
303.48        52.43771
303.94        53.96882
304.39         55.6971
304.84        57.63285
305.30        59.74583
305.75        61.84788
306.20        63.67051
306.66         65.1733
307.11        66.37759
307.57        67.48109
308.02        68.66898
308.47         70.0478
308.93        71.56634
309.38        73.10789
309.83        74.54142
310.29        75.81517
310.74        76.93571
311.19        77.98436
311.65        79.08273
312.10        80.24292
312.55        81.43903
313.00        82.52369
313.46        83.26685
313.91         83.6162
314.36        83.66958
314.82        83.67918
315.27        83.97956
315.72        84.68018
316.18        85.67958
316.63        86.78469
317.08        87.62897
317.53        88.10094
317.99        88.29408
318.44        88.39974
318.89        88.73431
319.35        89.35535
319.80        90.18996
320.25        91.00494
320.70        91.42341
321.16        91.36567
321.61        90.96251
322.06        90.48315
322.51        90.34805
322.97        90.63599
323.42        91.25685
323.87        91.97729
324.32        92.39791
324.78        92.39676
325.23         92.1394
325.68        91.79546
326.13        91.66878
326.59        91.82762
327.04         92.2021
327.49         92.6899
327.94        93.15542
328.39        93.53892
328.85        93.86765
329.30          94.188
329.75        94.39627
330.20        94.50496
330.66        94.54536
331.11        94.68094
331.56         94.9798
332.01        95.69421
332.46        96.59882
332.92        97.62453
333.37        98.71373
333.82        99.70797
334.27        100.6152
334.72        101.3195
335.17        101.6603
335.63        101.6308
336.08        101.3317
336.53         100.969
336.98        100.9228
337.43        101.2995
337.88         102.004
338.34        102.8963
338.79        103.8255
339.24         104.667
339.69        105.4816
340.14        106.1771
340.59        106.5944
341.05        106.7243
341.50        106.5855
341.95        106.3887
342.40        106.4851
342.85        106.9507
343.30        107.6978
343.75        108.5243
344.20        109.0614
344.66        109.2144
345.11        109.0797
345.56        108.8184
346.01         108.672
346.46        108.7172
346.91        108.8813
347.36        109.0969
347.81        109.2663
348.26        109.3644
348.72        109.4464
349.17         109.528
349.62        109.6765
350.07         109.891
350.52         110.121
350.97        110.3141
351.42        110.4031
351.87        110.3705
352.32        110.2465
352.77        110.0336
353.22         109.738
353.67        109.3786
354.13        108.9704
354.58        108.5527
355.03        108.2463
355.48        108.0625
355.93        107.9664
356.38        107.8488
356.83        107.5325
357.28        106.9782
357.73        106.2416
358.18        105.4252
358.63         104.692
359.08        104.0943
359.53        103.5948
359.98        103.1267
360.43        102.5851
360.88        101.9345
361.33        101.1923
361.78        100.4331
362.23        99.77479
362.68        99.24564
363.13        98.82775
363.58        98.38361
364.03        97.69553
364.48        96.73778
364.93        95.58202
365.38        94.45914
365.83        93.74175
366.28        93.49277
366.73        93.57233
367.18        93.71398
367.63        93.48379
368.08        92.77648
368.53        91.75636
368.98        90.59653
369.43        89.55373
369.88         88.7169
370.33        88.00023
370.78         87.4173
371.23        86.99912
371.68        86.72678
372.13        86.60522
372.58        86.52091
373.03         86.2654
373.48        85.79701
373.93        85.17676
374.38        84.51996
374.83        84.01092
375.28        83.69112
375.72         83.4828
376.17        83.34635
376.62        83.19445
377.07         82.9795
377.52        82.70972
377.97        82.36425
378.42         81.9098
378.87        81.36205
379.32        80.76279
379.77        80.12733
380.22        79.47053
380.67        78.80361
381.11        78.12011
381.56        77.51061
382.01        77.12607
382.46        76.99519
382.91        77.09298
383.36        77.22089
383.81        77.06112
384.26        76.55392
384.71        75.77748
385.15        74.97905
385.60         74.6034
386.05        74.67154
386.50        75.03364
386.95        75.37344
387.40        75.16849
387.85        74.35892
388.29        73.17104
388.74        72.02103
389.19        71.18957
389.64        70.73013
390.09        70.49632
390.54        70.46509
390.98        70.60172
391.43        70.84414
391.88        71.17594
392.33        71.41439
392.78        71.24508
393.23          70.668
393.67        69.88303
394.12        69.18783
394.57        68.56337
395.02        68.18537
395.47         68.4754
395.91        69.30757
396.36         69.8643
396.81        70.00353
397.26        70.07026
397.71        70.06757
398.15        69.76672
398.60        69.27602
399.05        68.78074
399.50        68.30854
399.95        67.47334
400.39        66.72325
400.84        66.36414
401.29        66.46461
401.74         66.5675
402.18        66.60652
402.63         66.6676
403.08        66.79238
403.53        67.02333
403.97        67.34191
404.42        67.65503
404.87        67.81231
405.32        67.61774
405.76        67.04694
406.21        66.24001
406.66        65.44744
407.11         65.0127
407.55        65.03629
408.00        65.46482
408.45        66.09246
408.90        66.40971
409.34        66.26882
409.79        65.87202
410.24        65.41295
410.68        65.13484
411.13        65.11799
411.58        65.25166
412.03        65.48291
412.47        65.74379
412.92        65.94259
413.37          66.136
413.81         66.2577
414.26        66.24197
414.71        66.06876
415.15        65.74067
415.60        65.37227
416.05        65.17318
416.49        65.19891
416.94        65.42116
417.39        65.66593
417.83        65.61781
418.28        65.23636
418.73        64.63326
419.17        64.08624
419.62        64.03593
420.07        64.51436
420.51        65.35985
420.96        66.26353
421.41        66.62639
421.85        66.29074
422.30        65.78003
422.74        65.22675
423.19        64.43203
423.64        63.67638
424.08         64.0089
424.53        65.24295
424.98        65.96715
425.42        65.98814
425.87        66.34155
426.31        66.93143
426.76        66.64681
427.21        65.84492
427.65        66.02827
428.10        67.02113
428.54        68.28898
428.99        68.23341
429.44        68.42054
429.88        68.44619
430.33        69.17568
430.77        70.00985
431.22        68.85208
431.66        66.30711
432.11        65.18531
432.56        65.74095
433.00        66.53944
433.45        67.38364
433.89        69.15583
434.34         70.6161
434.78        71.10625
435.23        67.90823
435.67        65.87148
436.12         68.2989
436.57        69.35605
437.01        69.80087
437.46        70.11395
437.90        70.48093
438.35        69.86959
438.79        70.63538
439.24        70.53421
439.68        70.30743
440.13        69.86254
440.57        69.58828
441.02        70.49583
441.46        72.19145
441.91        73.25539
442.35         73.3261
442.80        72.59198
443.24        71.49953
443.69        71.84743
444.13        73.23822
444.58        73.63527
445.02        71.51162
445.47        71.35167
445.91        72.55256
446.36         72.9613
446.80        72.46642
447.24        72.39172
447.69        72.85381
448.13        72.57236
448.58        73.08765
449.02         73.2159
449.47        73.40105
449.91        73.60821
450.36        73.83817
450.80        74.05047
451.25        74.17893
451.69        74.13229
452.13        73.92311
452.58        73.59652
453.02        73.27505
453.47        73.18871
453.91        73.35535
454.36        73.70695
454.80        74.10453
455.24        74.20058
455.69        73.93834
456.13        73.61833
456.58        73.37701
457.02        72.76791
457.46        72.22797
457.91        72.59152
458.35        73.60978
458.79        73.99729
459.24        73.68066
459.68        73.29903
460.13        72.95837
460.57        72.58197
461.01         72.2821
461.46        71.83247
461.90        71.23758
462.34        71.81541
462.79        71.53008
463.23        71.97063
463.68        72.37695
464.12        72.64344
464.56        72.67619
465.01        72.46535
465.45        72.07583
465.89        71.93275
466.34        71.85496
466.78         71.1108
467.22        70.22404
467.67        68.93548
468.11        70.47966
468.55         71.1112
468.99        71.42506
469.44        71.14378
469.88        70.47696
470.32         70.3981
470.77        70.83431
471.21         70.8539
471.65        70.41642
472.10        70.20406
472.54        70.26159
472.98        70.31946
473.42         70.3622
473.87        70.59952
474.31         70.8654
474.75        70.67628
475.20        70.15814
475.64        69.86492
476.08         70.0154
476.52        69.95222
476.97        69.72233
477.41        69.83169
477.85        70.24755
478.29        69.85381
478.74        70.29333
479.18        69.89322
479.62        69.32702
480.06        69.88065
480.50        70.12404
480.95         70.5314
481.39        70.66682
481.83        69.83593
482.27        69.74382
482.72        69.92812
483.16        68.37218
483.60        68.66017
484.04        70.13086
484.48        70.53918
484.93        70.41816
485.37        71.88988
485.81        72.39522
486.25        71.78323
486.69        97.15998
487.14        78.81301
487.58         48.9282
488.02        59.57163
488.46        68.36441
488.90        67.66048
489.34        68.41143
489.79        68.19337
490.23        70.29616
490.67        71.21546
491.11        69.79379
491.55        69.54925
491.99        70.08378
492.43        69.88499
492.88        69.07719
493.32        69.07292
493.76        69.37148
494.20        69.73901
494.64         69.9128
495.08        70.18858
495.52        70.54113
495.96        70.47017
496.41        70.00942
496.85        70.29727
497.29        71.10461
497.73        70.00826
498.17        67.96686
498.61        68.26462
499.05        70.84675
499.49         71.1709
499.93        70.84383
500.37        70.61547
500.82        70.35592
501.26        70.43761
501.70        70.58616
502.14        70.85626
502.58        70.63486
503.02        70.48238
503.46        70.24977
503.90        69.85318
504.34        69.42422
504.78        69.13711
505.22        69.07916
505.66         69.4835
506.10        70.18906
506.54        70.41044
506.98        69.97305
507.42        70.07507
507.86        69.52261
508.30        68.99895
508.74        69.51836
509.18        69.88505
509.62        70.32564
510.06        70.56609
510.50        70.55521
510.94        70.34997
511.38        70.05908
511.82        69.88305
512.26        69.87502
512.70        69.97285
513.14        70.11609
513.58        70.21243
514.02        70.22584
514.46        70.18562
514.90        70.12774
515.34        70.08616
515.78        70.06194
516.22        70.10377
516.66        70.17664
517.10        70.05656
517.54        69.73717
517.98        69.86775
518.42        69.63614
518.86        69.75025
519.30        69.95632
519.74        70.28565
520.18        70.65029
520.62        70.90016
521.06        71.00287
521.50        70.99767
521.93        70.91134
522.37        70.79048
522.81        70.66837
523.25        70.53393
523.69        70.43463
524.13        70.44363
524.57        70.56805
525.01        70.79053
525.45        71.03409
525.89        71.16902
526.32        71.15292
526.76        71.01479
527.20        70.81992
527.64        70.69368
528.08        70.68351
528.52        70.69807
528.96        70.65044
529.40         70.6037
529.83        70.58208
530.27        69.86567
530.71        69.92911
531.15        69.80357
531.59        69.92742
532.03        70.19962
532.46        70.57376
532.90        70.93882
533.34        71.22587
533.78        71.46272
534.22        71.59142
534.66        71.53624
535.09        71.29182
535.53         70.9086
535.97        70.49148
536.41        70.23207
536.85        70.18299
537.28        70.30525
537.72        70.49841
538.16        70.60417
538.60        70.57823
539.04        70.41055
539.47        70.18527
539.91        70.21818
540.35        70.45576
540.79        70.55664
541.22        70.47652
541.66        70.43639
542.10        70.42142
542.54        70.28185
542.97         70.0893
543.41        70.06345
543.85        70.21616
544.29        70.49896
544.72        70.76302
545.16        70.80463
545.60        70.57835
546.04        70.16077
546.47        69.74229
546.91        69.62553
547.35        69.88005
547.79         70.4431
548.22        71.03426
548.66        71.27093
549.10        71.00677
549.53        70.16203
549.97        69.12768
550.41        68.65112
550.84        68.85123
551.28        69.44814
551.72        70.19701
552.15        70.61796
552.59        70.55615
553.03        70.68223
553.46        70.18393
553.90        70.05564
554.34        70.08068
554.77        70.15579
555.21        70.22692
555.65        70.28918
556.08        70.63108
556.52        70.12762
556.96        70.50042
557.39           70.38
557.83        70.28622
558.27        70.22601
558.70        70.22388
559.14        70.21773
559.57        70.23922
560.01        70.46066
560.45        70.80788
560.88        71.10748
561.32        71.24486
561.75         71.0229
562.19        70.59061
562.63        70.11361
563.06        69.74662
563.50         69.9824
563.93         70.3726
564.37        70.59185
564.80        70.47541
565.24          70.403
565.68        70.38368
566.11        70.31551
566.55        70.26641
566.98        70.17129
567.42        70.08708
567.85        70.32494
568.29        70.87404
568.72        71.01143
569.16        70.85783
569.60        71.67133
570.03        71.96403
570.47        71.92439
570.90        71.60854
571.34        69.92303
571.77        70.68019
572.21        71.19759
572.64        70.83086
573.08        69.38047
573.51        66.32769
573.95        68.83404
574.38        73.52363
574.82        71.46068
