SpectraSmart Spectrum 2.9.0.0
--------- Device Information -----------
Spectrum Name :  反射率_0
Saving Time :  2024/04/26 01:36:37
Spectro-Module Model Name : SE2030-DUVN
Spectro-Module Serial Number : OS361AC55029948
Wavelength Start : 200
Wavelength End : 1025
Wavelength Unit : Wavelength(nm)
Spectrum Unit : Reflectance(%)
-----------Spectrum Setting ------------
Integration Time : 20ms
Average : 10
Boxcar : 0
Background removal :  enabled
linearity correction :  enabled
SC :  disabled
Intensity correction :  disabled
DWT denoise :  enabled
savitzky-golay :  disabled
FFT :  disabled
Running average :  disabled
Kalman :  disabled
High pass :  disabled
---------------BEGIN--------------------
Wavelength(nm)             Reflectance(%)
200.29               0
200.75        102.5378
201.21        94.03989
201.67        83.54465
202.13        76.02863
202.58         72.2517
203.04        71.13628
203.50        71.55997
203.96         71.8278
204.42        71.38444
204.88        70.81669
205.34        70.55343
205.80        71.00751
206.26        72.60105
206.72        76.40971
207.18        83.80338
207.64        90.22132
208.10        85.88502
208.55        76.44847
209.01        71.29433
209.47        71.90069
209.93        76.45026
210.39        84.30322
210.85        92.44996
211.31        93.77614
211.77        86.28187
212.23        72.88976
212.69         59.5373
213.14         55.3215
213.60        61.76387
214.06        76.08685
214.52        92.80991
214.98        103.3597
215.44        105.3458
215.90         101.673
216.36        95.06406
216.81         89.2085
217.27        85.78271
217.73        83.55078
218.19        81.68799
218.65        79.12614
219.11        75.10809
219.57        69.09164
220.02        61.58551
220.48        56.76591
220.94        56.80907
221.40        61.07373
221.86        64.43959
222.32        61.42129
222.77        53.13153
223.23        43.14791
223.69        35.32776
224.15        33.70779
224.61        37.53941
225.06        44.50353
225.52        51.46408
225.98        54.48228
226.44        52.84449
226.90        48.36649
227.36        42.81763
227.81         38.5357
228.27        36.50029
228.73        35.70397
229.19        36.17688
229.65        37.94737
230.10        40.50197
230.56        43.58158
231.02        46.19913
231.48        47.15528
231.93        46.49549
232.39        44.69742
232.85        42.63356
233.31        41.73374
233.77        42.33397
234.22        44.02742
234.68        46.20277
235.14        47.53469
235.60        47.56332
236.05        46.77885
236.51        45.72722
236.97         45.1299
237.43        45.28669
237.88        46.12539
238.34         47.7215
238.80        50.17495
239.26        53.29557
239.71        57.12491
240.17        61.04997
240.63        64.60803
241.08        67.60927
241.54        69.67036
242.00        71.34724
242.46         73.9276
242.91        78.96779
243.37        89.96384
243.83          119.16
244.28        192.4131
244.74         235.813
245.20        162.6747
245.66          120.43
246.11        112.0224
246.57        123.3125
247.03        168.7289
247.48        320.0002
247.94        306.2893
248.40        160.0855
248.85        107.9529
249.31        90.17775
249.77        86.64612
250.22        90.81026
250.68        101.3718
251.14        118.0581
251.59         130.749
252.05        128.4129
252.51        115.5953
252.96        100.4743
253.42        91.00814
253.88        87.00024
254.33        85.44034
254.79        86.77067
255.25        91.07939
255.70        96.80291
256.16        103.3388
256.62        107.6949
257.07        106.8083
257.53        101.9025
257.99        94.27009
258.44        86.59097
258.90        83.00085
259.35        82.45678
259.81        83.32599
260.27          83.211
260.72        79.82822
261.18        74.09427
261.63        67.09466
262.09        60.65993
262.55        56.14745
263.00        53.53693
263.46         52.2354
263.91        51.30557
264.37        50.08531
264.83        48.32348
265.28        46.16099
265.74         44.0709
266.19         42.4959
266.65         41.6706
267.11        41.30852
267.56        40.98209
268.02        40.19182
268.47        38.80753
268.93        36.99634
269.38        35.05663
269.84        33.73799
270.30        33.22731
270.75        33.31223
271.21           33.54
271.66        33.22519
272.12        32.21401
272.57        30.75211
273.03        29.24628
273.48        28.21694
273.94        27.81705
274.39        27.81893
274.85        27.97559
275.31        27.92131
275.76        27.54726
276.22        26.99962
276.67        26.39009
277.13        25.96726
277.58        25.72695
278.04         25.6007
278.49        25.43702
278.95        25.09323
279.40        24.52282
279.86        23.85348
280.31        23.15225
280.77        22.62272
281.22        22.27239
281.68        22.06582
282.13        21.95045
282.59        21.88285
283.04        21.83388
283.50        21.85056
283.95        21.87325
284.41        21.82747
284.86        21.69926
285.32        21.51183
285.77        21.37621
286.22         21.5254
286.68        21.95561
287.13        22.55478
287.59        23.10393
288.04        23.27075
288.50        23.02631
288.95        22.47773
289.41        21.84974
289.86        21.37269
290.32         21.1751
290.77        21.17807
291.22        21.36209
291.68        21.65448
292.13        22.03664
292.59        22.54749
293.04        23.19562
293.50        23.98458
293.95        24.89097
294.40        25.86862
294.86        26.88542
295.31        27.91368
295.77         28.9551
296.22        30.02941
296.68        31.12411
297.13        32.18471
297.58        33.22512
298.04        34.27536
298.49        35.43663
298.95         36.9164
299.40        38.73351
299.85        40.82058
300.31        42.99939
300.76         44.9775
301.21        46.65431
301.67         48.1418
302.12        49.51259
302.58        50.98392
303.03        52.58891
303.48        54.28987
303.94        56.12607
304.39        58.09641
304.84        60.19257
305.30        62.40648
305.75        64.58447
306.20        66.51299
306.66        68.16999
307.11        69.56365
307.57         70.8707
308.02        72.24139
308.47        73.78124
308.93        75.45297
309.38        77.17453
309.83        78.86684
310.29        80.48042
310.74        81.99422
311.19        83.43469
311.65        84.84464
312.10        86.21778
312.55        87.55064
313.00        88.73944
313.46        89.62641
313.91        90.17705
314.36        90.46651
314.82         90.7126
315.27        91.19521
315.72        92.01701
316.18         93.0963
316.63        94.27452
317.08        95.23559
317.53         95.8768
317.99        96.26981
318.44        96.57056
318.89        97.04456
319.35        97.73333
319.80          98.581
320.25        99.37331
320.70        99.76739
321.16        99.69706
321.61        99.28508
322.06        98.79389
322.51        98.63273
322.97         98.8791
323.42        99.45918
323.87         100.147
324.32        100.5526
324.78        100.5575
325.23        100.3227
325.68        100.0233
326.13        99.97646
326.59        100.2434
327.04        100.7494
327.49        101.3571
327.94        101.8766
328.39        102.2387
328.85        102.4875
329.30        102.7104
329.75        102.8732
330.20        103.0166
330.66        103.1317
331.11        103.3723
331.56         103.909
332.01        104.7867
332.46        105.9372
332.92        107.1966
333.37        108.4699
333.82        109.5637
334.27        110.4826
334.72        111.1283
335.17         111.376
335.63        111.2413
336.08        110.8403
336.53         110.367
336.98        110.1802
337.43        110.3922
337.88        110.9192
338.34        111.6893
338.79        112.6629
339.24        113.7294
339.69        114.9187
340.14        116.0075
340.59        116.6102
341.05        116.6617
341.50        116.2403
341.95        115.7095
342.40        115.6522
342.85        116.1913
343.30        117.1671
343.75        118.2538
344.20        118.8716
344.66        118.8717
345.11        118.4312
345.56         117.817
346.01        117.4226
346.46        117.3674
346.91        117.5275
347.36        117.7863
347.81        117.9742
348.26        118.0389
348.72        118.0583
349.17        118.0671
349.62        118.1556
350.07        118.3327
350.52        118.5405
350.97        118.7078
351.42        118.7422
351.87        118.6253
352.32        118.3955
352.77        118.0963
353.22        117.7971
353.67        117.5215
354.13        117.2568
354.58         116.978
355.03        116.7062
355.48        116.4318
355.93         116.156
356.38        115.8191
356.83        115.3252
357.28        114.6594
357.73        113.8455
358.18        112.9788
358.63        112.2112
359.08        111.5814
359.53        111.0613
359.98        110.5456
360.43        109.8619
360.88        108.9763
361.33        107.9389
361.78        106.8941
362.23        106.0758
362.68        105.5376
363.13        105.2106
363.58        104.9182
364.03         104.381
364.48        103.5359
364.93        102.4651
365.38        101.3451
365.83        100.4656
366.28        99.88657
366.73        99.49669
367.18        99.13866
367.63        98.56179
368.08        97.71727
368.53        96.73597
368.98         95.7037
369.43        94.72937
369.88        93.86173
370.33         93.0517
370.78        92.37956
371.23         91.9886
371.68        91.87803
372.13        91.99796
372.58        92.14403
373.03        91.96573
373.48        91.38645
373.93        90.52339
374.38        89.56609
374.83        88.80866
375.28        88.32877
375.72        88.01689
376.17        87.82582
376.62          87.655
377.07        87.44366
377.52        87.20936
377.97        86.89597
378.42        86.40952
378.87        85.75759
379.32         84.9977
379.77         84.1946
380.22        83.43828
380.67        82.75434
381.11        82.11586
381.56        81.57116
382.01        81.20121
382.46        81.01671
382.91        81.01264
383.36        81.03142
383.81        80.82137
384.26        80.33384
384.71        79.61864
385.15        78.87625
385.60        78.48826
386.05        78.46104
386.50        78.67101
386.95        78.83868
387.40        78.50452
387.85        77.63828
388.29        76.45123
388.74        75.34306
389.19        74.56509
389.64        74.15719
390.09          73.964
390.54        73.98055
390.98        74.19684
391.43        74.54095
391.88         74.9962
392.33        75.32262
392.78        75.03078
393.23        74.11753
393.67        73.01472
394.12        72.18539
394.57        71.01022
395.02        71.03614
395.47        71.51945
395.91        72.63316
396.36        73.35635
396.81        73.49416
397.26        73.42795
397.71        73.20505
398.15        72.70449
398.60        72.07024
399.05        71.45991
399.50        70.91872
399.95        70.05816
400.39        69.33774
400.84         69.1172
401.29        69.40816
401.74        69.53322
402.18        69.43072
402.63        69.40354
403.08        69.53354
403.53        69.76878
403.97        70.10164
404.42        70.51084
404.87        70.80302
405.32        70.66718
405.76        70.06487
406.21        69.16412
406.66        68.25228
407.11        67.79404
407.55        67.89415
408.00        68.28192
408.45        68.76161
408.90        69.20271
409.34        69.33237
409.79          68.689
410.24        67.60224
410.68        67.04434
411.13          67.135
411.58        67.38023
412.03        67.68834
412.47        68.09374
412.92        68.47322
413.37        68.84612
413.81        69.11396
414.26        69.16612
414.71         68.9761
415.15        68.56226
415.60        68.07117
416.05        67.76643
416.49        67.72432
416.94        67.90559
417.39        68.13548
417.83        68.09224
418.28        67.72734
418.73        67.15522
419.17        66.63529
419.62        66.58024
420.07        67.02295
420.51        67.81267
420.96        68.65524
421.41        69.00754
421.85        68.72112
422.30         68.2237
422.74        67.66077
423.19        67.01795
423.64        66.49597
424.08        66.78503
424.53        67.71471
424.98        68.27151
425.42        68.30278
425.87        68.56229
426.31        69.00617
426.76        68.75571
427.21        68.10375
427.65        68.38609
428.10        69.47375
428.54        70.29814
428.99        70.79818
429.44        70.95026
429.88        70.84451
430.33        71.85333
430.77        73.19196
431.22        71.85968
431.66        68.62246
432.11        67.27695
432.56        68.02894
433.00        68.87582
433.45        69.71251
433.89        71.40327
434.34        72.46314
434.78        74.46947
435.23        70.64246
435.67        67.88301
436.12        70.65585
436.57        71.81918
437.01        72.65325
437.46        73.08976
437.90        73.36259
438.35        72.23424
438.79        73.05596
439.24        72.85973
439.68        72.67267
440.13        72.30292
440.57        72.10786
441.02        73.15768
441.46        74.94533
441.91        75.83812
442.35        75.59178
442.80        74.51301
443.24        73.15068
443.69         73.7935
444.13        75.99373
444.58        76.13202
445.02         74.3986
445.47        74.17525
445.91         75.3944
446.36        75.76823
446.80        75.21601
447.24        75.14597
447.69        75.18184
448.13        75.33948
448.58        75.50182
449.02        75.72009
449.47        75.96634
449.91        76.21319
450.36        76.44484
450.80        76.64178
451.25        76.75029
451.69        76.65557
452.13        76.37684
452.58          75.964
453.02        75.55734
453.47        75.41953
453.91        75.57616
454.36        75.94717
454.80        76.37477
455.24         76.5063
455.69         76.2796
456.13        75.92462
456.58        75.58535
457.02          75.037
457.46        74.52977
457.91        74.71194
458.35        75.35652
458.79         75.6218
459.24        75.48962
459.68        75.16437
460.13        74.68658
460.57        74.78479
461.01        74.57291
461.46        73.67075
461.90        73.85217
462.34        73.81068
462.79        73.26913
463.23        73.47419
463.68        74.07285
464.12        74.54033
464.56        74.70752
465.01         74.8194
465.45        74.72891
465.89        74.39845
466.34        73.80529
466.78        72.70057
467.22        71.63187
467.67         70.8077
468.11        72.04654
468.55        72.77718
468.99        73.15055
469.44        72.92738
469.88         72.2917
470.32        72.16618
470.77        72.52258
471.21        72.51026
471.65        72.10713
472.10        71.98295
472.54        72.12155
472.98         72.1493
473.42        72.03899
473.87        72.09367
474.31        72.09441
474.75        71.95515
475.20        71.71056
475.64        71.70011
476.08        71.94394
476.52         71.9714
476.97         71.7072
477.41        71.82226
477.85        72.38921
478.29        71.42801
478.74        71.55929
479.18        72.05325
479.62        70.78857
480.06        71.49531
480.50        71.78039
480.95        72.24345
481.39        72.39086
481.83        71.38647
482.27        71.73241
482.72        71.22971
483.16        70.02757
483.60         70.1501
484.04        71.71611
484.48        72.07001
484.93        71.77564
485.37        73.61034
485.81        74.15338
486.25        72.93782
486.69        99.97938
487.14        80.58195
487.58         49.9636
488.02        61.73046
488.46        69.54984
488.90        68.63691
489.34        70.01119
489.79        69.71988
490.23        71.50926
490.67        72.40052
491.11           71.28
491.55        71.16607
491.99         71.6376
492.43        71.44064
492.88        70.69674
493.32        70.71214
493.76        70.97595
494.20        71.29859
494.64        71.41585
495.08        71.65781
495.52        72.01053
495.96        71.88503
496.41        71.35807
496.85        71.80373
497.29        72.91715
497.73        71.89684
498.17        69.72881
498.61        69.97623
499.05        72.60415
499.49        72.99075
499.93        72.75287
500.37        72.37302
500.82        71.79521
501.26        71.93443
501.70        72.47605
502.14        72.66917
502.58        72.38206
503.02        72.18633
503.46        72.08723
503.90        71.70767
504.34        71.21377
504.78        71.04406
505.22        71.23051
505.66        71.71143
506.10        72.31721
506.54         72.4406
506.98        71.92586
507.42        71.92255
507.86        71.37337
508.30        70.54767
508.74        71.10771
509.18        71.39069
509.62         71.8055
510.06        72.04161
510.50        72.04632
510.94        71.87933
511.38        71.63472
511.82        71.50438
512.26        71.53478
512.70        71.66158
513.14        71.82642
513.58        71.94337
514.02        71.97845
514.46        71.96022
514.90         71.9211
515.34        71.89051
515.78        71.87127
516.22        71.91122
516.66        71.98421
517.10        71.89153
517.54        71.62528
517.98        71.78222
518.42        71.59264
518.86         71.7069
519.30        71.88319
519.74        72.16016
520.18        72.44233
520.62        72.56844
521.06        72.51334
521.50        72.32363
521.93        72.07716
522.37        71.90131
522.81        71.84311
523.25        71.86758
523.69        71.95048
524.13        72.05283
524.57        72.15611
525.01         72.2726
525.45        72.38886
525.89        72.48024
526.32        72.53094
526.76        72.53712
527.20        72.50472
527.64        72.46796
528.08         72.4532
528.52        72.39675
528.96        72.26499
529.40        72.20804
529.83        72.26487
530.27        71.66129
530.71        71.85295
531.15        71.76244
531.59        71.82279
532.03        71.96612
532.46        72.18311
532.90         72.4225
533.34        72.63911
533.78        72.84129
534.22        72.97321
534.66        72.96099
535.09        72.79155
535.53        72.51899
535.97        72.20985
536.41        71.99393
536.85        71.91236
537.28        71.93657
537.72        72.02197
538.16        72.10533
538.60         72.1591
539.04        72.14115
539.47         72.0645
539.91        72.14187
540.35        72.30022
540.79        72.23183
541.22        71.96284
541.66         71.8306
542.10        71.84492
542.54        71.80978
542.97        71.75233
543.41        71.82491
543.85        72.01662
544.29        72.30818
544.72        72.54788
545.16        72.52399
545.60        72.19998
546.04        71.65813
546.47        71.13922
546.91        71.00827
547.35        71.34784
547.79        72.12252
548.22        72.97227
548.66         73.2957
549.10        72.95179
549.53        72.06602
549.97        71.04716
550.41        70.54244
550.84        70.69254
551.28        71.24848
551.72        71.97891
552.15        72.45526
552.59        72.53884
553.03        72.49275
553.46        72.42863
553.90         71.9678
554.34        72.20398
554.77        72.07566
555.21         71.8951
555.65        72.07474
556.08        72.56694
556.52        72.01244
556.96        72.11229
557.39        71.88442
557.83        71.87013
558.27        71.79031
558.70        71.70961
559.14        71.82159
559.57        72.09375
560.01        72.45554
560.45        72.78979
560.88        72.93105
561.32        72.84721
561.75        72.56625
562.19        72.21738
562.63        71.73722
563.06        71.29837
563.50        71.42545
563.93        71.97198
564.37        72.25233
564.80        72.17927
565.24        72.16395
565.68        72.22084
566.11         72.2123
566.55        72.19473
566.98        72.16482
567.42        72.18287
567.85        72.24652
568.29        72.73256
568.72        72.73787
569.16        72.58627
569.60        72.98952
570.03        73.52637
570.47         73.5323
570.90        73.24014
571.34         71.4954
571.77        72.32565
572.21        72.37949
572.64        71.92478
573.08        71.36946
573.51        67.72497
573.95        70.47568
574.38        75.29431
574.82         73.0855
