SpectraSmart Spectrum 2.9.0.0
--------- Device Information -----------
Spectrum Name :  反射率_0
Saving Time :  2024/04/26 01:30:45
Spectro-Module Model Name : SE2030-DUVN
Spectro-Module Serial Number : OS361AC55029948
Wavelength Start : 200
Wavelength End : 1025
Wavelength Unit : Wavelength(nm)
Spectrum Unit : Reflectance(%)
-----------Spectrum Setting ------------
Integration Time : 20ms
Average : 10
Boxcar : 0
Background removal :  enabled
linearity correction :  enabled
SC :  disabled
Intensity correction :  disabled
DWT denoise :  enabled
savitzky-golay :  disabled
FFT :  disabled
Running average :  disabled
Kalman :  disabled
High pass :  disabled
---------------BEGIN--------------------
Wavelength(nm)             Reflectance(%)
200.29               0
200.75        84.69048
201.21        79.10178
201.67        73.23049
202.13        69.42223
202.58        67.94741
203.04        68.53315
203.50        70.45146
203.96        72.40851
204.42        73.77382
204.88        74.62815
205.34         75.5967
205.80        77.78546
206.26         82.1242
206.72         90.7095
207.18        106.1685
207.64        117.2279
208.10         104.162
208.55        83.26331
209.01        70.54645
209.47        65.67436
209.93        64.97404
210.39        66.85799
210.85        69.57858
211.31        69.66216
211.77        66.22494
212.23        60.80933
212.69        55.93695
213.14        55.57727
213.60        60.19903
214.06        68.47518
214.52        78.21352
214.98        86.15329
215.44        90.87427
215.90         93.0033
216.36        92.87598
216.81        90.80936
217.27        87.77974
217.73        84.07391
218.19        79.74422
218.65        74.49963
219.11        67.71601
219.57        58.16193
220.02        46.68375
220.48        39.69313
220.94        40.78202
221.40        48.81703
221.86        56.54884
222.32        56.17976
222.77        48.67018
223.23        38.27869
223.69        29.62645
224.15        27.47407
224.61        31.19143
225.06        38.34011
225.52        45.38388
225.98        47.87173
226.44         45.1175
226.90        39.16362
227.36        32.60486
227.81        28.92271
228.27        29.12885
228.73        31.72461
229.19        35.46274
229.65        38.50211
230.10        40.19955
230.56        41.19108
231.02        41.68151
231.48        41.82298
231.93        41.76606
232.39        41.45501
232.85        41.13155
233.31        41.28259
233.77        41.98759
234.22        43.12898
234.68        44.48072
235.14        45.42886
235.60        45.75217
236.05        45.67386
236.51        45.34505
236.97        44.96147
237.43        44.65676
237.88         44.4055
238.34        44.51884
238.80        45.85093
239.26        48.63839
239.71        52.75464
240.17        57.11135
240.63        60.26876
241.08        61.83555
241.54        61.99455
242.00        61.52509
242.46        61.67833
242.91        63.33469
243.37        67.48226
243.83        80.71278
244.28        125.4159
244.74        179.2167
245.20        154.4328
245.66         129.307
246.11        122.0174
246.57        125.2088
247.03        141.4488
247.48        189.5032
247.94        160.4306
248.40        107.6325
248.85        91.97421
249.31        87.76683
249.77        87.73365
250.22        90.07258
250.68        94.83914
251.14        101.4323
251.59        104.1083
252.05        98.38531
252.51        87.76155
252.96        77.49796
253.42        72.24545
253.88        71.32212
254.33        72.91122
254.79        76.79401
255.25        81.94215
255.70        87.03733
256.16        91.97768
256.62        95.00598
257.07        94.35761
257.53        90.99569
257.99        85.58168
258.44        79.93867
258.90        77.17398
259.35        76.40367
259.81        76.57951
260.27        75.86886
260.72        72.48918
261.18        67.26076
261.63         61.0218
262.09        55.34392
262.55         51.3486
263.00        49.00458
263.46          47.814
263.91        46.97039
264.37        45.91011
264.83        44.40377
265.28        42.55174
265.74        40.74055
266.19        39.29625
266.65        38.43385
267.11        37.93444
267.56        37.47525
268.02        36.65713
268.47        35.37038
268.93        33.75605
269.38        32.04529
269.84        30.85887
270.30        30.35737
270.75        30.38188
271.21        30.57522
271.66        30.40245
272.12        29.72025
272.57        28.68352
273.03        27.61342
273.48        26.91219
273.94         26.6882
274.39        26.76403
274.85        26.85958
275.31        26.56252
275.76        25.79768
276.22        24.74622
276.67        23.68265
277.13        23.08398
277.58        22.97686
278.04        23.21365
278.49        23.46533
278.95        23.32784
279.40        22.71402
279.86        21.82776
280.31        20.88589
280.77        20.31458
281.22        20.15292
281.68        20.26411
282.13        20.45159
282.59         20.4706
283.04        20.26177
283.50        19.95144
283.95        19.59464
284.41        19.28176
284.86        19.04732
285.32        18.86451
285.77        18.77891
286.22         18.9222
286.68        19.26638
287.13        19.73756
287.59         20.1675
288.04        20.29993
288.50        20.11054
288.95        19.67069
289.41        19.14088
289.86        18.66791
290.32        18.36229
290.77        18.17779
291.22        18.14253
291.68        18.25682
292.13        18.51793
292.59        18.93235
293.04        19.47732
293.50        20.10705
293.95        20.78403
294.40        21.48044
294.86        22.16544
295.31        22.81352
295.77        23.42557
296.22        24.01021
296.68        24.57817
297.13        25.11926
297.58        25.66027
298.04        26.23122
298.49        26.88528
298.95        27.74013
299.40        28.80584
299.85        30.04496
300.31        31.37361
300.76        32.65911
301.21        33.83379
301.67        34.94709
302.12        35.97622
302.58        36.96725
303.03        37.92386
303.48        38.85455
303.94        39.85954
304.39        41.04575
304.84        42.43709
305.30        44.00012
305.75          45.573
306.20        46.91915
306.66        48.01031
307.11        48.88465
307.57        49.73112
308.02        50.74049
308.47        52.00386
308.93        53.46404
309.38        54.99598
309.83        56.44307
310.29        57.74147
310.74        58.90293
311.19        60.00972
311.65        61.19472
312.10        62.47547
312.55        63.81581
313.00        65.06218
313.46        65.97035
313.91        66.48277
314.36        66.70151
314.82        66.87557
315.27        67.35054
315.72        68.23421
316.18        69.42196
316.63        70.72458
317.08        71.78416
317.53        72.48405
317.99        72.90985
318.44        73.22968
318.89        73.72492
319.35        74.45019
319.80        75.33651
320.25        76.17676
320.70        76.63709
321.16        76.64883
321.61        76.33228
322.06        75.93867
322.51        75.85757
322.97        76.16603
323.42        76.78256
323.87         77.4936
324.32         77.9287
324.78        77.97746
325.23        77.79293
325.68        77.53432
326.13        77.48325
326.59        77.70584
327.04        78.13266
327.49        78.67534
327.94        79.21766
328.39        79.70197
328.85        80.14585
329.30        80.56713
329.75        80.85194
330.20        81.00233
330.66        81.02965
331.11        81.08679
331.56        81.35548
332.01        81.89795
332.46        82.66114
332.92        83.54006
333.37        84.48848
333.82        85.37372
334.27        86.20593
334.72        86.90048
335.17        87.33492
335.63        87.49523
336.08        87.44726
336.53        87.32215
336.98        87.38109
337.43        87.70021
337.88          88.216
338.34        88.84236
338.79         89.5133
339.24        90.14553
339.69        90.78274
340.14        91.34498
340.59        91.68819
341.05        91.79974
341.50        91.70638
341.95        91.58585
342.40        91.73004
342.85        92.20277
343.30        92.93114
343.75         93.7386
344.20        94.30441
344.66        94.54119
345.11        94.52152
345.56        94.39515
346.01        94.38989
346.46        94.57121
346.91        94.87003
347.36        95.19273
347.81        95.40112
348.26         95.4679
348.72        95.46317
349.17        95.44734
349.62        95.56712
350.07        95.83971
350.52        96.19022
350.97        96.52422
351.42         96.7061
351.87        96.70517
352.32         96.5828
352.77        96.36254
353.22        96.08225
353.67        95.77431
354.13        95.43562
354.58        95.12519
355.03        94.99316
355.48        95.04439
355.93        95.23031
356.38        95.38158
356.83        95.22535
357.28        94.70573
357.73        93.90989
358.18        93.00609
358.63        92.26359
359.08        91.76457
359.53        91.44275
359.98         91.1933
360.43        90.85022
360.88        90.35923
361.33        89.75784
361.78        89.13633
362.23        88.63367
362.68        88.28148
363.13        88.04692
363.58        87.77921
364.03        87.24638
364.48        86.41969
364.93        85.37619
365.38        84.35563
365.83        83.74527
366.28        83.60954
366.73        83.80103
367.18        84.04836
367.63         83.9058
368.08        83.27063
368.53         82.3268
368.98        81.24138
369.43        80.26142
369.88        79.48116
370.33        78.80914
370.78        78.31673
371.23        78.12928
371.68        78.23424
372.13        78.60613
372.58        78.99888
373.03        78.98092
373.48         78.4625
373.93        77.57404
374.38        76.59216
374.83        75.95403
375.28        75.76118
375.72        75.85926
376.17        76.09554
376.62        76.19076
377.07        76.04122
377.52        75.72418
377.97        75.28034
378.42        74.77118
378.87        74.24386
379.32        73.69781
379.77        73.14139
380.22        72.58689
380.67        72.03958
381.11        71.50554
381.56        71.04253
382.01        70.74107
382.46        70.61765
382.91        70.65475
383.36        70.71689
383.81        70.59012
384.26        70.23291
384.71         69.6946
385.15        69.13576
385.60        68.86674
386.05         68.8941
386.50        69.11494
386.95        69.31754
387.40        69.15073
387.85        68.58247
388.29        67.76328
388.74        66.99107
389.19        66.43023
389.64        66.11078
390.09        65.91616
390.54        65.87433
390.98        66.03205
391.43        66.35524
391.88         66.8108
392.33        67.14515
392.78        66.98078
393.23        66.32118
393.67        65.29834
394.12        64.33971
394.57        63.84429
395.02        63.89338
395.47        64.33715
395.91        65.00468
396.36        65.48671
396.81        65.65211
397.26        65.58881
397.71        65.36083
398.15        64.99652
398.60        64.61879
399.05         64.2614
399.50        63.94339
399.95        63.40508
400.39        62.99365
400.84         62.7839
401.29        62.82338
401.74        62.81456
402.18        62.74374
402.63        62.71297
403.08        62.79769
403.53        63.02626
403.97        63.39219
404.42        63.86531
404.87        64.24744
405.32        64.20888
405.76        63.69668
406.21        62.87536
406.66        62.03561
407.11         61.6126
407.55        61.70367
408.00        62.15449
408.45         62.7552
408.90        63.06851
409.34        62.94733
409.79        62.55891
410.24        62.07747
410.68        61.73257
411.13        61.60605
411.58         61.5961
412.03        61.70087
412.47        61.94299
412.92        62.25285
413.37        62.65117
413.81        63.01268
414.26        63.17989
414.71        63.10646
415.15        62.81921
415.60        62.44728
416.05        62.22861
416.49        62.23013
416.94        62.40662
417.39        62.60019
417.83           62.53
418.28        62.15706
418.73        61.58567
419.17        61.05846
419.62        60.95558
420.07        61.31538
420.51        62.00751
420.96        62.76041
421.41        63.09562
421.85        62.87939
422.30        62.42381
422.74        61.89122
423.19        61.46547
423.64        61.26344
424.08        61.56804
424.53        62.23793
424.98        62.72686
425.42        62.93504
425.87        63.24432
426.31        63.63046
426.76        63.64618
427.21         63.4455
427.65        63.67768
428.10        64.30997
428.54        64.91773
428.99        65.45972
429.44         65.8119
429.88        65.92352
430.33        66.43958
430.77        66.89878
431.22        65.78094
431.66        63.74158
432.11        62.52218
432.56         62.4871
433.00        63.27244
433.45        64.77961
433.89        66.69137
434.34        67.59045
434.78        68.95832
435.23         65.5815
435.67        63.16113
436.12         66.0679
436.57        67.02837
437.01        67.25135
437.46        68.00034
437.90        67.82117
438.35        67.45332
438.79        67.94296
439.24        67.88003
439.68        67.74648
440.13        67.47256
440.57         67.3714
441.02        68.27811
441.46        69.80907
441.91        70.66271
442.35        70.59016
442.80        69.80499
443.24        68.70264
443.69        69.09012
444.13        70.64755
444.58        70.53571
445.02        68.99986
445.47        68.90332
445.91        70.12524
446.36        70.58509
446.80        70.18937
447.24        70.06255
447.69        70.20761
448.13        70.38753
448.58        70.59518
449.02        70.85641
449.47        71.13223
449.91        71.37714
450.36        71.57269
450.80        71.71352
451.25        71.77238
451.69        71.67868
452.13        71.45404
452.58        71.12949
453.02        70.83275
453.47        70.75854
453.91        70.91738
454.36        71.34414
454.80        71.92075
455.24        71.83207
455.69        71.65539
456.13        71.29066
456.58        71.20947
457.02        70.25825
457.46        70.31617
457.91        71.00538
458.35         71.2485
458.79        71.53081
459.24        71.41363
459.68        71.12899
460.13        70.75001
460.57        70.44949
461.01        70.36082
461.46        69.94331
461.90        69.59065
462.34         70.1645
462.79        69.78773
463.23        69.89091
463.68        70.13079
464.12        70.31364
464.56        70.46592
465.01        70.65234
465.45        70.68803
465.89        70.53013
466.34        70.14542
466.78        69.13509
467.22        68.01825
467.67        67.72521
468.11        69.00854
468.55        69.68201
468.99        69.67659
469.44        69.30947
469.88        68.79089
470.32        68.74341
470.77        69.10448
471.21        69.09822
471.65        68.69322
472.10        68.51176
472.54        68.58418
472.98         68.6377
473.42        68.65285
473.87        68.83441
474.31        69.05971
474.75        68.91331
475.20        68.50796
475.64        68.41334
476.08        68.65042
476.52        68.63509
476.97        68.32906
477.41        68.34411
477.85        68.76655
478.29         68.1199
478.74         68.6772
479.18         68.8699
479.62         67.8894
480.06         68.5358
480.50        68.91714
480.95        69.26863
481.39        69.09561
481.83        68.53865
482.27        68.37323
482.72        68.06493
483.16        66.75466
483.60        66.99984
484.04        68.39836
484.48        69.02981
484.93         69.3457
485.37        70.42575
485.81        70.62684
486.25        70.05287
486.69        94.33482
487.14        76.20197
487.58        47.69735
488.02        58.80762
488.46        66.61092
488.90        66.04839
489.34         67.7303
489.79         66.5334
490.23        68.66205
490.67         69.7058
491.11        69.20244
491.55        69.14492
491.99         69.1787
492.43        68.85302
492.88        68.29537
493.32        68.30917
493.76        68.38446
494.20        68.58393
494.64        68.67261
495.08        68.82945
495.52        69.04965
495.96         68.9786
496.41        68.60891
496.85        68.81203
497.29        69.40276
497.73        68.33473
498.17        66.52356
498.61        66.86677
499.05        69.31175
499.49        69.69836
499.93        69.56922
500.37        69.36289
500.82        69.00103
501.26        69.13818
501.70        69.49461
502.14        69.98743
502.58        69.81616
503.02        69.72884
503.46        69.52932
503.90        69.04992
504.34        68.47296
504.78        68.19646
505.22        68.27785
505.66        68.65027
506.10        69.17589
506.54        69.38557
506.98         69.1427
507.42        69.35715
507.86        68.95119
508.30        68.59611
508.74        68.84186
509.18        68.96131
509.62        69.12366
510.06        69.19973
510.50        69.17725
510.94        69.08591
511.38        68.98065
511.82        68.95809
512.26        69.03995
512.70        69.19057
513.14        69.36517
513.58        69.51073
514.02        69.60074
514.46        69.61675
514.90        69.57529
515.34        69.62356
515.78        69.54369
516.22         69.5694
516.66        69.61069
517.10        69.45798
517.54         69.1087
517.98        69.22396
518.42        68.97683
518.86        69.08739
519.30         69.2941
519.74        69.62979
520.18        69.99581
520.62        70.22374
521.06        70.28032
521.50        70.21381
521.93        70.06583
522.37        69.90779
522.81        69.78104
523.25         69.6664
523.69        69.60883
524.13        69.67718
524.57        69.87289
525.01         70.1784
525.45        70.50188
525.89        70.68908
526.32        70.69342
526.76        70.55109
527.20        70.34563
527.64        70.23274
528.08        70.26746
528.52        70.34809
528.96        70.37442
529.40        70.39008
529.83        70.40753
530.27        69.70565
530.71        69.75986
531.15        69.60902
531.59        69.69514
532.03        69.92842
532.46        70.24329
532.90         70.4984
533.34         70.6338
533.78        70.69387
534.22        70.69566
534.66        70.67313
535.09        70.62896
535.53        70.57005
535.97        70.49474
536.41        70.42658
536.85        70.37626
537.28        70.35178
537.72        70.33896
538.16         70.3231
538.60        70.30304
539.04        70.22795
539.47        70.12466
539.91        70.22346
540.35        70.45005
540.79        70.49221
541.22        70.35123
541.66        70.31502
542.10        70.37806
542.54        70.35937
542.97        70.27593
543.41        70.26584
543.85        70.32871
544.29          70.454
544.72        70.53944
545.16        70.45599
545.60        70.17963
546.04        69.74734
546.47        69.34711
546.91        69.29459
547.35         69.6216
547.79        70.24876
548.22        70.88372
548.66        71.03147
549.10         70.6313
549.53        69.93985
549.97         69.2595
550.41        68.90356
550.84        68.97552
551.28        69.39783
551.72        69.98584
552.15        70.38429
552.59        70.48188
553.03         70.4314
553.46        70.28415
553.90        70.16489
554.34        70.09027
554.77        70.26653
555.21        70.12601
555.65        70.15838
556.08        70.45617
556.52        69.95225
556.96        70.33398
557.39        70.24108
557.83        70.18591
558.27         70.1194
558.70        70.11995
559.14        70.20116
559.57         70.3165
560.01        70.63676
560.45        71.10275
560.88        70.71526
561.32        70.89544
561.75        70.59007
562.19        70.33091
562.63        69.99165
563.06        69.69821
563.50        69.84339
563.93        70.27927
564.37        70.47896
564.80        70.36341
565.24        70.25402
565.68        70.18356
566.11        70.08067
566.55        70.01399
566.98        70.00409
567.42        70.06603
567.85        70.18964
568.29        70.41467
568.72        70.55801
569.16        70.73847
569.60        71.20098
570.03        71.58222
570.47        71.40002
570.90        71.02546
571.34         69.2495
571.77        70.22726
572.21         70.5126
572.64        69.88165
573.08        69.17266
573.51        65.66536
573.95        68.31832
574.38        73.10062
574.82        70.51912
