SpectraSmart Spectrum 2.9.0.0
--------- Device Information -----------
Spectrum Name :  反射率_0
Saving Time :  2024/04/26 01:52:35
Spectro-Module Model Name : SE2030-DUVN
Spectro-Module Serial Number : OS361AC55029948
Wavelength Start : 200
Wavelength End : 1025
Wavelength Unit : Wavelength(nm)
Spectrum Unit : Reflectance(%)
-----------Spectrum Setting ------------
Integration Time : 20ms
Average : 10
Boxcar : 0
Background removal :  enabled
linearity correction :  enabled
SC :  disabled
Intensity correction :  disabled
DWT denoise :  enabled
savitzky-golay :  disabled
FFT :  disabled
Running average :  disabled
Kalman :  disabled
High pass :  disabled
---------------BEGIN--------------------
Wavelength(nm)             Reflectance(%)
200.29               0
200.75        102.9969
201.21        97.39248
201.67         89.3846
202.13        83.48763
202.58        80.55586
203.04        79.87495
203.50        79.87171
203.96        78.29916
204.42        75.09656
204.88        71.35994
205.34        68.80744
205.80        69.23473
206.26        73.63773
206.72        85.00628
207.18        107.9289
207.64        128.1779
208.10        115.3144
208.55        88.24503
209.01        71.69529
209.47        67.83584
209.93        71.82372
210.39        81.11432
210.85        92.06425
211.31        96.29749
211.77        90.87757
212.23        79.11539
212.69        66.68606
213.14        62.20938
213.60        67.23533
214.06        79.02076
214.52        92.71329
214.98        100.9002
215.44        101.5681
215.90        97.33519
216.36        90.83247
216.81        85.57751
217.27        82.94898
217.73        81.60719
218.19         80.3502
218.65        77.55382
219.11        72.31097
219.57        64.08778
220.02        53.33441
220.48         45.2085
220.94        43.24014
221.40        47.02227
221.86        51.79597
222.32        52.07956
222.77        48.07977
223.23        42.55075
223.69        38.37265
224.15        38.61064
224.61        42.76996
225.06        49.22153
225.52        55.32602
225.98        57.84882
226.44        56.23608
226.90        51.88469
227.36        46.76711
227.81        43.52281
228.27         43.0195
228.73        44.22076
229.19        46.06871
229.65        47.01503
230.10        46.75679
230.56        45.98477
231.02        45.27103
231.48        45.20427
231.93        45.79813
232.39         46.7542
232.85        47.74173
233.31        48.35713
233.77        48.46497
234.22         48.1735
234.68        47.65595
235.14        47.18658
235.60        46.93169
236.05        46.90696
236.51          46.983
236.97        46.91537
237.43        46.70231
237.88        46.47538
238.34        46.66006
238.80        48.34047
239.26        51.81613
239.71        56.76643
240.17        61.86218
240.63         65.3689
241.08         66.8173
241.54        66.53259
242.00        65.43221
242.46        64.85401
242.91         65.6311
243.37        68.30745
243.83        78.78242
244.28        121.4052
244.74        185.1741
245.20        169.8306
245.66         147.032
246.11        142.5574
246.57        151.8667
247.03         183.975
247.48        277.1156
247.94        230.3941
248.40        131.3462
248.85        100.9316
249.31        91.91656
249.77        90.73869
250.22        93.75292
250.68        100.7381
251.14        111.3366
251.59        118.3066
252.05        114.5076
252.51         103.408
252.96        91.09612
253.42        83.39442
253.88        79.88226
254.33        78.53768
254.79        79.68584
255.25          83.145
255.70        87.71804
256.16        92.96445
256.62        96.66022
257.07        96.56189
257.53        93.57838
257.99        88.48142
258.44        83.15961
258.90        80.80661
259.35        80.46685
259.81        81.00994
260.27        80.54253
260.72        77.25005
261.18        71.99156
261.63        65.61494
262.09        59.74345
262.55        55.51614
263.00        52.92547
263.46         51.5202
263.91        50.45928
264.37        49.16342
264.83        47.39075
265.28        45.23378
265.74        43.16312
266.19        41.62687
266.65        40.84406
267.11        40.53431
267.56        40.22716
268.02        39.35968
268.47        37.80934
268.93        35.76899
269.38        33.60833
269.84        32.21003
270.30        31.79833
270.75        32.11417
271.21        32.63578
271.66        32.57472
272.12         31.7377
272.57        30.38834
273.03        28.94135
273.48        27.93302
273.94        27.52799
274.39        27.49869
274.85         27.5996
275.31         27.4732
275.76        27.01849
276.22         26.3824
276.67        25.71117
277.13        25.29554
277.58        25.13231
278.04        25.14103
278.49        25.10405
278.95        24.78372
279.40         24.1279
279.86         23.2955
280.31        22.44331
280.77        21.90885
281.22        21.71362
281.68         21.7633
282.13        21.90184
282.59        21.94234
283.04        21.82771
283.50        21.64889
283.95         21.4264
284.41        21.20701
284.86        21.00746
285.32        20.81862
285.77          20.684
286.22        20.73347
286.68        20.95356
287.13        21.28187
287.59         21.5856
288.04         21.6575
288.50        21.48363
288.95         21.1166
289.41        20.69592
289.86        20.33262
290.32        20.12153
290.77        20.01754
291.22        20.04105
291.68        20.18248
292.13        20.43928
292.59        20.82375
293.04        21.32495
293.50        21.91842
293.95        22.57922
294.40        23.28491
294.86        24.01384
295.31        24.74847
295.77        25.49385
296.22        26.25961
296.68        27.04966
297.13        27.83984
297.58        28.64289
298.04        29.47519
298.49        30.38505
298.95        31.49368
299.40        32.80289
299.85        34.26725
300.31        35.77461
300.76        37.14832
301.21         38.3231
301.67        39.38121
302.12        40.34466
302.58        41.33057
303.03        42.36026
303.48        43.42816
303.94        44.62443
304.39        46.03262
304.84         47.6629
305.30        49.48236
305.75        51.30698
306.20        52.86953
306.66         54.1347
307.11        55.14017
307.57        56.09171
308.02         57.2012
308.47        58.57187
308.93        60.14265
309.38        61.78837
309.83        63.35449
310.29        64.77773
310.74        66.07109
311.19        67.31107
311.65        68.61853
312.10        70.00916
312.55        71.45116
313.00        72.80125
313.46        73.83343
313.91        74.48791
314.36        74.85197
314.82        75.16113
315.27        75.73797
315.72        76.68676
316.18        77.90965
316.63        79.21764
317.08        80.25092
317.53        80.90058
317.99        81.26077
318.44        81.52122
318.89        81.99638
319.35         82.7476
319.80        83.70109
320.25        84.63651
320.70        85.19343
321.16        85.29159
321.61        85.05663
322.06         84.7322
322.51        84.70158
322.97        85.03917
323.42        85.66019
323.87        86.36872
324.32        86.82825
324.78        86.93185
325.23        86.82835
325.68        86.63676
326.13        86.57451
326.59        86.69576
327.04        86.95855
327.49        87.32652
327.94        87.77347
328.39        88.26701
328.85        88.79619
329.30        89.34824
329.75        89.73548
330.20        89.93883
330.66        90.00072
331.11        90.08498
331.56        90.38657
332.01        90.97898
332.46        91.78931
332.92        92.75032
333.37        93.90856
333.82        95.12863
334.27        96.39281
334.72        97.49036
335.17        98.08549
335.63        98.11665
336.08        97.72126
336.53        97.17647
336.98        96.98515
337.43        97.29382
337.88        97.97456
338.34        98.86003
338.79        99.74885
339.24         100.507
339.69        101.2281
340.14        101.8428
340.59        102.2217
341.05        102.3638
341.50        102.2671
341.95        102.1395
342.40        102.3341
342.85        102.9171
343.30        103.7979
343.75        104.7367
344.20        105.2986
344.66        105.3817
345.11        105.1152
345.56        104.7154
346.01        104.5095
346.46        104.5933
346.91        104.8591
347.36        105.2249
347.81        105.5687
348.26        105.8465
348.72        106.1257
349.17        106.3672
349.62        106.5491
350.07        106.6643
350.52          106.69
350.97        106.6803
351.42        106.7358
351.87        106.8679
352.32        107.0534
352.77        107.1903
353.22        107.1127
353.67        106.7993
354.13        106.3274
354.58        105.8057
355.03        105.4657
355.48        105.3502
355.93        105.3733
356.38        105.4148
356.83        105.2849
357.28        104.9241
357.73        104.3968
358.18        103.7444
358.63         103.029
359.08        102.2983
359.53        101.5547
359.98        100.8387
360.43        100.2134
360.88        99.68507
361.33        99.22737
361.78        98.82787
362.23        98.45894
362.68        98.09736
363.13        97.75045
363.58        97.33894
364.03        96.73987
364.48        95.94621
364.93        94.99915
365.38        94.04561
365.83        93.32897
366.28        92.89791
366.73        92.66773
367.18        92.50511
367.63        92.18795
368.08        91.65577
368.53         90.9972
368.98        90.25751
369.43         89.4956
369.88        88.74702
370.33        87.98781
370.78        87.29092
371.23        86.78793
371.68        86.49886
372.13        86.39139
372.58        86.35458
373.03        86.18716
373.48        85.84093
373.93        85.38684
374.38        84.89856
374.83        84.49046
375.28        84.19311
375.72        83.93996
376.17        83.75151
376.62        83.64339
377.07        83.58578
377.52        83.55231
377.97        83.43863
378.42        83.07854
378.87        82.46278
379.32        81.68303
379.77        80.83894
380.22        80.06725
380.67        79.40495
381.11        78.80482
381.56        78.30569
382.01        77.97314
382.46        77.81308
382.91        77.83888
383.36        77.88189
383.81        77.66601
384.26         77.1538
384.71        76.41364
385.15        75.69696
385.60        75.46187
386.05        75.72263
386.50        76.31374
386.95        76.90084
387.40        76.91891
387.85        76.28123
388.29        75.22068
388.74        74.13483
389.19        73.28013
389.64        72.72051
390.09        72.31564
390.54        72.11897
390.98        72.22435
391.43        72.59211
391.88        73.16758
392.33        73.65178
392.78         73.5512
393.23        72.84266
393.67        71.80692
394.12        70.86051
394.57        70.10276
395.02        69.75915
395.47        70.29372
395.91        71.46501
396.36        72.16781
396.81        72.19337
397.26        71.99685
397.71        71.72904
398.15        71.32755
398.60        70.93446
399.05        70.74693
399.50        70.62922
399.95        69.81323
400.39        68.82233
400.84        68.34427
401.29        68.50392
401.74        68.77814
402.18        69.00278
402.63        68.94392
403.08        68.72225
403.53        68.86423
403.97        69.37824
404.42        69.86858
404.87        70.14062
405.32        70.06215
405.76        69.58643
406.21        68.85189
406.66        68.09108
407.11        67.60638
407.55        67.52949
408.00        67.83927
408.45        68.36937
408.90        68.76436
409.34        68.80355
409.79        68.33294
410.24         67.5994
410.68        67.22416
411.13        67.30191
411.58        67.50514
412.03        67.76376
412.47        68.09065
412.92        68.38409
413.37        68.66689
413.81        68.87334
414.26        68.94607
414.71        68.85981
415.15         68.6126
415.60        68.29388
416.05        68.07359
416.49        68.00313
416.94        68.06875
417.39         68.1356
417.83        67.95362
418.28        67.50431
418.73        66.88776
419.17        66.35092
419.62        66.28426
420.07        66.70834
420.51        67.47881
420.96        68.30968
421.41        68.64431
421.85        68.32703
422.30        67.85251
422.74        67.33751
423.19        66.56546
423.64        65.81944
424.08        66.17834
424.53        67.41821
424.98        68.10054
425.42        68.04356
425.87        68.15981
426.31        68.48817
426.76        68.40043
427.21        68.08881
427.65        68.33107
428.10        69.07169
428.54        69.76566
428.99        70.34766
429.44        70.75703
429.88        70.94803
430.33        71.49661
430.77        71.94827
431.22        70.97988
431.66        68.99442
432.11        67.73701
432.56        67.47392
433.00        67.96024
433.45        69.21819
433.89        70.92353
434.34        71.65152
434.78        73.92137
435.23        70.35376
435.67        68.28325
436.12        70.37401
436.57        71.24699
437.01        71.90918
437.46        72.15476
437.90        72.10966
438.35        72.22401
438.79        72.45547
439.24        72.48219
439.68         72.3036
440.13        71.96965
440.57        71.77802
441.02        72.36658
441.46        73.48991
441.91        74.50532
442.35        74.99813
442.80        74.26458
443.24        72.78822
443.69        73.25587
444.13        75.29281
444.58        75.29597
445.02        73.50564
445.47        73.24472
445.91        74.42171
446.36        74.80923
446.80        74.33506
447.24         74.1443
447.69        74.32211
448.13        74.54051
448.58        74.81139
449.02        75.15594
449.47        75.50769
449.91        75.81364
450.36        76.05058
450.80        76.14668
451.25        76.07874
451.69        76.11829
452.13        75.76683
452.58        75.48112
453.02        75.19514
453.47        75.10815
453.91        75.22188
454.36        75.48491
454.80        75.79799
455.24        75.85293
455.69        75.60241
456.13        75.35091
456.58        75.18484
457.02        74.50691
457.46         73.8533
457.91         74.0451
458.35        74.91764
458.79        75.25948
459.24         75.0182
459.68        74.74206
460.13        74.50755
460.57        74.24104
461.01        74.06441
461.46        73.31219
461.90        73.28984
462.34        73.09765
462.79        72.86029
463.23        72.88312
463.68        73.46172
464.12        74.05689
464.56        74.54173
465.01        74.53725
465.45        74.01131
465.89        73.64511
466.34        73.41216
466.78        72.49155
467.22        71.34074
467.67        70.93768
468.11        72.03278
468.55        72.68752
468.99         72.8251
469.44        72.51455
469.88        71.97651
470.32        72.01396
470.77        72.52146
471.21        72.60121
471.65        72.21723
472.10        71.74792
472.54        71.82308
472.98        71.77644
473.42        71.76675
473.87        72.00903
474.31        72.33599
474.75         72.1534
475.20        71.60387
475.64        71.52327
476.08        71.89156
476.52        71.91304
476.97        71.56063
477.41        71.59394
477.85         71.5643
478.29        71.46284
478.74        71.96857
479.18        71.81831
479.62        70.81695
480.06        71.36744
480.50          71.807
480.95         72.2399
481.39        72.18037
481.83        71.56047
482.27        71.46615
482.72         71.3252
483.16        70.12232
483.60        70.11285
484.04        71.45117
484.48        71.94178
484.93        72.15382
485.37        73.72466
485.81        74.13799
486.25        72.89186
486.69        98.59772
487.14        79.80362
487.58        49.57705
488.02        60.75774
488.46        69.03223
488.90        68.99723
489.34         70.3149
489.79        69.66895
490.23        71.31354
490.67        72.02718
491.11        71.01181
491.55        71.06586
491.99        71.71451
492.43        71.61788
492.88        70.86234
493.32        70.80832
493.76        70.98063
494.20        71.25987
494.64        71.39725
495.08        71.63091
495.52        71.95722
495.96        71.91975
496.41        71.53089
496.85        71.94081
497.29        72.83739
497.73         71.5753
498.17        69.22451
498.61        69.35151
499.05        71.97408
499.49        72.61094
499.93        72.72597
500.37         72.5383
500.82        71.96314
501.26        71.88512
501.70        72.05358
502.14        72.55925
502.58        72.20383
503.02        72.11117
503.46        71.96684
503.90        71.64684
504.34        71.27285
504.78        71.11803
505.22        71.23205
505.66        71.53631
506.10        71.89523
506.54        72.03352
506.98        71.87835
507.42        71.59128
507.86        71.34515
508.30        70.98328
508.74         71.2309
509.18        71.47421
509.62        71.78095
510.06        71.92389
510.50        71.85403
510.94        71.63903
511.38        71.38631
511.82         71.2755
512.26        71.35172
512.70        71.55759
513.14        71.80791
513.58         71.9689
514.02        71.99428
514.46        71.91768
514.90        71.80717
515.34        71.75272
515.78        71.76808
516.22        71.88403
516.66        72.02759
517.10        71.92315
517.54        71.54974
517.98        71.53957
518.42        71.17684
518.86        71.20394
519.30        71.39761
519.74         71.7694
520.18        72.18685
520.62        72.42857
521.06        72.44881
521.50         72.3122
521.93        72.10402
522.37        71.96393
522.81        71.94314
523.25        71.99396
523.69        72.09866
524.13         72.2337
524.57        72.38041
525.01        72.54807
525.45        72.70284
525.89        72.78484
526.32        72.77393
526.76         72.6812
527.20        72.53992
527.64        72.42719
528.08        72.38092
528.52        72.32468
528.96        72.21198
529.40        72.17011
529.83        72.23175
530.27        71.63484
530.71        71.83157
531.15        71.73967
531.59        71.79316
532.03        71.91975
532.46        72.13127
532.90        72.41295
533.34        72.72044
533.78        73.04709
534.22        73.29204
534.66        73.31445
535.09        73.09048
535.53        72.69592
535.97         72.2443
536.41        71.94109
536.85        71.84632
537.28        71.90952
537.72        72.05103
538.16        72.14838
538.60        72.16221
539.04        72.07828
539.47        71.93423
539.91        71.97767
540.35        72.14371
540.79        72.10441
541.22        71.88719
541.66        71.83195
542.10        71.94228
542.54        72.02608
542.97        72.06788
543.41        72.15263
543.85         72.2628
544.29        72.39816
544.72        72.48384
545.16        72.42337
545.60        72.19676
546.04        71.86601
546.47        71.58026
546.91        71.49994
547.35        71.69432
547.79        72.32146
548.22        73.07095
548.66        73.23115
549.10        72.73551
549.53        71.96362
549.97         71.2384
550.41        70.84447
550.84        70.88632
551.28        71.30508
551.72        71.88802
552.15        72.21186
552.59        72.16618
553.03        71.99879
553.46        71.63002
553.90        71.47287
554.34        71.52334
554.77        71.62378
555.21        71.69787
555.65         71.8651
556.08        72.13629
556.52        71.60756
556.96        71.96996
557.39        71.87854
557.83        71.86401
558.27        71.85509
558.70        71.89488
559.14        72.03542
559.57        72.23777
560.01        72.49482
560.45        72.70784
560.88        72.72251
561.32         72.5392
561.75        72.20107
562.19        71.84898
562.63        71.46153
563.06        71.16965
563.50        71.35861
563.93        71.87474
564.37        72.15456
564.80        72.10199
565.24        72.01895
565.68        71.94768
566.11        71.86413
566.55        71.83598
566.98        71.83572
567.42        71.87201
567.85        71.96736
568.29        72.15945
568.72        72.23096
569.16        72.34921
569.60        72.80962
570.03        73.23255
570.47         73.1916
570.90        73.00477
571.34        70.99459
571.77        72.30438
572.21        72.13863
572.64        71.37091
573.08        70.80798
573.51        67.66509
573.95        70.28914
574.38        74.39278
574.82        72.68974
