SpectraSmart Spectrum 2.9.0.0
--------- Device Information -----------
Spectrum Name :  反射率_0
Saving Time :  2024/04/26 02:05:13
Spectro-Module Model Name : SE2030-DUVN
Spectro-Module Serial Number : OS361AC55029948
Wavelength Start : 200
Wavelength End : 1025
Wavelength Unit : Wavelength(nm)
Spectrum Unit : Reflectance(%)
-----------Spectrum Setting ------------
Integration Time : 20ms
Average : 10
Boxcar : 0
Background removal :  enabled
linearity correction :  enabled
SC :  disabled
Intensity correction :  disabled
DWT denoise :  enabled
savitzky-golay :  disabled
FFT :  disabled
Running average :  disabled
Kalman :  disabled
High pass :  disabled
---------------BEGIN--------------------
Wavelength(nm)             Reflectance(%)
200.29               0
200.75        87.63757
201.21        79.75009
201.67        71.68164
202.13        67.30759
202.58        66.97546
203.04        69.88867
203.50        74.48324
203.96        77.88309
204.42        79.06206
204.88        78.80708
205.34        78.36012
205.80        79.26012
206.26        82.32701
206.72         89.0275
207.18        101.1467
207.64        108.6515
208.10        96.05698
208.55        78.13678
209.01         67.8817
209.47        64.59296
209.93        65.16806
210.39          68.548
210.85         72.6336
211.31        73.03419
211.77        68.57276
212.23        60.85696
212.69        53.83667
213.14        53.70655
213.60        61.24552
214.06        74.54265
214.52        88.87973
214.98        97.10142
215.44        97.43834
215.90        92.22855
216.36         84.8744
216.81        80.08348
217.27        79.23683
217.73        80.69585
218.19        82.12717
218.65        80.43487
219.11        74.44098
219.57        63.53323
220.02        49.24454
220.48         40.5483
220.94        42.58357
221.40        52.93002
221.86         62.8421
222.32         63.1494
222.77        54.95758
223.23        43.54839
223.69        33.85529
224.15        30.82637
224.61        33.92354
225.06        40.53893
225.52        47.44957
225.98        50.72873
226.44        49.59365
226.90          45.758
227.36         41.1315
227.81        38.21186
228.27        37.87472
228.73        39.01495
229.19        40.84593
229.65        42.27597
230.10          42.933
230.56        43.22263
231.02        43.33986
231.48        43.43087
231.93        43.52905
232.39        43.56296
232.85        43.46795
233.31         43.2273
233.77        42.83591
234.22        42.30168
234.68        41.77205
235.14        41.44342
235.60        41.43307
236.05        41.79661
236.51        42.35352
236.97        42.80196
237.43        43.15555
237.88        43.55021
238.34        44.45844
238.80        46.96254
239.26         51.2983
239.71         57.1285
240.17        62.98909
240.63        66.97787
241.08        68.60812
241.54        68.16306
242.00        66.96138
242.46        67.06131
242.91        69.88821
243.37        77.63672
243.83        101.1064
244.28        170.3022
244.74        234.9314
245.20        182.9859
245.66        143.3361
246.11        132.6158
246.57        137.9991
247.03        165.2046
247.48        249.1778
247.94        211.6252
248.40        122.8182
248.85        95.02797
249.31        87.04476
249.77        87.01882
250.22        91.82168
250.68        101.8047
251.14        116.6659
251.59         126.857
252.05        122.7094
252.51        108.3827
252.96        93.28355
253.42        86.52283
253.88        87.41434
254.33        92.37666
254.79         99.0393
255.25        103.6272
255.70        105.0283
256.16         105.138
256.62        103.8773
257.07        100.9107
257.53        97.05067
257.99        92.11117
258.44        87.08469
258.90        84.25613
259.35        82.75403
259.81        82.03068
260.27         80.5976
260.72        76.97587
261.18        71.91494
261.63        65.96784
262.09        60.55633
262.55        56.61517
263.00        54.10331
263.46        52.66786
263.91        51.50732
264.37         50.0795
264.83         48.1573
265.28        45.82745
265.74          43.585
266.19        41.92659
266.65        41.08711
267.11        40.77172
267.56        40.49279
268.02        39.66674
268.47        38.16217
268.93        36.17544
269.38         34.0672
269.84        32.70066
270.30        32.29658
270.75        32.60374
271.21        33.10819
271.66        33.03704
272.12        32.20184
272.57          30.855
273.03        29.42593
273.48        28.47258
273.94         28.1546
274.39        28.23565
274.85        28.42374
275.31        28.28916
275.76        27.73017
276.22        26.93024
276.67        26.09602
277.13        25.61048
277.58        25.48057
278.04        25.57862
278.49        25.65235
278.95         25.4184
279.40        24.80602
279.86        23.99614
280.31        23.11804
280.77        22.46813
281.22        22.08223
281.68        21.89481
282.13        21.83008
282.59        21.81433
283.04        21.80593
283.50        21.85771
283.95        21.91601
284.41        21.91283
284.86        21.82967
285.32        21.68137
285.77         21.5559
286.22        21.65442
286.68        21.97644
287.13        22.43238
287.59        22.83896
288.04        22.91607
288.50        22.64636
288.95        22.11707
289.41        21.53917
289.86        21.12259
290.32        20.98139
290.77        21.03826
291.22        21.25251
291.68        21.52006
292.13        21.81979
292.59        22.20019
293.04        22.70011
293.50          23.373
293.95        24.21124
294.40        25.15895
294.86        26.16226
295.31        27.15842
295.77        28.13583
296.22        29.11685
296.68        30.10723
297.13        31.08226
297.58        32.05971
298.04        33.06085
298.49        34.14399
298.95        35.45068
299.40        36.99279
299.85        38.72561
300.31        40.54399
300.76        42.27333
301.21        43.83592
301.67        45.30156
302.12        46.66031
302.58        48.00221
303.03        49.33189
303.48        50.64394
303.94        52.04168
304.39        53.62495
304.84        55.41066
305.30         57.3674
305.75        59.28506
306.20         60.8613
306.66        62.06734
307.11        62.95656
307.57        63.79102
308.02        64.85162
308.47        66.25043
308.93        67.89116
309.38        69.59436
309.83        71.12667
310.29        72.40354
310.74        73.46525
311.19        74.40163
311.65        75.35012
312.10        76.34138
312.55         77.3436
313.00        78.25842
313.46        78.93997
313.91        79.34677
314.36        79.54835
314.82        79.72718
315.27        80.10822
315.72        80.77516
316.18        81.66526
316.63        82.62129
317.08        83.34057
317.53        83.73869
317.99        83.88569
318.44        83.98679
318.89        84.38216
319.35        85.12224
319.80        86.12381
320.25        87.09686
320.70         87.5641
321.16        87.42271
321.61        86.83498
322.06        86.12746
322.51        85.81128
322.97        85.99513
323.42        86.56536
323.87        87.27715
324.32          87.707
324.78        87.72301
325.23          87.503
325.68        87.20641
326.13         87.1148
326.59         87.2915
327.04        87.65902
327.49        88.13562
327.94        88.62556
328.39        89.07536
328.85        89.50124
329.30         89.9052
329.75        90.12679
330.20        90.16775
330.66        90.06087
331.11        90.01099
331.56        90.27662
332.01        90.93634
332.46        91.90591
332.92        93.03253
333.37        94.20454
333.82        95.24087
334.27        96.16065
334.72        96.86147
335.17        97.20081
335.63        97.17717
336.08        96.87891
336.53        96.49552
336.98        96.38284
337.43        96.64833
337.88        97.21563
338.34        97.97732
338.79        98.82693
339.24        99.65791
339.69         100.521
340.14        101.3108
340.59        101.8417
341.05          102.08
341.50        102.0335
341.95        101.9066
342.40        102.0454
342.85        102.5242
343.30         103.262
343.75        104.0332
344.20        104.4337
344.66        104.3799
345.11        103.9938
345.56        103.5196
346.01        103.3193
346.46         103.482
346.91        103.8877
347.36        104.3756
347.81        104.7002
348.26        104.7982
348.72        104.7744
349.17        104.6934
349.62        104.7065
350.07        104.8524
350.52        105.0595
350.97        105.2852
351.42        105.4805
351.87        105.6161
352.32        105.7054
352.77        105.7177
353.22        105.6015
353.67         105.356
354.13        105.0146
354.58        104.6035
355.03        104.2259
355.48        103.9107
355.93        103.6397
356.38        103.3862
356.83        103.1014
357.28         102.766
357.73        102.3905
358.18        101.9818
358.63        101.5492
359.08        101.0964
359.53        100.6213
359.98        100.1073
360.43        99.53319
360.88        98.89365
361.33        98.18932
361.78        97.47066
362.23        96.81741
362.68        96.25682
363.13        95.79327
363.58          95.339
364.03        94.74963
364.48        94.00031
364.93        93.11877
365.38        92.26575
365.83        91.70315
366.28        91.46518
366.73         91.4573
367.18        91.43536
367.63        91.00663
368.08        90.10191
368.53        88.87965
368.98        87.58751
369.43        86.59402
369.88        85.99638
370.33        85.67831
370.78        85.52649
371.23          85.354
371.68        85.08317
372.13        84.76974
372.58        84.41859
373.03        84.03457
373.48        83.63409
373.93        83.20644
374.38        82.77464
374.83        82.38145
375.28        82.03593
375.72        81.72392
376.17        81.45346
376.62         81.2063
377.07        80.96445
377.52        80.70612
377.97         80.4231
378.42        80.10596
378.87        79.75425
379.32        79.39166
379.77        78.96911
380.22        78.40767
380.67        77.70458
381.11        76.88148
381.56        76.08348
382.01        75.55712
382.46        75.36272
382.91        75.45081
383.36        75.60126
383.81        75.45721
384.26        74.94743
384.71        74.17268
385.15        73.38196
385.60        73.01452
386.05        73.09813
386.50        73.48431
386.95        73.87524
387.40         73.7792
387.85        73.12836
388.29        72.12068
388.74        71.14738
389.19        70.46897
389.64        70.13536
390.09        70.00988
390.54        70.04866
390.98        70.18015
391.43        70.33815
391.88        70.52312
392.33        70.60712
392.78        70.32926
393.23        69.69706
393.67        68.96835
394.12        68.37885
394.57        67.64794
395.02         67.0233
395.47        67.35275
395.91        68.45779
396.36        69.05774
396.81        68.97854
397.26        68.82465
397.71        68.68672
398.15        68.35674
398.60        67.95783
399.05        67.66321
399.50        67.41006
399.95        66.69333
400.39        65.94893
400.84        65.49399
401.29        65.45904
401.74        65.61591
402.18        65.86076
402.63        65.92413
403.08         65.8653
403.53        66.05348
403.97        66.47168
404.42        66.82627
404.87        66.96397
405.32         66.7541
405.76         66.1787
406.21         65.4401
406.66        64.73336
407.11         64.2196
407.55        64.07304
408.00          64.464
408.45        65.11612
408.90        65.89799
409.34        66.37366
409.79        65.81098
410.24        64.57343
410.68        63.98358
411.13        64.17471
411.58        64.41808
412.03        64.62764
412.47        64.98329
412.92        65.37748
413.37         65.7844
413.81        66.09039
414.26        66.16046
414.71        65.96183
415.15        65.52889
415.60        65.01118
416.05        64.67382
416.49        64.59573
416.94        64.73356
417.39        64.93098
417.83        64.89604
418.28        64.58475
418.73        64.10809
419.17         63.6803
419.62        63.64309
420.07        64.01804
420.51        64.67043
420.96         65.3765
421.41        65.69283
421.85        65.48594
422.30        65.19681
422.74        64.87758
423.19        64.24541
423.64        63.55657
424.08        63.85593
424.53        64.97209
424.98        65.63004
425.42        65.67393
425.87        65.90951
426.31        66.35036
426.76         66.3942
427.21        66.21175
427.65        66.51925
428.10         67.2178
428.54        67.83288
428.99         68.3303
429.44        68.41984
429.88        68.21793
430.33        69.03439
430.77        70.15736
431.22         69.1484
431.66        66.59167
432.11        65.12299
432.56        65.09898
433.00        66.27462
433.45        68.40288
433.89        69.96825
434.34        69.61913
434.78        71.63343
435.23        68.23938
435.67        66.11083
436.12        68.85189
436.57        69.75964
437.01        70.16599
437.46        70.39428
437.90         70.6674
438.35        70.50174
438.79        71.03968
439.24        71.06384
439.68        70.93501
440.13        70.62141
440.57        70.45969
441.02        71.21455
441.46        72.55072
441.91         73.5806
442.35        73.90685
442.80        72.94437
443.24         71.2797
443.69        71.84383
444.13        74.20112
444.58        74.35872
445.02        72.51068
445.47        72.19733
445.91        73.38926
446.36        73.77222
446.80        73.26618
447.24        73.23753
447.69        73.72578
448.13         73.5212
448.58        73.65063
449.02        73.99075
449.47         74.7104
449.91          75.153
450.36        75.27021
450.80          75.372
451.25        75.45925
451.69        75.38497
452.13        75.18586
452.58         74.9173
453.02        74.67739
453.47        74.66064
453.91        74.86949
454.36         75.2475
454.80        75.68246
455.24         75.7792
455.69        75.46653
456.13        75.21762
456.58        75.18779
457.02        74.13075
457.46        73.78733
457.91        74.04865
458.35        75.05039
458.79        75.44792
459.24        75.18902
459.68        74.84011
460.13        74.48438
460.57        74.22992
461.01        74.22536
461.46        73.45314
461.90        73.28692
462.34         73.7548
462.79        72.91507
463.23         73.1843
463.68        73.76051
464.12        74.19394
464.56        74.37171
465.01        74.56135
465.45        74.57482
465.89         74.5784
466.34        74.08311
466.78         72.8306
467.22        71.36254
467.67        70.62122
468.11        72.10807
468.55        72.94918
468.99        73.18682
469.44        72.96284
469.88        72.46287
470.32        72.41348
470.77        72.78277
471.21        72.79649
471.65        72.43021
472.10        72.31718
472.54        72.45033
472.98        72.48152
473.42        72.41093
473.87        72.45285
474.31        72.48296
474.75        72.24265
475.20        71.97453
475.64        71.35501
476.08        72.32988
476.52        72.39135
476.97        72.03681
477.41        72.08578
477.85        72.62838
478.29        71.86906
478.74        72.01528
479.18        72.45354
479.62        71.25305
480.06        71.98051
480.50        72.35175
480.95        72.77845
481.39        72.73794
481.83         72.0654
482.27        72.33983
482.72        71.62692
483.16         70.6245
483.60        70.70387
484.04        72.28156
484.48        72.63509
484.93        72.35744
485.37        74.15063
485.81        74.27252
486.25        73.57521
486.69        98.63201
487.14        80.14989
487.58        49.97309
488.02        61.65976
488.46         70.0166
488.90        69.72124
489.34        71.22726
489.79        70.47934
490.23        72.51909
490.67        73.36532
491.11        72.33278
491.55          72.342
491.99        72.94096
492.43        72.81637
492.88        72.05756
493.32        72.00496
493.76        72.15226
494.20        72.36778
494.64        72.39671
495.08        72.50951
495.52        72.73473
495.96        72.60739
496.41        72.17992
496.85        72.71922
497.29        73.85189
497.73        72.71063
498.17        70.33829
498.61          70.408
499.05        72.98727
499.49        73.57774
499.93        73.71162
500.37        73.68269
500.82        73.33053
501.26         73.2267
501.70        73.47761
502.14        73.71213
502.58        73.83293
503.02        73.74438
503.46        73.43556
503.90        72.95404
504.34        72.47521
504.78        72.25752
505.22        72.35561
505.66         72.7095
506.10        73.15341
506.54        73.37247
506.98        73.27959
507.42        73.07964
507.86        72.71963
508.30        72.59343
508.74        72.69692
509.18        72.95384
509.62        73.25076
510.06        73.41516
510.50        73.40148
510.94        73.27335
511.38        73.11253
511.82        73.03947
512.26        73.09254
512.70        73.21986
513.14        73.34901
513.58        73.48453
514.02        73.61761
514.46        73.54301
514.90        73.23751
515.34        73.76164
515.78        73.34102
516.22        73.45007
516.66        73.52784
517.10        73.41555
517.54        73.09711
517.98        73.16778
518.42        72.93915
518.86        73.04546
519.30         73.2644
519.74        73.61749
520.18        73.99437
520.62        74.21094
521.06        74.23027
521.50        74.10609
521.93        73.90124
522.37        73.71998
522.81         73.6114
523.25         73.5485
523.69          73.547
524.13        73.63072
524.57        73.79178
525.01        74.02341
525.45        74.26901
525.89        74.43167
526.32        74.47568
526.76        74.41874
527.20        74.29819
527.64        74.19903
528.08        74.16357
528.52        74.11137
528.96        73.99256
529.40        73.93749
529.83        73.98021
530.27        73.33939
530.71        73.51587
531.15         73.4208
531.59        73.50084
532.03        73.68079
532.46        73.94187
532.90        74.21761
533.34        74.45659
533.78        74.66912
534.22        74.80544
534.66         74.8022
535.09        74.64669
535.53        74.38828
535.97        74.08453
536.41        73.85181
536.85        73.73109
537.28        73.70416
537.72        73.73635
538.16        73.77905
538.60        73.81276
539.04        73.79153
539.47        73.73194
539.91        73.85789
540.35         74.0881
540.79        74.09512
541.22        73.89203
541.66        73.80399
542.10        73.83531
542.54        73.79715
542.97        73.70673
543.41        73.70525
543.85        73.79174
544.29        73.95511
544.72        74.09531
545.16        74.08835
545.60         73.9061
546.04        73.57594
546.47        73.26917
546.91        73.28967
547.35        73.66473
547.79        74.28761
548.22        74.87504
548.66        75.02666
549.10        74.65211
549.53        73.83604
549.97        72.93683
550.41        72.49766
550.84        72.63608
551.28        73.16311
551.72        73.85246
552.15        74.29504
552.59         74.3521
553.03        74.30592
553.46        74.04862
553.90        73.86162
554.34        73.71716
554.77         73.9321
555.21        73.63816
555.65        73.77419
556.08        74.17265
556.52        73.57797
556.96        73.78141
557.39        73.63573
557.83         73.7046
558.27        73.80357
558.70        73.91634
559.14        74.05746
559.57        74.19217
560.01        74.28987
560.45        74.35799
560.88        74.53275
561.32        74.72878
561.75         74.5893
562.19        74.19795
562.63        73.69382
563.06        73.26845
563.50        73.32436
563.93        73.76025
564.37        74.10991
564.80        74.24809
565.24        74.14799
565.68        73.88745
566.11        73.74415
566.55        73.82928
566.98        73.83045
567.42        73.78436
567.85        73.97404
568.29        74.37103
568.72        74.41287
569.16        74.31011
569.60        74.67484
570.03        75.14817
570.47        75.10812
570.90        74.87637
571.34        72.83306
571.77        73.85643
572.21        73.76883
572.64        73.53013
573.08        72.39263
573.51        69.38216
573.95        72.01454
574.38        76.48922
574.82        74.27258
