SpectraSmart Spectrum 2.9.0.0
--------- Device Information -----------
Spectrum Name :  反射率_0
Saving Time :  2024/04/26 01:30:01
Spectro-Module Model Name : SE2030-DUVN
Spectro-Module Serial Number : OS361AC55029948
Wavelength Start : 200
Wavelength End : 1025
Wavelength Unit : Wavelength(nm)
Spectrum Unit : Reflectance(%)
-----------Spectrum Setting ------------
Integration Time : 20ms
Average : 10
Boxcar : 0
Background removal :  enabled
linearity correction :  enabled
SC :  disabled
Intensity correction :  disabled
DWT denoise :  enabled
savitzky-golay :  disabled
FFT :  disabled
Running average :  disabled
Kalman :  disabled
High pass :  disabled
---------------BEGIN--------------------
Wavelength(nm)             Reflectance(%)
200.29               0
200.75        94.28146
201.21        86.98605
201.67        78.78144
202.13        73.46048
202.58         71.5255
203.04        72.48035
203.50        74.84546
203.96        76.10209
204.42        75.64208
204.88        74.19627
205.34        73.30822
205.80        74.94812
206.26        80.33157
206.72        92.43985
207.18        115.5286
207.64        133.8346
208.10        117.3833
208.55        88.33217
209.01         70.6995
209.47        65.11221
209.93        66.48573
210.39          72.309
210.85         79.9229
211.31        83.44386
211.77        80.73912
212.23         74.1421
212.69        67.23996
213.14        65.58309
213.60        70.05474
214.06        78.73914
214.52         88.7197
214.98        95.70631
215.44        98.24935
215.90        97.68663
216.36        95.11861
216.81        91.86707
217.27        89.02795
217.73        86.35043
218.19        83.46342
218.65        79.67626
219.11        74.34464
219.57         66.5612
220.02        57.08372
220.48        51.43688
220.94        52.60022
221.40        59.51081
221.86        65.88406
222.32        65.04762
222.77        57.92374
223.23        48.39262
223.69        40.58266
224.15        38.78115
224.61        42.37584
225.06         49.1242
225.52        55.75488
225.98         58.1623
226.44        55.64444
226.90        49.99114
227.36        43.55391
227.81        39.46311
228.27        38.71982
228.73        40.10262
229.19        42.43012
229.65        43.98586
230.10        44.32232
230.56        44.07502
231.02        43.79449
231.48        44.06052
231.93        44.87527
232.39        45.93214
232.85        46.82946
233.31        47.04337
233.77        46.45855
234.22        45.27827
234.68        43.84534
235.14         42.7762
235.60        42.39439
236.05          42.621
236.51        43.29877
236.97        44.16963
237.43        45.23578
237.88        46.73675
238.34        48.85915
238.80        51.84403
239.26        55.47126
239.71        59.47549
240.17        63.00483
240.63        65.40927
241.08        66.64879
241.54        66.80527
242.00         66.6292
242.46        67.30873
242.91          69.964
243.37        76.56979
243.83        97.19462
244.28        164.3821
244.74        240.8553
245.20         198.779
245.66        160.5752
246.11        151.1214
246.57        159.4742
247.03         194.229
247.48        296.5894
247.94        240.5131
248.40        130.0593
248.85         96.6376
249.31        87.04285
249.77        86.52287
250.22        91.19714
250.68         101.336
251.14        116.4571
251.59        126.3082
252.05        120.8784
252.51        104.8233
252.96        88.06964
253.42        79.91425
253.88        79.61664
254.33        83.59569
254.79        89.75185
255.25        94.64216
255.70        97.03439
256.16        98.48019
256.62        98.43182
257.07        96.13879
257.53        92.44798
257.99        87.35964
258.44         82.2396
258.90         79.7447
259.35        78.92324
259.81         78.9527
260.27        78.04089
260.72        74.43428
261.18        68.97192
261.63        62.43427
262.09        56.48649
262.55        52.35583
263.00        49.99257
263.46        48.87394
263.91        48.04371
264.37         46.7734
264.83        44.85294
265.28        42.45576
265.74        40.17598
266.19        38.66294
266.65        38.13427
267.11        38.19451
267.56        38.28265
268.02        37.74512
268.47        36.45452
268.93        34.64263
269.38        32.66177
269.84        31.34977
270.30        30.92848
270.75        31.15311
271.21        31.57202
271.66        31.50949
272.12        30.79442
272.57        29.65679
273.03        28.45092
273.48        27.62029
273.94        27.29827
274.39          27.278
274.85        27.34174
275.31        27.17276
275.76        26.68492
276.22        26.02079
276.67        25.30141
277.13        24.78273
277.58        24.46863
278.04        24.29865
278.49        24.12101
278.95        23.78247
279.40        23.23594
279.86        22.60681
280.31        21.96731
280.77        21.52584
281.22        21.28591
281.68        21.20053
282.13        21.20075
282.59        21.22279
283.04        21.23064
283.50        21.26807
283.95        21.28846
284.41        21.23702
284.86        21.10463
285.32        20.91544
285.77         20.7556
286.22        20.81817
286.68        21.10365
287.13        21.52316
287.59        21.91435
288.04        22.02962
288.50        21.84664
288.95        21.43552
289.41           20.96
289.86        20.56156
290.32        20.34722
290.77        20.27039
291.22        20.33532
291.68        20.50761
292.13        20.78266
292.59         21.1796
293.04        21.72264
293.50        22.44133
293.95        23.31223
294.40        24.28753
294.86        25.28458
295.31        26.19449
295.77        27.00566
296.22        27.75856
296.68        28.51463
297.13         29.3428
297.58        30.28419
298.04        31.33157
298.49        32.49978
298.95        33.85749
299.40        35.39364
299.85        37.08389
300.31        38.83063
300.76        40.47498
301.21         41.9451
301.67        43.29499
302.12         44.5286
302.58        45.75593
303.03        46.98174
303.48        48.19616
303.94        49.46689
304.39        50.84028
304.84        52.32751
305.30         53.9154
305.75        55.44899
306.20        56.71146
306.66        57.68951
307.11        58.41227
307.57        59.08662
308.02        59.91336
308.47        60.98793
308.93        62.24929
309.38        63.55856
309.83        64.74361
310.29        65.73982
310.74        66.56591
311.19        67.30701
311.65        68.09415
312.10        68.94669
312.55        69.83338
313.00        70.62336
313.46        71.11554
313.91        71.26767
314.36        71.17497
314.82        71.06645
315.27        71.24429
315.72        71.80391
316.18        72.65395
316.63        73.61546
317.08        74.35045
317.53        74.75569
317.99        74.91272
318.44        74.99723
318.89        75.30193
319.35        75.87579
319.80        76.64049
320.25        77.37492
320.70         77.7224
321.16        77.60735
321.61        77.15942
322.06        76.61909
322.51        76.35902
322.97        76.45606
323.42        76.82878
323.87        77.30571
324.32        77.59251
324.78        77.59361
325.23        77.43887
325.68        77.22047
326.13        77.10804
326.59        77.13889
327.04        77.27598
327.49        77.49088
327.94        77.76842
328.39         78.0877
328.85        78.44613
329.30        78.83089
329.75         79.0753
330.20         79.1657
330.66        79.13314
331.11         79.1535
331.56        79.44463
332.01         80.0686
332.46        80.94212
332.92        81.92575
333.37        82.91449
333.82        83.75414
334.27        84.47646
334.72        84.99837
335.17        85.20274
335.63        85.10235
336.08        84.77865
336.53        84.43466
336.98        84.43753
337.43        84.87953
337.88        85.66412
338.34        86.62488
338.79        87.55502
339.24        88.32411
339.69        89.00523
340.14        89.54629
340.59        89.86362
341.05        89.96661
341.50        89.85302
341.95        89.71192
342.40        89.85638
342.85        90.35033
343.30        91.12877
343.75        91.97591
344.20        92.49654
344.66         92.5957
345.11        92.37551
345.56        92.05941
346.01        91.98535
346.46        92.23923
346.91        92.71645
347.36        93.25539
347.81        93.61111
348.26         93.7274
348.72        93.70413
349.17        93.64862
349.62        93.78488
350.07        94.15026
350.52        94.64119
350.97         95.1208
351.42        95.39486
351.87        95.41725
352.32        95.26513
352.77        95.00178
353.22        94.72452
353.67        94.47952
354.13        94.25162
354.58        94.04749
355.03        93.93337
355.48        93.90588
355.93        93.95002
356.38        93.97829
356.83        93.84668
357.28        93.51845
357.73        93.02502
358.18        92.44958
358.63        91.92856
359.08        91.50644
359.53        91.16354
359.98        90.82871
360.43        90.38754
360.88        89.81761
361.33        89.14761
361.78        88.49803
362.23        88.05956
362.68        87.86144
363.13        87.84158
363.58        87.80711
364.03         87.4563
364.48        86.73456
364.93        85.74033
365.38        84.69043
365.83        83.94011
366.28         83.5687
366.73        83.44685
367.18         83.4026
367.63        83.15352
368.08        82.62655
368.53        81.95151
368.98        81.18532
369.43        80.39872
369.88        79.63848
370.33        78.86561
370.78          78.202
371.23        77.86124
371.68        77.86832
372.13        78.16871
372.58        78.52573
373.03        78.52735
373.48        78.07735
373.93        77.30168
374.38        76.43839
374.83        75.85898
375.28        75.65018
375.72        75.67537
376.17        75.80286
376.62        75.79296
377.07        75.56103
377.52         75.1769
377.97        74.69346
378.42        74.18951
378.87        73.71039
379.32        73.24854
379.77        72.78451
380.22        72.29053
380.67        71.75798
381.11        71.19305
381.56        70.67014
382.01        70.30991
382.46        70.13956
382.91        70.14408
383.36        70.15786
383.81        69.91924
384.26        69.38885
384.71        68.63803
385.15        67.90299
385.60        67.59993
386.05        67.74628
386.50        68.20087
386.95        68.65119
387.40         68.5743
387.85        67.89895
388.29        66.84172
388.74        65.79961
389.19        65.05949
389.64        64.67695
390.09        64.50699
390.54        64.52242
390.98        64.67934
391.43        64.91535
391.88        65.22395
392.33        65.43344
392.78        65.23936
393.23        64.64616
393.67        63.86803
394.12        63.19367
394.57        62.57776
395.02        62.20654
395.47        62.57067
395.91        63.51365
396.36        64.09803
396.81        64.17333
397.26        64.16011
397.71        64.07623
398.15        63.73513
398.60        63.25576
399.05        62.70484
399.50        62.16494
399.95        61.56683
400.39        61.21566
400.84        60.92463
401.29        60.76694
401.74        60.72452
402.18         60.7948
402.63        60.90929
403.08        61.08058
403.53         61.3235
403.97        61.61609
404.42        61.92667
404.87        62.12018
405.32        61.98519
405.76        61.49702
406.21        60.77896
406.66        60.06977
407.11        59.72776
407.55        59.83075
408.00        60.25418
408.45        60.80039
408.90        61.05489
409.34        60.88719
409.79        60.45482
410.24        59.94948
410.68        59.62891
411.13         59.5742
411.58         59.6774
412.03        59.90075
412.47        60.19859
412.92        60.48139
413.37        60.78577
413.81         61.0246
414.26        61.09977
414.71        60.98323
415.15        60.69088
415.60        60.32802
416.05         60.0923
416.49        60.04412
416.94        60.15786
417.39        60.31344
417.83        60.28447
418.28        60.04525
418.73        59.68333
419.17         59.3889
419.62        59.46726
420.07        59.93197
420.51        60.66102
420.96        61.43539
421.41        61.81399
421.85        61.66113
422.30        61.40845
422.74        61.11486
423.19        60.49149
423.64        59.80379
424.08        60.12671
424.53        61.26277
424.98        61.86161
425.42         61.7649
425.87        61.80791
426.31        62.06158
426.76        62.04503
427.21        61.92963
427.65        62.30922
428.10        63.07981
428.54        63.83503
428.99        64.51913
429.44        64.81128
429.88        64.79873
430.33        65.69617
430.77        66.85641
431.22        65.99648
431.66        63.63146
432.11        62.35467
432.56        62.50687
433.00        63.27915
433.45        64.52303
433.89        66.33496
434.34         67.4607
434.78        68.47053
435.23        65.47775
435.67        63.68208
436.12        65.77843
436.57        66.76426
437.01        67.32907
437.46        67.66495
437.90        67.95632
438.35        67.44155
438.79         68.2448
439.24        68.26476
439.68        68.15099
440.13        67.90547
440.57        67.83419
441.02        68.62772
441.46        69.97362
441.91        70.96909
442.35        71.25546
442.80        70.53836
443.24        69.24883
443.69        69.59826
444.13        71.29335
444.58        71.26817
445.02        69.76588
445.47        69.77131
445.91        71.14948
446.36        71.69267
446.80        71.28754
447.24         71.1541
447.69        71.39275
448.13        71.31145
448.58        71.50021
449.02         71.7389
449.47         72.1414
449.91        72.49023
450.36        72.75619
450.80        73.02048
451.25         73.2274
451.69        73.22552
452.13        73.03008
452.58        72.70015
453.02        72.36237
453.47         72.2579
453.91        72.41064
454.36        72.74498
454.80        73.13469
455.24        73.26863
455.69        73.09273
456.13        72.86295
456.58        72.67504
457.02        72.15389
457.46        71.57622
457.91        71.79825
458.35        72.61301
458.79        72.96439
459.24        72.79359
459.68        72.61794
460.13          72.488
460.57        72.26093
461.01        72.02967
461.46        71.62122
461.90        71.01147
462.34        71.45162
462.79        71.00708
463.23         71.0927
463.68        71.14193
464.12        71.56308
464.56        72.17551
465.01        72.37685
465.45        72.08962
465.89        71.95786
466.34        71.85093
466.78        70.87371
467.22        69.60666
467.67         68.6978
468.11        70.09682
468.55        70.85071
468.99        71.15952
469.44        70.95763
469.88        70.43166
470.32        70.43993
470.77        70.89201
471.21        70.86235
471.65         70.3129
472.10        69.92147
472.54        69.79219
472.98        69.74681
473.42        69.80434
473.87        70.16608
474.31        70.59088
474.75        70.48444
475.20        70.03566
475.64        69.54394
476.08        70.19868
476.52        70.21854
476.97        69.89262
477.41        70.06154
477.85         70.7382
478.29        69.96891
478.74        70.16575
479.18        70.21283
479.62        69.11139
480.06        69.73351
480.50        70.06633
480.95        70.61036
481.39        70.85491
481.83        70.12943
482.27        70.07684
482.72        69.99157
483.16        68.72329
483.60        68.49034
484.04        70.30653
484.48        70.66386
484.93        70.47755
485.37        72.13568
485.81        72.99616
486.25         71.9034
486.69        97.36017
487.14        79.14802
487.58        48.97285
488.02        60.46106
488.46        68.61794
488.90        67.58738
489.34        69.18975
489.79        68.28191
490.23         70.3282
490.67         71.2379
491.11        70.29971
491.55        70.19805
491.99         70.5312
492.43        70.31741
492.88        69.67429
493.32        69.74068
493.76         69.9855
494.20        70.29314
494.64        70.39861
495.08         70.5266
495.52        70.72887
495.96        70.65556
496.41        70.32224
496.85        70.82018
497.29         71.7978
497.73        70.53069
498.17        68.09846
498.61        68.22341
499.05        70.91413
499.49        71.50704
499.93        71.47129
500.37        71.28335
500.82        70.83625
501.26        70.78735
501.70         70.9523
502.14        71.35683
502.58        71.44373
503.02        71.41537
503.46        71.14205
503.90        70.65435
504.34         70.1482
504.78        69.92892
505.22        70.05064
505.66        70.46595
506.10        71.01253
506.54         71.1817
506.98        70.83641
507.42        70.76469
507.86         70.4208
508.30         69.6791
508.74        70.18036
509.18         70.4008
509.62        70.72271
510.06        70.87334
510.50        70.81084
510.94        70.59478
511.38        70.32762
511.82        70.20863
512.26        70.28365
512.70        70.48851
513.14        70.74384
513.58         70.9259
514.02        70.98874
514.46         70.9649
514.90        70.90597
515.34        70.87529
515.78        70.88217
516.22        70.96533
516.66          71.077
517.10        70.97803
517.54        70.65523
517.98        70.74416
518.42        70.47126
518.86        70.54411
519.30        70.72192
519.74        71.03384
520.18        71.37499
520.62        71.56872
521.06        71.58036
521.50        71.45788
521.93        71.26855
522.37        71.12217
522.81        71.06388
523.25        71.06484
523.69        71.11278
524.13         71.1898
524.57        71.28345
525.01        71.39784
525.45        71.52204
525.89        71.63461
526.32        71.71477
526.76        71.75636
527.20         71.7423
527.64        71.67058
528.08        71.56374
528.52        71.37296
528.96        71.09736
529.40        70.93536
529.83        70.93951
530.27        70.33835
530.71        70.54235
531.15        70.46208
531.59        70.51534
532.03        70.64911
532.46          70.864
532.90        71.12477
533.34        71.38884
533.78        71.65018
534.22        71.85122
534.66        71.91987
535.09        71.83651
535.53        71.65074
535.97          71.409
536.41        71.20438
536.85        71.06577
537.28        71.00547
537.72        71.01385
538.16        70.99441
538.60        70.91792
539.04        71.09187
539.47        70.90437
539.91         71.0358
540.35         71.2246
540.79        71.18347
541.22         70.9374
541.66        70.82834
542.10        70.87199
542.54         70.8698
542.97        70.83247
543.41        70.88588
543.85        71.02245
544.29        71.23437
544.72        71.41391
545.16        71.42374
545.60        71.23423
546.04        70.87631
546.47        70.53675
546.91        70.53345
547.35        70.89715
547.79        71.54802
548.22        72.18791
548.66        72.31284
549.10        71.86483
549.53        71.11037
549.97        70.36813
550.41        69.96882
550.84         70.0184
551.28        70.45245
551.72        71.08029
552.15        71.48831
552.59        71.55696
553.03        71.61523
553.46         71.3739
553.90        71.31487
554.34        71.36839
554.77        71.41617
555.21        71.41476
555.65        71.43059
556.08        71.65813
556.52        71.08321
556.96        71.41527
557.39         71.2351
557.83          71.092
558.27        71.03573
558.70        71.11471
559.14        71.29584
559.57        71.53568
560.01        71.87577
560.45        72.19279
560.88        72.27121
561.32        72.10435
561.75        71.74306
562.19        71.34573
562.63        70.95446
563.06        70.69491
563.50        70.85276
563.93        71.28989
564.37        71.57872
564.80        71.59997
565.24        71.49303
565.68        71.31253
566.11        71.16357
566.55        71.11796
566.98         71.0704
567.42        71.11427
567.85        71.12906
568.29        71.92133
568.72        71.99471
569.16        71.80652
569.60        72.20441
570.03        72.84115
570.47        72.82185
570.90        72.46086
571.34        70.89359
571.77        71.61276
572.21        71.99225
572.64        71.42474
573.08         70.2427
573.51        67.16535
573.95         69.8772
574.38        74.59588
574.82        72.55773
