SpectraSmart Spectrum 2.9.0.0
--------- Device Information -----------
Spectrum Name :  反射率_0
Saving Time :  2024/04/26 01:08:33
Spectro-Module Model Name : SE2030-DUVN
Spectro-Module Serial Number : OS361AC55029948
Wavelength Start : 200
Wavelength End : 1025
Wavelength Unit : Wavelength(nm)
Spectrum Unit : Reflectance(%)
-----------Spectrum Setting ------------
Integration Time : 20ms
Average : 10
Boxcar : 0
Background removal :  enabled
linearity correction :  enabled
SC :  disabled
Intensity correction :  disabled
DWT denoise :  enabled
savitzky-golay :  disabled
FFT :  disabled
Running average :  disabled
Kalman :  disabled
High pass :  disabled
---------------BEGIN--------------------
Wavelength(nm)             Reflectance(%)
200.29               0
200.75        96.39236
201.21        91.43603
201.67        84.89147
202.13        79.93806
202.58        77.14625
203.04        75.98582
203.50        75.72545
203.96        75.39786
204.42        74.78222
204.88        74.21217
205.34        74.20316
205.80        75.43861
206.26        78.59804
206.72        85.54317
207.18        99.01841
207.64        111.3217
208.10        104.4917
208.55        88.50197
209.01        78.37486
209.47        75.52972
209.93        77.11911
210.39        81.93879
210.85        87.28809
211.31        87.40996
211.77        80.76198
212.23        69.47489
212.69        58.88746
213.14        57.20258
213.60        65.51283
214.06         81.3381
214.52        98.18576
214.98        106.0873
215.44        102.9805
215.90        92.51072
216.36        79.88064
216.81        72.41134
217.27        71.79345
217.73        75.14294
218.19        79.05928
218.65        79.24735
219.11        74.26886
219.57        64.05577
220.02        49.90007
220.48        40.13375
220.94         40.0431
221.40        47.66643
221.86        55.87398
222.32        57.00962
222.77        51.57015
223.23        43.69244
223.69        37.17241
224.15        35.84821
224.61        39.24905
225.06        45.33354
225.52         51.2901
225.98        53.73618
226.44         52.0411
226.90        47.69012
227.36        42.57669
227.81        39.18114
228.27          38.382
228.73        39.21979
229.19        40.78016
229.65        41.74438
230.10        41.80778
230.56        41.47288
231.02        41.25265
231.48        41.68757
231.93        42.75709
232.39        44.17952
232.85        45.49908
233.31        46.09377
233.77        45.81833
234.22        44.85899
234.68        43.60971
235.14          42.795
235.60        42.71739
236.05         43.2154
236.51        43.99364
236.97        44.58989
237.43        44.93761
237.88        45.28984
238.34        45.88972
238.80        47.32305
239.26        49.74582
239.71        52.96445
240.17        56.33635
240.63        59.35862
241.08         61.8679
241.54        63.77368
242.00        65.44398
242.46        67.75272
242.91        71.94485
243.37        80.53593
243.83        104.3482
244.28        173.7584
244.74        238.9164
245.20        186.3593
245.66        146.1752
246.11        135.1788
246.57        140.2394
247.03        166.5954
247.48        249.4147
247.94        215.8312
248.40        128.9799
248.85        101.5125
249.31        93.18688
249.77         91.9155
250.22         94.4397
250.68        100.4805
251.14        109.6415
251.59        115.5797
252.05        112.1094
252.51        102.1535
252.96        91.65707
253.42        86.47298
253.88        86.03712
254.33        88.24385
254.79        91.90254
255.25        94.82074
255.70        96.24971
256.16        97.18591
256.62        97.37368
257.07        96.43314
257.53        94.86389
257.99        92.30352
258.44        89.16557
258.90         87.0811
259.35        85.28474
259.81        83.66949
260.27        81.25771
260.72         77.0312
261.18        71.74424
261.63        65.80147
262.09        60.39738
262.55         56.2225
263.00        53.28732
263.46        51.37827
263.91         49.9043
264.37        48.52719
264.83        46.99368
265.28        45.27868
265.74        43.65227
266.19        42.26785
266.65        41.31063
267.11         40.6274
267.56        39.95619
268.02        38.96313
268.47        37.54121
268.93        35.81665
269.38        33.98574
269.84        32.62622
270.30        31.90098
270.75        31.66768
271.21        31.65772
271.66        31.45657
272.12        30.93336
272.57        30.20927
273.03        29.45679
273.48        28.85267
273.94         28.4719
274.39        28.20062
274.85        27.94919
275.31        27.58722
275.76        27.07411
276.22         26.4847
276.67        25.87586
277.13        25.41469
277.58        25.08367
278.04        24.86589
278.49        24.63258
278.95        24.25755
279.40            23.7
279.86        23.06622
280.31         22.4281
280.77        22.00166
281.22        21.78155
281.68        21.71398
282.13        21.70985
282.59        21.67484
283.04        21.57446
283.50        21.47646
283.95        21.35095
284.41        21.16891
284.86        20.93648
285.32        20.67158
285.77        20.48648
286.22        20.61121
286.68        21.03955
287.13        21.66249
287.59        22.25551
288.04        22.47769
288.50        22.29165
288.95        21.79803
289.41        21.21477
289.86        20.76752
290.32        20.58124
290.77        20.57712
291.22        20.73265
291.68        20.97249
292.13        21.28039
292.59         21.6987
293.04         22.2494
293.50        22.95405
293.95         23.7986
294.40        24.74072
294.86         25.7337
295.31        26.72729
295.77        27.71429
296.22        28.70754
296.68        29.72561
297.13         30.7648
297.58        31.84176
298.04        32.97261
298.49        34.17503
298.95        35.52852
299.40        37.03586
299.85        38.66891
300.31        40.38201
300.76        42.09627
301.21        43.75234
301.67        45.39085
302.12        46.93634
302.58        48.38004
303.03        49.71576
303.48        50.98345
303.94        52.34962
304.39        54.00762
304.84        55.99447
305.30        58.23819
305.75        60.49159
306.20        62.39744
306.66        63.89769
307.11        65.05133
307.57        66.11057
308.02        67.33997
308.47        68.86108
308.93        70.59297
309.38        72.37532
309.83        74.00847
310.29        75.42216
310.74        76.64622
311.19         77.7908
311.65        79.02283
312.10        80.36693
312.55        81.77898
313.00        83.09451
313.46        84.05549
313.91        84.59534
314.36        84.81763
314.82        84.97699
315.27        85.41261
315.72        86.23975
316.18        87.35687
316.63        88.57345
317.08        89.52637
317.53        90.10527
317.99        90.40305
318.44        90.61459
318.89        91.06333
319.35        91.80357
319.80        92.75499
320.25        93.67119
320.70        94.15247
321.16         94.1142
321.61        93.70063
322.06        93.18272
322.51        92.98386
322.97        93.19067
323.42        93.71394
323.87        94.35797
324.32        94.78491
324.78        94.88316
325.23        94.80405
325.68         94.6505
326.13        94.61703
326.59        94.74386
327.04        94.98685
327.49        95.31533
327.94        95.71812
328.39        96.17152
328.85        96.67158
329.30         97.1909
329.75        97.50376
330.20        97.59171
330.66        97.50298
331.11        97.47877
331.56        97.83449
332.01        98.65714
332.46        99.83315
332.92        101.1554
333.37        102.4364
333.82        103.4634
334.27        104.2909
334.72        104.8474
335.17        105.0428
335.63        104.9122
336.08        104.5421
336.53        104.1632
336.98        104.1984
337.43        104.7491
337.88        105.6998
338.34        106.8619
338.79        107.9983
339.24        108.9568
339.69        109.8283
340.14        110.5109
340.59        110.8399
341.05        110.8295
341.50        110.5009
341.95        110.1678
342.40         110.334
342.85        111.0898
343.30        112.3046
343.75        113.6222
344.20         114.399
344.66        114.4708
345.11        114.0196
345.56        113.3627
346.01        112.9851
346.46        113.0238
346.91        113.3261
347.36        113.7414
347.81         114.041
348.26        114.1634
348.72        114.2243
349.17        114.2612
349.62        114.3688
350.07        114.5631
350.52        114.7674
350.97        114.9692
351.42        115.1722
351.87         115.356
352.32         115.527
352.77        115.5891
353.22        115.3886
353.67        114.9189
354.13        114.2514
354.58        113.5371
355.03        113.0778
355.48        112.9318
355.93        113.0081
356.38        113.1267
356.83        112.9949
357.28        112.5357
357.73        111.8442
358.18        111.0409
358.63        110.3153
359.08        109.7327
359.53        109.2394
359.98        108.7833
360.43        108.2888
360.88        107.7243
361.33        107.1056
361.78        106.4768
362.23        105.9017
362.68        105.3957
363.13        104.9511
363.58        104.4678
364.03        103.7913
364.48        102.9033
364.93        101.8487
365.38        100.8093
365.83        100.0802
366.28        99.70863
366.73        99.58892
367.18        99.49824
367.63        99.07095
368.08        98.23616
368.53        97.15204
368.98         95.9903
369.43        95.00232
369.88        94.26723
370.33        93.69102
370.78        93.28276
371.23        93.06365
371.68        92.99875
372.13        93.08487
372.58         93.1581
373.03        92.93434
373.48        92.36505
373.93        91.54056
374.38         90.6613
374.83        90.04244
375.28        89.75478
375.72        89.68382
376.17        89.72626
376.62         89.6865
377.07        89.48198
377.52        89.15335
377.97        88.70731
378.42        88.15565
378.87        87.53293
379.32        86.86629
379.77        86.17098
380.22        85.46314
380.67        84.75457
381.11          84.047
381.56        83.42774
382.01        83.03893
382.46        82.90558
382.91        82.99731
383.36        83.12563
383.81        82.99033
384.26        82.53072
384.71        81.81921
385.15        81.06776
385.60        80.67703
386.05        80.66094
386.50        80.88448
386.95        81.08701
387.40        80.83906
387.85        80.10171
388.29        79.06656
388.74        78.08929
389.19        77.35598
389.64         76.9069
390.09        76.61441
390.54        76.51846
390.98        76.68864
391.43        77.07268
391.88        77.60974
392.33        78.01722
392.78        77.82099
393.23         77.0121
393.67        75.91115
394.12        74.92256
394.57        74.04302
395.02        73.52959
395.47        74.00584
395.91        75.25044
396.36        76.03702
396.81        76.15001
397.26        76.12206
397.71        76.02567
398.15          75.659
398.60         75.1602
399.05        74.71725
399.50        74.30545
399.95        73.42238
400.39        72.56963
400.84        72.11163
401.29        72.14761
401.74        72.33881
402.18        72.53712
402.63        72.43008
403.08        72.17369
403.53        72.35415
403.97        72.98019
404.42        73.66096
404.87        74.10713
405.32        73.98936
405.76        73.23518
406.21        72.11926
406.66        71.00382
407.11        70.23906
407.55        70.04819
408.00        70.66668
408.45        71.79113
408.90        72.43812
409.34        72.32118
409.79        71.73773
410.24        70.99152
410.68        70.54382
411.13        70.51483
411.58        70.65908
412.03        70.91098
412.47        71.24675
412.92        71.55656
413.37        71.88392
413.81        72.12404
414.26        72.15388
414.71        71.94127
415.15        71.50237
415.60        70.98649
416.05        70.66428
416.49        70.61053
416.94        70.78035
417.39        70.98759
417.83        70.89095
418.28         70.4464
418.73        69.78832
419.17        69.19138
419.62        69.08937
420.07        69.51118
420.51        70.28813
420.96        71.14317
421.41        71.51834
421.85        71.24734
422.30        70.88121
422.74        70.47436
423.19        69.61121
423.64        68.61846
424.08        68.85233
424.53        70.11676
424.98        70.76873
425.42        70.61932
425.87        70.78065
426.31        71.24183
426.76        71.05346
427.21        70.47677
427.65        70.72612
428.10        71.68896
428.54        72.46177
428.99        72.98129
429.44         73.1573
429.88         73.0835
430.33        74.02058
430.77        75.22891
431.22        74.10812
431.66        71.26614
432.11         69.7542
432.56        69.92003
433.00        70.66576
433.45        71.84296
433.89        73.73806
434.34        74.84441
434.78        76.08614
435.23        71.98511
435.67        69.76129
436.12        72.20065
436.57        73.48788
437.01        74.32951
437.46        74.76742
437.90        74.97217
438.35        74.36423
438.79         74.9844
439.24        74.80772
439.68        74.47933
440.13        73.89856
440.57        73.52345
441.02        74.47604
441.46        76.32259
441.91        77.66167
442.35        77.98775
442.80         76.9372
443.24        75.12404
443.69        75.46151
444.13        77.60149
444.58        77.65321
445.02        75.83905
445.47        75.70125
445.91        77.08665
446.36        77.51808
446.80        76.88485
447.24        76.52634
447.69        76.37454
448.13        76.42257
448.58        76.64827
449.02        77.03638
449.47        77.46967
449.91        77.78654
450.36        77.93698
450.80        77.94643
451.25        77.85393
451.69        77.68936
452.13         77.5011
452.58        77.28567
453.02        77.09731
453.47        77.07045
453.91        77.19767
454.36        77.44456
454.80        77.71531
455.24        77.73756
455.69        77.47945
456.13        77.19391
456.58        76.98831
457.02        76.44079
457.46         75.9099
457.91         76.2002
458.35        77.09028
458.79         77.4519
459.24        77.22633
459.68        76.93251
460.13        76.62719
460.57        76.31867
461.01        75.98191
461.46        75.31718
461.90        74.69037
462.34        75.11723
462.79        74.71948
463.23        74.98663
463.68        75.25693
464.12         75.6681
464.56        76.06824
465.01        76.18606
465.45        75.93247
465.89        75.76182
466.34        75.56641
466.78        74.49939
467.22        73.12738
467.67        72.44868
468.11        73.71924
468.55        74.50985
468.99        74.77588
469.44        74.59703
469.88        73.87572
470.32        73.75463
470.77        74.11342
471.21        74.06938
471.65        73.60546
472.10        73.41317
472.54         73.5033
472.98        73.57592
473.42        73.61399
473.87        73.73103
474.31        73.84849
474.75        73.85753
475.20        73.73623
475.64         73.5332
476.08        73.38775
476.52        73.16177
476.97        72.81627
477.41        73.36049
477.85        73.67239
478.29        72.88722
478.74        73.59985
479.18        73.44034
479.62        72.56549
480.06         73.1469
480.50         73.4429
480.95        73.80853
481.39        73.73378
481.83        72.92903
482.27        73.12846
482.72        72.47875
483.16        71.36231
483.60        71.52177
484.04        73.15399
484.48         73.5699
484.93        73.27732
485.37        75.31495
485.81        75.16714
486.25        74.49123
486.69        102.2356
487.14        82.57724
487.58        50.87137
488.02        62.23249
488.46        70.54335
488.90        70.17149
489.34        72.07262
489.79        70.90881
490.23        73.18811
490.67        73.90088
491.11        72.78651
491.55        72.75292
491.99        73.34711
492.43        73.18511
492.88         72.3542
493.32        72.30174
493.76        72.50743
494.20        72.75769
494.64        72.78858
495.08        72.90134
495.52         73.1344
495.96        73.03101
496.41        72.63457
496.85        73.20404
497.29        74.36069
497.73        73.17969
498.17        70.74001
498.61        70.87314
499.05        73.60027
499.49        74.17688
499.93        74.16474
500.37        73.97273
500.82        73.47424
501.26        73.50094
501.70        73.80148
502.14        73.90006
502.58        73.67947
503.02        73.47117
503.46        73.28777
503.90        72.94063
504.34        72.56006
504.78        72.42861
505.22        72.57254
505.66        72.94374
506.10         73.4209
506.54        73.58858
506.98        73.33133
507.42        73.31132
507.86        73.12974
508.30        72.38935
508.74         72.8661
509.18         72.9769
509.62        73.17878
510.06        73.26788
510.50        73.21984
510.94        73.07439
511.38        72.88508
511.82        72.77699
512.26         72.7786
512.70         72.8485
513.14        72.95688
513.58        73.06136
514.02        73.13554
514.46          73.185
514.90        73.21062
515.34         73.1975
515.78        73.13884
516.22        73.09861
516.66        73.07127
517.10        72.89746
517.54        72.58329
517.98        72.69739
518.42        72.50169
518.86        72.63318
519.30        72.85431
519.74        73.20054
520.18         73.5556
520.62        73.72353
521.06        73.67187
521.50        73.45609
521.93         73.1759
522.37        72.99713
522.81        72.97532
523.25        73.05974
523.69        73.20968
524.13        73.36186
524.57        73.48898
525.01        73.61089
525.45        73.71326
525.89        73.76981
526.32         73.7683
526.76        73.70725
527.20        73.60617
527.64        73.52013
528.08        73.48351
528.52        73.43217
528.96        73.32179
529.40        73.28706
529.83        73.36122
530.27         72.7571
530.71        72.96797
531.15        72.92403
531.59        73.06716
532.03        73.32351
532.46        73.64388
532.90         73.9122
533.34        74.07308
533.78        74.15381
534.22        74.16395
534.66        74.12975
535.09        74.05137
535.53        73.94728
535.97        73.80853
536.41        73.64489
536.85        73.47273
537.28        73.30921
537.72        73.17416
538.16          73.108
538.60        73.11764
539.04        73.12828
539.47        73.12688
539.91        73.29156
540.35        73.52816
540.79        73.52952
541.22        73.31627
541.66        73.21927
542.10        73.24858
542.54        73.21189
542.97        73.12776
543.41        73.14478
543.85        73.25718
544.29         73.4407
544.72        73.59724
545.16        73.60543
545.60        73.43848
546.04        73.13235
546.47        72.82113
546.91        72.76998
547.35        73.01214
547.79        73.39859
548.22        73.74365
548.66        73.94221
549.10        73.85263
549.53        73.18989
549.97        72.27621
550.41        71.86686
550.84        72.06287
551.28        72.53705
551.72        73.08985
552.15        73.41566
552.59        73.40211
553.03         73.4062
553.46        73.08594
553.90        72.95379
554.34        72.91167
554.77         72.9854
555.21        73.17812
555.65        72.92105
556.08         73.5477
556.52        73.05153
556.96        73.49922
557.39        73.41337
557.83        73.33871
558.27        73.23775
558.70        73.17264
559.14        73.25664
559.57        73.46646
560.01        73.73899
560.45        73.97678
560.88        74.12151
561.32         74.1146
561.75        73.77797
562.19        73.27543
562.63        72.81494
563.06        72.52867
563.50        72.64706
563.93        73.04922
564.37        73.28611
564.80        73.27933
565.24        73.34709
565.68        73.44473
566.11        73.37136
566.55         73.2177
566.98        73.03478
567.42        72.91982
567.85        73.17162
568.29        73.71391
568.72        73.75511
569.16        73.52863
569.60        73.91648
570.03         74.5485
570.47        74.61349
570.90        74.45017
571.34        72.55597
571.77        73.63124
572.21         73.9041
572.64         73.3787
573.08        72.18222
573.51        68.97664
573.95        71.73679
574.38        76.53571
574.82        74.55836
