SpectraSmart Spectrum 2.9.0.0
--------- Device Information -----------
Spectrum Name :  反射率_0
Saving Time :  2024/04/26 01:48:57
Spectro-Module Model Name : SE2030-DUVN
Spectro-Module Serial Number : OS361AC55029948
Wavelength Start : 200
Wavelength End : 1025
Wavelength Unit : Wavelength(nm)
Spectrum Unit : Reflectance(%)
-----------Spectrum Setting ------------
Integration Time : 20ms
Average : 10
Boxcar : 0
Background removal :  enabled
linearity correction :  enabled
SC :  disabled
Intensity correction :  disabled
DWT denoise :  enabled
savitzky-golay :  disabled
FFT :  disabled
Running average :  disabled
Kalman :  disabled
High pass :  disabled
---------------BEGIN--------------------
Wavelength(nm)             Reflectance(%)
200.29               0
200.75        97.06737
201.21        90.19334
201.67        82.10223
202.13        77.33804
202.58        76.50957
203.04        78.79361
203.50        82.43006
203.96        84.34192
204.42        83.81763
204.88         82.0263
205.34        80.57165
205.80        81.27381
206.26        85.11628
206.72        94.20509
207.18        111.9915
207.64        127.3437
208.10        116.5019
208.55        94.61675
209.01         80.6938
209.47         75.5506
209.93        75.25322
210.39        77.94582
210.85        80.94662
211.31         79.0473
211.77        71.15914
212.23        59.59388
212.69        48.93119
213.14        46.11469
213.60        52.19289
214.06        65.15061
214.52        80.42057
214.98        90.91304
215.44        94.42406
215.90        92.86491
216.36        88.70042
216.81         85.2892
217.27          84.008
217.73        83.92549
218.19        83.44395
218.65        80.37851
219.11        73.73952
219.57         62.5237
220.02        48.76446
220.48         42.3493
220.94        48.20543
221.40         63.2019
221.86        76.14444
222.32        75.74753
222.77        64.06442
223.23        47.93983
223.69        34.38214
224.15        30.46466
224.61         35.3871
225.06        45.44806
225.52        56.04536
225.98        61.21439
226.44         59.7954
226.90        54.30095
227.36        47.60603
227.81        43.56799
228.27        43.36482
228.73        45.33833
229.19        48.23676
229.65        50.31545
230.10        51.04208
230.56        51.19416
231.02        51.07638
231.48        50.91935
231.93        50.81176
232.39        50.64043
232.85        50.47464
233.31        50.54577
233.77        50.88797
234.22        51.48409
234.68        52.22435
235.14        52.77191
235.60        53.03047
236.05        53.12513
236.51        53.20363
236.97        53.49702
237.43        54.13759
237.88         55.1686
238.34        56.68032
238.80        58.89674
239.26        61.67048
239.71        65.00928
240.17        68.02118
240.63         69.8393
241.08        70.39969
241.54        69.79078
242.00        69.07968
242.46        69.97216
242.91        73.93398
243.37        83.97692
243.83        113.1854
244.28         195.537
244.74        265.4712
245.20        198.5568
245.66        150.6609
246.11         137.169
246.57          141.63
247.03        168.2564
247.48         253.513
247.94        221.1546
248.40        132.1905
248.85        104.0042
249.31         95.3834
249.77        93.84405
250.22        95.98631
250.68        101.2443
251.14        109.3982
251.59        115.1826
252.05        113.2285
252.51        106.1935
252.96         98.0359
253.42        92.98098
253.88        90.78595
254.33        89.86713
254.79        91.27087
255.25         95.7261
255.70        101.8729
256.16        108.7792
256.62        113.6753
257.07        113.8005
257.53        110.3149
257.99        104.3662
258.44        98.12061
258.90         95.1852
259.35        94.55044
259.81        94.97977
260.27        94.52024
260.72        91.30034
261.18        86.21567
261.63        80.06042
262.09         74.3379
262.55        69.95558
263.00        66.91189
263.46        64.89307
263.91        63.27067
264.37        61.79809
264.83         60.1627
265.28        58.34508
265.74        56.48982
266.19        54.51004
266.65        52.71783
267.11        51.13661
267.56        49.71874
268.02        48.39689
268.47        47.03448
268.93         45.6425
269.38        44.31736
269.84        43.44521
270.30        43.07777
270.75        43.09946
271.21        43.16448
271.66           42.75
272.12        41.75031
272.57        40.32787
273.03        38.84311
273.48        37.75119
273.94        37.20132
274.39        37.00201
274.85        36.94773
275.31        36.70401
275.76         36.1735
276.22        35.50158
276.67        34.78802
277.13        34.28712
277.58        33.97893
278.04         33.8033
278.49        33.59082
278.95        33.19856
279.40        32.56615
279.86         31.8329
280.31        31.05211
280.77        30.43036
281.22        29.96938
281.68        29.64212
282.13        29.40698
282.59        29.25711
283.04         29.1551
283.50        29.14541
283.95        29.12992
284.41        28.98792
284.86        28.69793
285.32        28.31249
285.77        27.97847
286.22        27.99207
286.68        28.36295
287.13        28.94791
287.59        29.51022
288.04        29.67866
288.50        29.41542
288.95         28.8335
289.41        28.15076
289.86        27.57438
290.32        27.24127
290.77        27.07462
291.22        27.09308
291.68        27.28014
292.13        27.62624
292.59        28.16129
293.04        28.85359
293.50        29.64415
293.95        30.49367
294.40        31.37185
294.86        32.28921
295.31        33.28324
295.77        34.36233
296.22        35.51305
296.68        36.66566
297.13        37.67734
297.58        38.54067
298.04        39.31924
298.49        40.15534
298.95        41.32111
299.40        42.85536
299.85        44.67268
300.31        46.59109
300.76        48.31374
301.21        49.73465
301.67         50.9694
302.12        52.07182
302.58        53.23087
303.03        54.46953
303.48        55.75811
303.94        57.14466
304.39        58.64385
304.84          60.257
305.30        61.97337
305.75        63.64986
306.20         65.0932
306.66        66.28445
307.11        67.22752
307.57        68.08749
308.02        68.99185
308.47        70.03903
308.93        71.20634
309.38        72.40816
309.83        73.56145
310.29        74.62856
310.74        75.59523
311.19        76.53194
311.65        77.54528
312.10        78.63239
312.55        79.76484
313.00        80.77179
313.46        81.38735
313.91        81.55591
314.36        81.38908
314.82         81.1671
315.27        81.26785
315.72        81.81413
316.18        82.69867
316.63        83.72163
317.08        84.50392
317.53        84.92895
317.99        85.09141
318.44        85.18358
318.89        85.52328
319.35         86.1613
319.80        87.01196
320.25        87.82615
320.70        88.20351
321.16         88.0631
321.61        87.55396
322.06        86.95301
322.51        86.69115
322.97        86.85546
323.42        87.34673
323.87        87.97305
324.32        88.40112
324.78        88.51912
325.23        88.48074
325.68         88.3604
326.13        88.30427
326.59        88.34891
327.04        88.45716
327.49        88.66393
327.94        89.06792
328.39        89.66427
328.85        90.41409
329.30        91.19167
329.75        91.61154
330.20        91.60865
330.66         91.2811
331.11        90.94469
331.56         91.0387
332.01        91.69236
332.46        92.76051
332.92        94.02126
333.37        95.24329
333.82        96.20034
334.27        96.96178
334.72        97.45547
335.17        97.58156
335.63        97.37324
336.08        96.91518
336.53        96.42635
336.98        96.31248
337.43         96.6782
337.88        97.41494
338.34        98.37687
338.79        99.39371
339.24        100.3211
339.69        101.2145
340.14        101.9217
340.59        102.1911
341.05        102.0109
341.50        101.4476
341.95        100.8191
342.40         100.623
342.85         100.967
343.30        101.7292
343.75        102.6506
344.20        103.2574
344.66        103.4165
345.11        103.2522
345.56        102.9508
346.01        102.7949
346.46        102.8649
346.91        103.0576
347.36        103.2848
347.81        103.4243
348.26        103.4458
348.72        103.4254
349.17        103.3822
349.62         103.388
350.07        103.4586
350.52        103.5525
350.97        103.6549
351.42        103.7529
351.87        103.8313
352.32        103.8952
352.77         103.897
353.22        103.7624
353.67        103.4841
354.13        103.0939
354.58        102.6489
355.03        102.3022
355.48        102.0782
355.93        101.9312
356.38        101.7602
356.83        101.4036
357.28        100.8247
357.73        100.0815
358.18        99.26318
358.63        98.50537
359.08        97.85886
359.53        97.30132
359.98        96.78339
360.43        96.22655
360.88        95.60358
361.33        94.92143
361.78        94.25367
362.23        93.71626
362.68        93.32629
363.13         93.0563
363.58         92.7464
364.03        92.14703
364.48        91.22501
364.93        90.06103
365.38        88.89853
365.83        88.13197
366.28        87.83893
366.73         87.8832
367.18        88.00994
367.63        87.80094
368.08        87.15285
368.53        86.22285
368.98        85.17841
369.43        84.26596
369.88        83.56704
370.33        82.99624
370.78        82.54508
371.23        82.21046
371.68        81.96744
372.13        81.82712
372.58         81.7142
373.03        81.48653
373.48        81.11744
373.93        80.64945
374.38        80.15331
374.83         79.7441
375.28        79.45017
375.72        79.21728
376.17        79.04627
376.62        78.91416
377.07        78.78807
377.52        78.65052
377.97         78.4471
378.42        78.09213
378.87        77.58523
379.32        76.98611
379.77        76.32352
380.22        75.63239
380.67        74.93025
381.11        74.19961
381.56        73.53876
382.01        73.11256
382.46        72.95354
382.91         73.0439
383.36        73.16449
383.81        72.95918
384.26        72.37128
384.71        71.50016
385.15        70.64164
385.60        70.30765
386.05        70.52977
386.50        71.12782
386.95        71.74046
387.40        71.75991
387.85        71.08945
388.29        69.98029
388.74        68.85455
389.19        68.01666
389.64        67.53331
390.09        67.24968
390.54        67.17079
390.98        67.31011
391.43        67.61156
391.88        68.05017
392.33        68.39439
392.78        68.24506
393.23        67.59418
393.67        66.70029
394.12        65.90997
394.57        65.22443
395.02        64.86041
395.47        65.34444
395.91        66.47423
396.36        67.17594
396.81         67.2569
397.26        67.18173
397.71        67.03209
398.15        66.63995
398.60        66.13114
399.05        65.73352
399.50        65.41495
399.95        64.55569
400.39        63.65152
400.84        63.41573
401.29        63.86971
401.74        64.08817
402.18        63.99047
402.63         64.0144
403.08        64.21484
403.53        64.45039
403.97        64.70276
404.42        64.96149
404.87        65.09287
405.32        64.88329
405.76        64.31406
406.21        63.56545
406.66         62.8436
407.11        62.37549
407.55        62.29993
408.00        62.66544
408.45        63.29465
408.90        63.80186
409.34         63.9209
409.79        63.38607
410.24        62.50739
410.68        62.11797
411.13        62.32415
411.58         62.6836
412.03        63.07893
412.47        63.48066
412.92        63.76155
413.37        63.96257
413.81        64.02827
414.26         63.9112
414.71        63.60984
415.15         63.1362
415.60        62.62954
416.05        62.33749
416.49        62.32526
416.94        62.55222
417.39        62.84552
417.83        62.88473
418.28        62.61179
418.73        62.13236
419.17        61.66696
419.62          61.572
420.07        61.87645
420.51        62.44646
420.96        63.05729
421.41        63.27076
421.85        62.96543
422.30         62.5736
422.74        62.16779
423.19        61.51923
423.64        60.86499
424.08        61.15803
424.53        62.22925
424.98        62.87199
425.42        62.93539
425.87        63.20566
426.31        63.67304
426.76        63.68841
427.21        63.41982
427.65        63.64923
428.10        64.32896
428.54        64.91402
428.99        65.36687
429.44        65.65827
429.88        65.73075
430.33        66.19208
430.77        66.59737
431.22        65.44102
431.66        63.25671
432.11        62.28335
432.56        62.68953
433.00        63.47525
433.45        64.53783
433.89        66.11057
434.34        66.88623
434.78        68.51717
435.23         65.0667
435.67        62.81749
436.12        65.53254
436.57        66.55241
437.01        67.03044
437.46        67.23205
437.90        67.35332
438.35        66.84837
438.79        67.22314
439.24        67.12651
439.68        67.05965
440.13        66.79131
440.57        66.61314
441.02         67.7397
441.46        69.63759
441.91        70.11913
442.35        69.22177
442.80        68.39598
443.24         67.9301
443.69         68.5652
444.13        69.91882
444.58        69.78291
445.02        68.38744
445.47        68.23983
445.91        69.24872
446.36        69.56232
446.80        69.12093
447.24        68.93542
447.69        69.09628
448.13         69.3123
448.58        69.59267
449.02        69.96274
449.47        70.35344
449.91        70.65967
450.36        70.84749
450.80        70.92879
451.25        70.89732
451.69        70.71758
452.13        70.43025
452.58        70.06214
453.02         69.7299
453.47        69.65113
453.91         69.8397
454.36        70.23714
454.80         70.6917
455.24        70.84472
455.69        70.63474
456.13        70.33032
456.58        70.08141
457.02        69.58614
457.46         69.1337
457.91        69.58316
458.35        70.63701
458.79        71.05764
459.24        70.76561
459.68        70.36984
460.13        69.99805
460.57        69.61243
461.01        69.33268
461.46        68.94604
461.90        68.43061
462.34        68.97182
462.79        68.66558
463.23        68.98253
463.68        69.27652
464.12        69.52867
464.56        69.67484
465.01        69.74316
465.45        69.60925
465.89        69.48988
466.34        69.33015
466.78         68.3422
467.22        67.03693
467.67         67.0794
468.11        68.41752
468.55        69.17765
468.99         69.0757
469.44        68.72416
469.88        68.34148
470.32        68.42055
470.77        68.86744
471.21        68.89109
471.65        68.44337
472.10        68.14632
472.54        68.09949
472.98        68.09381
473.42        68.12021
473.87        68.50063
474.31        68.99601
474.75        68.69459
475.20        67.82543
475.64        67.72775
476.08        68.38637
476.52        68.50904
476.97        68.02695
477.41        68.33208
477.85        68.51301
478.29        68.19666
478.74        68.49632
479.18        68.35258
479.62        67.36378
480.06         67.8625
480.50        68.19767
480.95        68.54531
481.39         68.4111
481.83        67.96153
482.27        68.15799
482.72        67.53542
483.16        66.68098
483.60        66.83711
484.04        68.35983
484.48        68.83147
484.93        68.82031
485.37        70.14462
485.81        70.07941
486.25        69.29873
486.69        92.49641
487.14        74.59873
487.58        46.89468
488.02        58.08359
488.46        65.81899
488.90        65.91276
489.34        67.19183
489.79        66.38701
490.23        68.55225
490.67        69.30426
491.11        68.19675
491.55        68.16131
491.99        68.79453
492.43        68.72477
492.88        68.02197
493.32        68.01215
493.76         68.2003
494.20        68.42189
494.64        68.44704
495.08        68.52061
495.52        68.67003
495.96        68.60355
496.41        68.33888
496.85        68.68594
497.29        69.43226
497.73         68.6096
498.17        67.04717
498.61        67.35248
499.05         69.5154
499.49        69.80028
499.93        69.77294
500.37        69.46934
500.82        68.82831
501.26        68.86018
501.70        69.31501
502.14        69.61411
502.58        69.57169
503.02        69.45966
503.46        69.26084
503.90        68.77122
504.34        68.19717
504.78        67.97511
505.22        68.17272
505.66        68.67516
506.10        69.28552
506.54        69.54737
506.98        69.33623
507.42        69.01032
507.86         68.8394
508.30        68.05457
508.74        68.62172
509.18        68.91805
509.62        69.34046
510.06        69.58237
510.50        69.58224
510.94        69.41189
511.38         69.1688
511.82        69.04813
512.26        69.09783
512.70        69.25661
513.14        69.45222
513.58        69.57396
514.02        69.58427
514.46        69.51773
514.90        69.43211
515.34        69.39737
515.78        69.42001
516.22        69.53519
516.66        69.68622
517.10        69.61052
517.54        69.28902
517.98        69.39146
518.42         69.0974
518.86        69.13172
519.30        69.24625
519.74         69.4792
520.18        69.75714
520.62        69.95216
521.06        70.03831
521.50        70.04796
521.93        70.00743
522.37        69.95828
522.81        69.92557
523.25          69.897
523.69        69.89194
524.13        69.94381
524.57        70.05351
525.01        70.20947
525.45        70.37791
525.89        70.50127
526.32        70.55175
526.76        70.53991
527.20        70.47319
527.64        70.38406
528.08        70.30399
528.52        70.17407
528.96         69.9747
529.40        69.87283
529.83        69.91131
530.27        69.33514
530.71        69.54793
531.15        69.49728
531.59        69.59771
532.03         69.7878
532.46        70.04755
532.90        70.30981
533.34        70.52784
533.78        70.71051
534.22        70.82553
534.66        70.83825
535.09        70.73693
535.53        70.55602
535.97        70.32898
536.41        70.13164
536.85        69.99523
537.28        69.91763
537.72        69.87469
538.16        69.83545
538.60        69.79232
539.04        69.69894
539.47        69.59202
539.91        69.71214
540.35        69.98486
540.79        70.09548
541.22        70.01657
541.66        69.99149
542.10        70.01189
542.54        69.91439
542.97        69.76226
543.41        69.76644
543.85        69.93745
544.29        70.23354
544.72        70.50746
545.16        70.56055
545.60        70.34775
546.04        69.92803
546.47        69.49976
546.91        69.40259
547.35        69.68789
547.79        70.24656
548.22        70.79895
548.66        70.95718
549.10        70.61446
549.53        69.81295
549.97        68.91489
550.41        68.48705
550.84        68.64397
551.28        69.21307
551.72        69.97582
552.15        70.31781
552.59        70.53439
553.03         70.4362
553.46        70.19594
553.90        70.05942
554.34        70.06275
554.77        70.05123
555.21        69.98928
555.65        70.03204
556.08        70.19781
556.52        69.70484
556.96        70.14291
557.39        69.87059
557.83        69.51367
558.27        69.57392
558.70        70.01383
559.14        70.29245
559.57         70.3413
560.01         70.4492
560.45         70.5918
560.88        70.65867
561.32        70.62985
561.75        70.39816
562.19         70.0757
562.63        69.71983
563.06        69.45116
563.50        69.60753
563.93        70.05664
564.37        70.26759
564.80        70.16753
565.24        70.14656
565.68        70.09854
566.11        70.05739
566.55        70.05364
566.98        69.97253
567.42        69.88886
567.85        70.17419
568.29        70.74796
568.72        70.80386
569.16          70.531
569.60        70.81179
570.03         71.2751
570.47        71.14233
570.90        70.59101
571.34        68.98491
571.77        69.77991
572.21        69.84167
572.64        69.17624
573.08        68.38588
573.51        65.55637
573.95        68.16757
574.38        72.40187
574.82         70.1491
