SpectraSmart Spectrum 2.9.0.0
--------- Device Information -----------
Spectrum Name :  反射率_0
Saving Time :  2024/04/26 01:26:14
Spectro-Module Model Name : SE2030-DUVN
Spectro-Module Serial Number : OS361AC55029948
Wavelength Start : 200
Wavelength End : 1025
Wavelength Unit : Wavelength(nm)
Spectrum Unit : Reflectance(%)
-----------Spectrum Setting ------------
Integration Time : 20ms
Average : 10
Boxcar : 0
Background removal :  enabled
linearity correction :  enabled
SC :  disabled
Intensity correction :  disabled
DWT denoise :  enabled
savitzky-golay :  disabled
FFT :  disabled
Running average :  disabled
Kalman :  disabled
High pass :  disabled
---------------BEGIN--------------------
Wavelength(nm)             Reflectance(%)
200.29               0
200.75        95.62457
201.21        90.19842
201.67        83.09923
202.13        77.51331
202.58        73.95163
203.04        72.00127
203.50        71.14539
203.96        70.62925
204.42        70.20837
204.88        70.10808
205.34          70.312
205.80        70.80956
206.26        71.78588
206.72        73.75795
207.18        77.36481
207.64        80.51166
208.10          78.291
208.55        73.25797
209.01        70.10483
209.47        69.44754
209.93        70.29307
210.39        72.44298
210.85        74.21518
211.31        72.15178
211.77         65.7288
212.23        56.44589
212.69        48.10297
213.14        46.55758
213.60         52.5689
214.06        64.62301
214.52        78.37744
214.98        87.04403
215.44        88.76907
215.90        85.45687
216.36        80.08376
216.81        76.82109
217.27        76.82885
217.73        78.60124
218.19         79.8998
218.65        77.70731
219.11        70.88869
219.57        58.81053
220.02        43.05767
220.48        33.19483
220.94        34.99028
221.40         45.9987
221.86        57.42463
222.32        59.97596
222.77        54.22567
223.23        44.98424
223.69        36.77485
224.15        34.11925
224.61        36.65057
225.06        42.22622
225.52        47.73922
225.98        49.42181
226.44        46.72057
226.90        41.35219
227.36         35.8348
227.81        33.53029
228.27         35.2596
228.73        39.48912
229.19        44.35262
229.65        47.13131
230.10        47.30091
230.56        46.07093
231.02        44.46108
231.48        43.55728
231.93        43.52584
232.39        43.92196
232.85        44.53375
233.31        45.15689
233.77         45.6755
234.22        46.20717
234.68        46.67033
235.14        46.76843
235.60        46.47235
236.05        45.90656
236.51        45.28193
236.97        44.88158
237.43        44.84286
237.88        45.22486
238.34        46.21764
238.80        48.20219
239.26        51.14796
239.71        54.96111
240.17        58.83032
240.63        61.94042
241.08        64.06734
241.54        65.13557
242.00        65.73413
242.46        66.98724
242.91        69.99194
243.37        76.63097
243.83        95.62309
244.28        151.5921
244.74        204.5126
245.20        162.6882
245.66         130.344
246.11        121.1816
246.57        124.4818
247.03        143.6427
247.48        202.4826
247.94        171.9892
248.40         108.596
248.85        89.32859
249.31        83.90698
249.77        83.77271
250.22        86.70205
250.68         92.6883
251.14        101.4651
251.59        107.0427
252.05        103.6894
252.51        94.43946
252.96        84.40667
253.42        78.55429
253.88        76.52779
254.33        76.58364
254.79        78.99947
255.25         83.4985
255.70        88.78941
256.16        94.36739
256.62        98.24989
257.07        98.44005
257.53        95.84594
257.99        91.20661
258.44        86.06982
258.90        83.27924
259.35        82.04922
259.81        81.55861
260.27        80.35067
260.72        77.00779
261.18        72.24581
261.63        66.62913
262.09        61.41801
262.55        57.34405
263.00        54.43552
263.46        52.48049
263.91        50.89017
264.37        49.33564
264.83        47.57858
265.28        45.61922
265.74        43.77647
266.19        42.27807
266.65        41.32625
267.11        40.73631
267.56        40.20744
268.02        39.36832
268.47        38.10511
268.93        36.55308
269.38        34.91015
269.84        33.74691
270.30        33.21039
270.75        33.14434
271.21        33.26396
271.66        33.13923
272.12        32.64292
272.57        31.90566
273.03         31.1202
273.48        30.49223
273.94        30.10858
274.39        29.84821
274.85        29.62559
275.31        29.30992
275.76        28.85558
276.22        28.34022
276.67        27.79814
277.13        27.36674
277.58        27.02493
278.04        26.76919
278.49        26.49634
278.95        26.12546
279.40        25.61461
279.86        25.04917
280.31         24.4741
280.77        24.06948
281.22        23.82085
281.68        23.69882
282.13        23.61496
282.59        23.47898
283.04        23.26467
283.50        23.04305
283.95        22.81843
284.41        22.61766
284.86        22.44786
285.32        22.30401
285.77        22.24338
286.22        22.41492
286.68        22.79574
287.13        23.30182
287.59        23.74759
288.04        23.84923
288.50        23.58743
288.95          23.044
289.41        22.42435
289.86        21.93258
290.32        21.68947
290.77         21.6268
291.22        21.72508
291.68        21.91067
292.13        22.16627
292.59         22.5268
293.04        23.01687
293.50        23.66667
293.95        24.45882
294.40        25.34602
294.86        26.26514
295.31        27.13796
295.77        27.95753
296.22        28.75507
296.68        29.56882
297.13        30.42874
297.58        31.36324
298.04        32.37295
298.49        33.48762
298.95        34.80131
299.40        36.30949
299.85        37.98145
300.31        39.70725
300.76        41.30902
301.21        42.71549
301.67         43.9939
302.12        45.16891
302.58        46.37921
303.03        47.63419
303.48        48.91474
303.94        50.27186
304.39        51.72539
304.84        53.27999
305.30        54.93045
305.75        56.53092
306.20        57.87915
306.66        58.96426
307.11        59.80586
307.57        60.60397
308.02        61.54988
308.47        62.73639
308.93        64.10345
309.38        65.51159
309.83        66.78953
310.29        67.87009
310.74        68.76678
311.19        69.56477
311.65        70.39458
312.10        71.27949
312.55        72.19945
313.00        73.01846
313.46        73.52615
313.91        73.68262
314.36        73.58263
314.82        73.49294
315.27        73.77119
315.72         74.5174
316.18        75.62269
316.63        76.83384
317.08        77.69078
317.53        78.06149
317.99        78.05737
318.44        77.94697
318.89        78.17297
319.35         78.8197
319.80         79.7726
320.25        80.71262
320.70        81.11572
321.16        80.86894
321.61        80.16086
322.06        79.34739
322.51        78.97525
322.97          79.161
323.42        79.77144
323.87        80.53533
324.32        80.98786
324.78        80.98159
325.23        80.69878
325.68        80.31609
326.13        80.14178
326.59        80.25088
327.04        80.56026
327.49        80.97472
327.94        81.37372
328.39        81.70158
328.85        81.98629
329.30        82.26205
329.75        82.43394
330.20        82.51428
330.66         82.5135
331.11        82.57467
331.56        82.86248
332.01         83.4275
332.46        84.20656
332.92        85.09859
333.37        86.07168
333.82        86.98801
334.27        87.85297
334.72        88.53543
335.17        88.83891
335.63        88.74684
336.08        88.36168
336.53        87.90961
336.98        87.79765
337.43        88.13682
337.88        88.82444
338.34        89.69389
338.79        90.54118
339.24         91.2362
339.69        91.85404
340.14        92.35503
340.59        92.67072
341.05        92.80898
341.50        92.75928
341.95        92.67012
342.40         92.7979
342.85        93.19601
343.30        93.80859
343.75        94.47176
344.20        94.88405
344.66        94.97511
345.11        94.82221
345.56        94.57898
346.01         94.4766
346.46        94.58046
346.91        94.81995
347.36        95.11198
347.81        95.33025
348.26        95.44807
348.72        95.53738
349.17        95.62326
349.62        95.79478
350.07        96.06118
350.52        96.35978
350.97        96.66077
351.42        96.93329
351.87        97.15326
352.32        97.33257
352.77        97.40637
353.22        97.27309
353.67        96.93468
354.13        96.44598
354.58        95.92065
355.03        95.59476
355.48        95.51488
355.93        95.61311
356.38        95.75003
356.83          95.698
357.28        95.39294
357.73        94.90104
358.18        94.31444
358.63        93.77844
359.08        93.34297
359.53        92.97252
359.98        92.61188
360.43        92.17922
360.88         91.6523
361.33         91.0507
361.78        90.45503
362.23        89.98965
362.68        89.67503
363.13        89.47684
363.58        89.25244
364.03        88.77734
364.48        88.01862
364.93        87.05415
365.38        86.07515
365.83        85.39171
366.28        85.06911
366.73        84.99442
367.18        84.99675
367.63        84.79755
368.08        84.31815
368.53        83.66462
368.98        82.90894
369.43        82.14996
369.88        81.43666
370.33        80.73666
370.78        80.10437
371.23        79.64132
371.68        79.36032
372.13         79.2374
372.58        79.18939
373.03         79.0598
373.48        78.80507
373.93        78.47577
374.38         78.1008
374.83        77.72903
375.28        77.37906
375.72        77.00803
376.17        76.67953
376.62          76.477
377.07        76.39571
377.52        76.39703
377.97        76.35638
378.42         76.0722
378.87        75.52282
379.32        74.80798
379.77        74.04416
380.22        73.39225
380.67         72.8924
381.11        72.48725
381.56        72.17903
382.01        71.97768
382.46        71.86993
382.91        71.87018
383.36        71.85892
383.81        71.64268
384.26        71.19493
384.71        70.56096
385.15        69.91238
385.60        69.57764
386.05        69.56529
386.50         69.7691
386.95        69.97186
387.40        69.81052
387.85        69.24333
388.29        68.41856
388.74        67.62964
389.19        67.02761
389.64          66.647
390.09         66.3884
390.54        66.27522
390.98        66.34816
391.43        66.56572
391.88        66.89195
392.33        67.14994
392.78        66.93772
393.23        66.23781
393.67        65.48006
394.12        64.96069
394.57        63.88273
395.02        63.51293
395.47        63.82893
395.91        64.94795
396.36        65.58418
396.81         65.5662
397.26        65.49313
397.71        65.39159
398.15        65.00614
398.60        64.45622
399.05        63.89763
399.50        63.39738
399.95        62.69559
400.39        62.17933
400.84        62.03799
401.29        62.26443
401.74        62.33049
402.18        62.18553
402.63        62.05646
403.08        62.03595
403.53        62.13615
403.97        62.36217
404.42        62.67668
404.87        62.93684
405.32        62.89916
405.76        62.51985
406.21        61.96032
406.66        61.38865
407.11        61.02601
407.55        60.97654
408.00        61.18488
408.45        61.54021
408.90        61.87531
409.34        61.98666
409.79        61.57832
410.24        60.84227
410.68        60.40582
411.13        60.35171
411.58        60.33143
412.03         60.3565
412.47        60.60763
412.92        61.02035
413.37        61.54973
413.81        62.02696
414.26        62.23461
414.71        62.11198
415.15         61.7166
415.60        61.19255
416.05        60.79849
416.49        60.62031
416.94        60.61253
417.39         60.6627
417.83        60.55946
418.28        60.27665
418.73        59.90514
419.17        59.60458
419.62        59.62708
420.07        59.97683
420.51        60.54566
420.96        61.15136
421.41        61.42273
421.85        61.24751
422.30        61.02589
422.74        60.77884
423.19        60.19879
423.64        59.51267
424.08        59.71684
424.53        60.67608
424.98         61.1871
425.42        61.10704
425.87        61.33151
426.31        61.80928
426.76        61.56079
427.21        60.87197
427.65        61.15116
428.10         62.2564
428.54        63.00221
428.99        63.31232
429.44        63.33614
429.88        63.19521
430.33        63.95564
430.77        64.99359
431.22         64.0387
431.66        61.61517
432.11        60.40499
432.56        60.65944
433.00        61.38584
433.45         62.5163
433.89        64.16909
434.34        64.97888
434.78        66.87533
435.23        63.32165
435.67        61.22173
436.12        63.19209
436.57        64.29695
437.01        65.29623
437.46         65.7569
437.90        65.83961
438.35         65.0901
438.79        65.71123
439.24        65.53659
439.68        65.24717
440.13         64.8224
440.57        64.60394
441.02        65.38988
441.46        66.84659
441.91        67.93744
442.35        68.24426
442.80        67.50117
443.24        66.14927
443.69         66.3035
444.13         67.7331
444.58        67.71507
445.02        66.42832
445.47        66.22604
445.91        67.29121
446.36         67.6575
446.80         67.3299
447.24         67.1497
447.69        67.22032
448.13        67.37424
448.58        67.63158
449.02        67.97434
449.47        68.32746
449.91        68.59148
450.36        68.73269
450.80         68.7663
451.25        68.70499
451.69        68.53588
452.13        68.30148
452.58        68.02484
453.02        67.78053
453.47        67.71877
453.91        67.83586
454.36        68.09477
454.80        68.43871
455.24        68.52317
455.69        68.26798
456.13        68.22546
456.58         68.5038
457.02        67.37089
457.46        66.97144
457.91        67.45013
458.35        68.13126
458.79        68.53217
459.24        68.31284
459.68         68.1086
460.13        67.93777
460.57        67.71787
461.01        67.55825
461.46        67.10806
461.90         66.3403
462.34        67.24577
462.79        66.62906
463.23         67.0034
463.68        67.32051
464.12        67.59653
464.56        67.75348
465.01        67.77335
465.45        67.58077
465.89        67.52494
466.34        67.48403
466.78         66.4594
467.22        64.96395
467.67        64.76134
468.11        65.80968
468.55        66.62106
468.99        66.82219
469.44        66.57569
469.88        66.05756
470.32        65.99799
470.77        66.34995
471.21        66.30383
471.65        65.83565
472.10        65.55775
472.54        65.55692
472.98        65.63432
473.42        65.77187
473.87        66.22291
474.31        66.75581
474.75        66.60017
475.20        65.94106
475.64        65.80521
476.08        66.17859
476.52        66.24088
476.97        65.99673
477.41        65.91073
477.85        65.99564
478.29        66.22881
478.74        66.49422
479.18        66.52541
479.62        65.70918
480.06        66.25271
480.50        66.52972
480.95        66.88744
481.39        66.95061
481.83        66.02101
482.27        66.02468
482.72        66.27571
483.16        64.89007
483.60        65.22186
484.04        66.49696
484.48        66.93751
484.93        67.05273
485.37        68.17438
485.81        68.45689
486.25        68.19872
486.69        93.29868
487.14        75.22794
487.58        46.52783
488.02        56.80014
488.46        64.63338
488.90          64.043
489.34        66.21307
489.79         65.1438
490.23        67.02589
490.67        67.75495
491.11         67.0206
491.55        67.09718
491.99        67.54275
492.43        67.36133
492.88        66.63425
493.32        66.52499
493.76        66.61275
494.20        66.84114
494.64        66.97884
495.08         67.3438
495.52        67.84153
495.96        67.68073
496.41        66.96198
496.85        67.26665
497.29        68.32169
497.73        67.32996
498.17        65.23318
498.61        65.42149
499.05        67.91062
499.49        68.52222
499.93        68.65734
500.37        68.47919
500.82        67.91438
501.26        67.85596
501.70        68.13637
502.14         68.5651
502.58        68.71844
503.02        68.70176
503.46        68.42752
503.90        67.91446
504.34        67.37024
504.78        67.14233
505.22        67.30299
505.66         67.7298
506.10        68.24854
506.54        68.60191
506.98        68.61766
507.42         68.4509
507.86          67.729
508.30        67.54056
508.74        67.79136
509.18        68.22151
509.62        68.63744
510.06        68.82249
510.50        68.71068
510.94        68.38422
511.38        67.99969
511.82        67.79058
512.26        67.82306
512.70        68.02545
513.14        68.29889
513.58        68.48502
514.02        68.52689
514.46        68.46687
514.90        68.37154
515.34        68.32593
515.78        68.34299
516.22        68.45659
516.66        68.59547
517.10        68.48787
517.54        68.08668
517.98        68.11638
518.42        67.75456
518.86        67.81771
519.30        68.04781
519.74        68.45651
520.18         68.9004
520.62        69.13926
521.06        69.12346
521.50        68.92645
521.93        68.62859
522.37        68.36346
522.81        68.19258
523.25        68.07951
523.69        68.04563
524.13        68.12365
524.57        68.30386
525.01        68.57928
525.45        68.87341
525.89        69.05487
526.32        69.08133
526.76        68.97863
527.20        68.80904
527.64        68.69753
528.08        68.69311
528.52        68.70587
528.96        68.66278
529.40        68.64345
529.83        68.66951
530.27        68.02921
530.71        68.13663
531.15        68.01378
531.59        68.08333
532.03        68.26621
532.46        68.52794
532.90        68.78078
533.34        68.97089
533.78        69.11778
534.22        69.19543
534.66        69.17326
535.09        69.04568
535.53        68.85142
535.97        68.62202
536.41        68.43154
536.85        68.31078
537.28        68.25095
537.72        68.24872
538.16        68.30508
538.60        68.40802
539.04        68.49658
539.47        68.54694
539.91        68.70852
540.35        68.89766
540.79        68.83475
541.22        68.56818
541.66        68.45583
542.10        68.51672
542.54        68.55258
542.97        68.56399
543.41        68.66157
543.85        68.82723
544.29        69.04863
544.72        69.21798
545.16        69.19731
545.60        68.96557
546.04         68.5654
546.47        68.16765
546.91        68.09695
547.35         68.3986
547.79        68.90053
548.22        69.38085
548.66        69.68581
549.10         69.6505
549.53        68.97959
549.97        68.02808
550.41        67.61929
550.84        67.85651
551.28        68.42242
551.72        69.11163
552.15        69.44239
552.59        69.36458
553.03        69.59832
553.46        69.16165
553.90        69.03011
554.34        68.89285
554.77        69.26601
555.21        69.01494
555.65        69.18746
556.08        69.47843
556.52        69.09019
556.96        69.58616
557.39        69.40338
557.83        69.11573
558.27        69.15178
558.70        69.23233
559.14         69.3897
559.57        69.50301
560.01        69.54622
560.45        69.79816
560.88        69.84081
561.32        69.77811
561.75        69.61704
562.19        69.42837
562.63         69.1388
563.06        68.85487
563.50        68.86623
563.93        69.12057
564.37        69.42912
564.80        69.64839
565.24        69.62518
565.68        69.39803
566.11        69.29967
566.55        69.40414
566.98        69.40688
567.42        69.34727
567.85        69.59617
568.29        70.16467
568.72        70.25244
569.16        70.04553
569.60        70.75001
570.03        71.19093
570.47        71.27754
570.90        71.05811
571.34        69.45878
571.77        70.14557
572.21        70.39627
572.64        69.83174
573.08        68.57835
573.51        65.91425
573.95        68.58553
574.38        73.08818
574.82        70.88096
