SpectraSmart Spectrum 2.9.0.0
--------- Device Information -----------
Spectrum Name :  反射率_0
Saving Time :  2024/04/26 01:15:23
Spectro-Module Model Name : SE2030-DUVN
Spectro-Module Serial Number : OS361AC55029948
Wavelength Start : 200
Wavelength End : 1025
Wavelength Unit : Wavelength(nm)
Spectrum Unit : Reflectance(%)
-----------Spectrum Setting ------------
Integration Time : 20ms
Average : 10
Boxcar : 0
Background removal :  enabled
linearity correction :  enabled
SC :  disabled
Intensity correction :  disabled
DWT denoise :  enabled
savitzky-golay :  disabled
FFT :  disabled
Running average :  disabled
Kalman :  disabled
High pass :  disabled
---------------BEGIN--------------------
Wavelength(nm)             Reflectance(%)
200.29               0
200.75        89.19434
201.21         80.8194
201.67         71.6796
202.13        66.57193
202.58        66.04709
203.04        68.93542
203.50        73.53246
203.96        76.82935
204.42        77.76199
204.88        77.27602
205.34        76.59652
205.80        77.10267
206.26        79.52834
206.72        85.19162
207.18        95.62673
207.64        102.2436
208.10        91.66372
208.55        76.21182
209.01        67.85687
209.47        66.61304
209.93        69.74693
210.39        76.39008
210.85        83.70203
211.31        85.23397
211.77        79.05323
212.23        67.47832
212.69        56.04584
213.14        53.34292
213.60        60.64994
214.06        75.37598
214.52        91.41692
214.98        99.37254
215.44        97.15073
215.90        88.16525
216.36        76.93122
216.81        69.74242
217.27        68.24065
217.73         70.0292
218.19        72.27957
218.65        71.36166
219.11         65.9696
219.57         55.8774
220.02        42.36958
220.48        33.61367
220.94         34.5172
221.40        43.02072
221.86         51.8121
222.32        53.15303
222.77         47.6763
223.23        39.60352
223.69        32.81335
224.15        31.24333
224.61        34.42142
225.06        40.22166
225.52        45.96815
225.98        48.48391
226.44         47.1328
226.90        43.38631
227.36        38.71761
227.81        34.99533
228.27        33.08658
228.73         32.2802
229.19        32.41225
229.65        33.24945
230.10        34.48818
230.56         36.0139
231.02        37.55463
231.48        38.77047
231.93        39.59766
232.39        40.09074
232.85        40.25417
233.31        40.15092
233.77        39.80954
234.22        39.20712
234.68        38.43801
235.14        37.64862
235.60        37.00058
236.05        36.62599
236.51        36.55241
236.97        36.71428
237.43        37.18392
237.88        38.13136
238.34        39.84658
238.80        42.78753
239.26        46.84366
239.71        51.66971
240.17        56.36887
240.63        60.10568
241.08        62.65063
241.54        64.00264
242.00        64.63033
242.46        65.41234
242.91        67.20464
243.37        70.98831
243.83        83.39758
244.28        130.0091
244.74        194.8852
245.20        174.1776
245.66        148.3453
246.11        142.0748
246.57        148.9751
247.03        175.4462
247.48        249.8523
247.94        198.9156
248.40        116.1238
248.85         92.1818
249.31         85.4657
249.77         84.7047
250.22        87.06397
250.68        92.60748
251.14        100.7701
251.59        105.0195
252.05        99.84782
252.51        88.68269
252.96         77.6579
253.42        72.48507
253.88        72.41796
254.33        75.13452
254.79         79.6672
255.25        84.06268
255.70        87.23276
256.16        89.87111
256.62        90.86507
257.07         89.0006
257.53        85.15499
257.99        79.67707
258.44        74.23445
258.90        71.72132
259.35        71.20316
259.81        71.64023
260.27        71.11683
260.72         67.7747
261.18        62.43689
261.63        55.99086
262.09        50.13105
262.55        46.15836
263.00        44.02153
263.46        43.11942
263.91        42.50153
264.37        41.40768
264.83        39.64297
265.28        37.39954
265.74        35.23825
266.19        33.77428
266.65         33.2155
267.11        33.19375
267.56        33.20937
268.02        32.65845
268.47         31.4247
268.93        29.71482
269.38        27.83195
269.84        26.52653
270.30        25.99764
270.75        26.03609
271.21          26.249
271.66        26.04784
272.12        25.28644
272.57        24.18322
273.03         23.0556
273.48        22.29727
273.94         22.0239
274.39         22.0427
274.85        22.16952
275.31        22.14649
275.76        21.88467
276.22        21.48791
276.67        21.00912
277.13        20.59569
277.58        20.25103
278.04        19.96217
278.49         19.6544
278.95        19.26848
279.40        18.78082
279.86        18.26628
280.31        17.77857
280.77        17.48835
281.22        17.37819
281.68        17.40441
282.13        17.46591
282.59         17.4383
283.04        17.29897
283.50        17.12347
283.95        16.93418
284.41        16.77572
284.86        16.66723
285.32        16.59485
285.77        16.62245
286.22        16.89993
286.68        17.40052
287.13         18.0434
287.59        18.62736
288.04        18.85446
288.50        18.69743
288.95         18.2455
289.41        17.71104
289.86        17.32063
290.32        17.19367
290.77        17.25762
291.22        17.48286
291.68         17.7805
292.13         18.1364
292.59         18.5987
293.04         19.1966
293.50        19.96294
293.95        20.88485
294.40        21.90802
294.86        22.99211
295.31        24.09791
295.77        25.21801
296.22        26.37096
296.68        27.53633
297.13        28.64742
297.58        29.71415
298.04        30.76733
298.49        31.90991
298.95        33.35268
299.40        35.11987
299.85        37.14526
300.31        39.26433
300.76        41.20555
301.21        42.87389
301.67        44.37817
302.12        45.77563
302.58        47.25166
303.03         48.8367
303.48        50.49643
303.94        52.29119
304.39          54.257
304.84        56.38533
305.30        58.64899
305.75        60.85835
306.20         62.7448
306.66        64.27251
307.11        65.46775
307.57        66.53871
308.02        67.68811
308.47        69.03137
308.93         70.5193
309.38         72.0446
309.83        73.48577
310.29        74.79086
310.74        75.96352
311.19        77.06799
311.65        78.20054
312.10        79.36478
312.55        80.53515
313.00        81.57922
313.46        82.29273
313.91        82.63189
314.36        82.69472
314.82        82.70886
315.27        82.97057
315.72        83.58733
316.18          84.471
316.63        85.48121
317.08        86.33671
317.53        86.93785
317.99        87.34451
318.44        87.67159
318.89          88.117
319.35         88.7068
319.80        89.39743
320.25        90.01247
320.70         90.2772
321.16        90.14504
321.61        89.71783
322.06        89.22643
322.51        89.02914
322.97        89.19012
323.42        89.64655
323.87        90.19373
324.32        90.47733
324.78        90.39253
325.23        90.08698
325.68        89.71937
326.13        89.57676
326.59        89.71732
327.04        90.07496
327.49        90.53728
327.94        90.95039
328.39        91.25317
328.85        91.47831
329.30        91.68848
329.75         91.8254
330.20        91.92047
330.66         91.9797
331.11        92.14561
331.56        92.57711
332.01        93.31657
332.46        94.28735
332.92        95.37836
333.37         96.5628
333.82        97.67772
334.27        98.72195
334.72        99.50182
335.17        99.72511
335.63        99.37331
336.08        98.59982
336.53        97.75369
336.98        97.43801
337.43        97.81081
337.88        98.71239
338.34        99.88689
338.79          100.98
339.24         101.804
339.69        102.4804
340.14        102.9695
340.59        103.2107
341.05        103.2338
341.50        103.0124
341.95        102.7659
342.40        102.8639
342.85        103.3714
343.30        104.2049
343.75        105.0954
344.20        105.5537
344.66        105.4686
345.11        104.9803
345.56        104.3551
346.01        103.9948
346.46        104.0068
346.91        104.2646
347.36        104.6195
347.81        104.8444
348.26        104.8772
348.72        104.8178
349.17        104.7191
349.62        104.7101
350.07        104.8185
350.52        104.9745
350.97        105.1264
351.42        105.2126
351.87        105.2059
352.32        105.1268
352.77        104.9636
353.22        104.6962
353.67        104.3332
354.13         103.899
354.58        103.4135
355.03        102.9681
355.48        102.5822
355.93        102.2367
356.38         101.894
356.83        101.4883
357.28        100.9993
357.73        100.4466
358.18        99.84841
358.63        99.23244
359.08        98.61422
359.53        97.99366
359.98        97.36655
360.43        96.72507
360.88        96.06683
361.33        95.39121
361.78        94.72751
362.23        94.12359
362.68         93.5883
363.13        93.11165
363.58        92.62885
364.03        92.03524
364.48        91.30975
364.93         90.4793
365.38        89.62811
365.83        88.89643
366.28        88.31032
366.73        87.81736
367.18        87.33611
367.63        86.73685
368.08        85.99982
368.53        85.19808
368.98        84.37906
369.43        83.59944
369.88         82.8837
370.33        82.20691
370.78        81.61537
371.23        81.19138
371.68        80.93811
372.13        80.82931
372.58        80.75739
373.03        80.53765
373.48         80.1297
373.93        79.59363
374.38        79.02425
374.83         78.5696
375.28         78.2601
375.72         78.0221
376.17        77.83238
376.62        77.62898
377.07        77.37672
377.52         77.0891
377.97        76.72303
378.42        76.21119
378.87        75.56751
379.32        74.83917
379.77        74.10473
380.22        73.46996
380.67        72.95055
381.11        72.51142
381.56         72.1291
382.01         71.7682
382.46        71.42233
382.91        71.12579
383.36        70.83138
383.81        70.46552
384.26        70.02473
384.71        69.51074
385.15        69.03024
385.60        68.81281
386.05        68.83487
386.50        69.01561
386.95        69.14324
387.40        68.86852
387.85        68.17435
388.29        67.22029
388.74         66.3225
389.19         65.6639
389.64        65.28106
390.09        65.06264
390.54        65.03221
390.98        65.22375
391.43        65.58099
391.88        66.05792
392.33        66.41728
392.78        66.23695
393.23        65.50838
393.67        64.57555
394.12         63.7754
394.57         62.9403
395.02        62.36338
395.47        62.93187
395.91        64.37751
396.36        65.16969
396.81         65.0816
397.26        64.84266
397.71        64.58365
398.15        64.15634
398.60        63.70674
399.05        63.31185
399.50        62.97211
399.95        62.40952
400.39        61.95994
400.84        61.69211
401.29        61.67238
401.74        61.65193
402.18        61.62394
402.63        61.66888
403.08        61.82411
403.53        62.06605
403.97        62.37711
404.42        62.74208
404.87        63.00468
405.32        62.90958
405.76        62.42531
406.21        61.68696
406.66        60.94445
407.11        60.60325
407.55        60.75256
408.00        61.16706
408.45        61.65479
408.90        62.03434
409.34        62.07275
409.79        61.44162
410.24         60.4512
410.68        59.93338
411.13        60.00097
411.58         60.2456
412.03        60.57788
412.47        60.99208
412.92        61.36944
413.37        61.73664
413.81        62.00978
414.26        62.09872
414.71        61.98021
415.15        61.66246
415.60        61.27163
416.05        61.04068
416.49        61.03576
416.94        61.22672
417.39        61.45249
417.83        61.41622
418.28        61.07867
418.73        60.54908
419.17        60.07919
419.62        60.06569
420.07        60.54429
420.51          61.369
420.96         62.2579
421.41        62.69649
421.85        62.53256
422.30         62.1348
422.74        61.64519
423.19        61.10249
423.64        60.68531
424.08        60.95232
424.53        61.74126
424.98        62.22863
425.42        62.29924
425.87        62.47501
426.31        62.77032
426.76        62.79233
427.21        62.66946
427.65        62.88456
428.10          63.414
428.54        64.01756
428.99        64.67036
429.44        65.11263
429.88        65.28564
430.33        65.98093
430.77        66.66753
431.22        65.57342
431.66        63.27818
432.11        62.20921
432.56        62.57499
433.00        63.48005
433.45        64.75311
433.89        66.24671
434.34        66.71504
434.78        68.43432
435.23        64.91679
435.67        63.21999
436.12        65.33346
436.57        66.37579
437.01        67.00346
437.46        67.35326
437.90        67.62369
438.35        66.93097
438.79        67.62936
439.24        67.58573
439.68        67.51522
440.13        67.37422
440.57        67.40485
441.02        68.21077
441.46        69.44616
441.91        70.23223
442.35        70.31097
442.80        69.47498
443.24        68.19716
443.69        68.76247
444.13        70.77419
444.58        70.88203
445.02        69.28229
445.47        69.08565
445.91        70.21783
446.36        70.58143
446.80        70.10708
447.24        69.93591
447.69        70.09523
448.13        70.18643
448.58        70.26131
449.02        70.58981
449.47        71.08239
449.91        71.40341
450.36        71.51255
450.80        71.55081
451.25        71.54878
451.69        71.46933
452.13        71.34743
452.58        71.19154
453.02        71.05472
453.47        71.06069
453.91        71.20621
454.36        71.47672
454.80        71.79295
455.24        71.80794
455.69        71.47278
456.13        71.20265
456.58        71.22816
457.02        70.23776
457.46        70.61091
457.91         70.8464
458.35        71.40305
458.79        71.64053
459.24        71.52411
459.68        71.27665
460.13        70.94909
460.57        70.58305
461.01        70.28251
461.46        69.83967
461.90        69.26672
462.34        69.72887
462.79        69.44384
463.23        69.73058
463.68        69.99969
464.12        70.39752
464.56        70.77724
465.01        70.88073
465.45        70.61891
465.89         70.3627
466.34        70.07628
466.78        69.12392
467.22        68.01495
467.67        67.58134
468.11        68.93784
468.55        69.57039
468.99        69.53371
469.44        69.15721
469.88        68.65884
470.32        68.66321
470.77        69.08248
471.21        69.10229
471.65        68.67883
472.10        68.44338
472.54        68.46978
472.98        68.52836
473.42        68.60454
473.87        68.95805
474.31        69.38727
474.75        69.19224
475.20        68.54702
475.64        68.41699
476.08        68.81921
476.52        68.85514
476.97        68.48882
477.41         68.5268
477.85        69.01418
478.29        68.37895
478.74        68.79465
479.18        68.80034
479.62         68.1933
480.06        68.80987
480.50        68.90492
480.95        69.19009
481.39        69.30679
481.83         68.0381
482.27        68.36594
482.72        68.33321
483.16        67.01788
483.60        67.38631
484.04         68.8935
484.48        69.33259
484.93        69.08531
485.37        70.62205
485.81        71.00476
486.25         69.8638
486.69        94.50208
487.14        77.15955
487.58        47.83991
488.02        58.72591
488.46        66.92442
488.90        66.02391
489.34        68.40931
489.79         67.5382
490.23        68.95498
490.67        69.76154
491.11        69.23911
491.55        69.27753
491.99        69.44441
492.43        69.17197
492.88        68.57777
493.32        68.59846
493.76         68.7409
494.20        68.98761
494.64        69.09167
495.08        69.29484
495.52        69.57796
495.96        69.43891
496.41        68.91318
496.85        69.17902
497.29         69.9966
497.73        68.88638
498.17        66.84296
498.61        67.21355
499.05        69.94399
499.49        70.57935
499.93        70.54372
500.37        70.20503
500.82        69.57098
501.26        69.47031
501.70        69.61739
502.14        70.48588
502.58        69.97548
503.02        69.97401
503.46        69.89387
503.90        69.56813
504.34        69.13032
504.78        68.93678
505.22        69.05637
505.66        69.37607
506.10        69.77949
506.54        69.96137
506.98        69.83162
507.42        69.67493
507.86        69.66357
508.30        69.01829
508.74        69.44586
509.18        69.55634
509.62        69.75148
510.06        69.84736
510.50         69.8196
510.94        69.70631
511.38        69.56918
511.82        69.54338
512.26        69.65453
512.70        69.85027
513.14        70.05794
513.58        70.21116
514.02        70.28109
514.46        70.20223
514.90        69.99041
515.34        70.10164
515.78        69.83195
516.22        69.81401
516.66         69.8189
517.10        69.66471
517.54        69.34559
517.98        69.51388
518.42        69.34604
518.86        69.53459
519.30        69.81373
519.74         70.2192
520.18         70.6337
520.62         70.8633
521.06        70.87279
521.50        70.71422
521.93        70.47357
522.37        70.29453
522.81         70.2336
523.25        70.25493
523.69        70.33796
524.13        70.45193
524.57         70.5757
525.01         70.7112
525.45        70.84885
525.89        70.96941
526.32        71.05805
526.76        71.11481
527.20         71.1051
527.64        71.02808
528.08        70.91434
528.52        70.63609
528.96         70.2551
529.40        70.25932
529.83        70.61411
530.27        70.08237
530.71        70.09731
531.15        69.99448
531.59        70.19866
532.03        70.40443
532.46        70.60073
532.90        70.85304
533.34        71.11964
533.78        71.37247
534.22        71.54321
534.66        71.54266
535.09        71.35488
535.53        71.04269
535.97        70.68877
536.41        70.44418
536.85        70.35456
537.28         70.3861
537.72        70.47728
538.16          70.535
538.60         70.5298
539.04        70.43832
539.47        70.29225
539.91        70.32655
540.35        70.47564
540.79        70.42406
541.22        70.19759
541.66        70.12606
542.10         70.2116
542.54        70.26263
542.97        70.27245
543.41        70.33804
543.85        70.44733
544.29        70.60219
544.72        70.70782
545.16        70.64857
545.60        70.40526
546.04        70.00636
546.47        69.64623
546.91        69.65213
547.35        70.05498
547.79        70.77302
548.22        71.49223
548.66        71.68214
549.10        71.27354
549.53        70.53598
549.97        69.81316
550.41        69.42576
550.84        69.46196
551.28        69.97442
551.72        70.78161
552.15        70.89211
552.59        70.91082
553.03        71.06374
553.46        70.50871
553.90        70.40263
554.34        70.45518
554.77        70.51781
555.21        70.53253
555.65        70.67786
556.08        70.96729
556.52        70.52229
556.96        70.95396
557.39        70.73505
557.83         70.4534
558.27        70.37717
558.70         70.5452
559.14         70.7288
559.57        70.88206
560.01        71.16267
560.45        71.47305
560.88        71.57076
561.32        71.44528
561.75        71.18282
562.19        70.89602
562.63        70.48334
563.06        70.10768
563.50         70.2461
563.93        70.76028
564.37        71.10529
564.80        71.13778
565.24        70.98983
565.68        70.74495
566.11        70.61588
566.55        70.68175
566.98        70.75715
567.42        70.83265
567.85        71.00544
568.29        71.27659
568.72        71.32665
569.16        71.34731
569.60        71.71162
570.03        72.07391
570.47        72.01241
570.90        71.86016
571.34        69.72006
571.77        70.92816
572.21        70.73437
572.64        70.47169
573.08        69.46765
573.51        66.67774
573.95        69.21143
574.38        73.36125
574.82        71.27639
