SpectraSmart Spectrum 2.9.0.0
--------- Device Information -----------
Spectrum Name :  反射率_0
Saving Time :  2024/04/26 01:45:20
Spectro-Module Model Name : SE2030-DUVN
Spectro-Module Serial Number : OS361AC55029948
Wavelength Start : 200
Wavelength End : 1025
Wavelength Unit : Wavelength(nm)
Spectrum Unit : Reflectance(%)
-----------Spectrum Setting ------------
Integration Time : 20ms
Average : 10
Boxcar : 0
Background removal :  enabled
linearity correction :  enabled
SC :  disabled
Intensity correction :  disabled
DWT denoise :  enabled
savitzky-golay :  disabled
FFT :  disabled
Running average :  disabled
Kalman :  disabled
High pass :  disabled
---------------BEGIN--------------------
Wavelength(nm)             Reflectance(%)
200.29               0
200.75         101.402
201.21        91.40677
201.67        79.75019
202.13        72.43498
202.58        70.33206
203.04        71.94282
203.50        75.72567
203.96        79.02363
204.42        80.68582
204.88        81.43952
205.34         82.1108
205.80         83.8136
206.26        87.45535
206.72        94.76463
207.18        107.8593
207.64        117.1241
208.10         105.734
208.55        87.33055
209.01        76.59018
209.47         73.5484
209.93        74.91064
210.39        79.51627
210.85        84.53094
211.31        83.92598
211.77        76.28653
212.23        64.10062
212.69        52.71836
213.14        50.37782
213.60         58.3137
214.06        73.91405
214.52        91.68086
214.98        103.1394
215.44        105.8074
215.90        102.2742
216.36        95.40359
216.81        89.13506
217.27        85.22854
217.73        82.64387
218.19        80.03462
218.65        75.40131
219.11        67.65472
219.57        55.90678
220.02        41.77565
220.48        34.17718
220.94        37.96745
221.40        50.64801
221.86        62.60051
222.32        63.93607
222.77        55.94231
223.23        44.13402
223.69        34.10171
224.15        31.56224
224.61        35.87265
225.06        44.03529
225.52        52.31443
225.98        55.98004
226.44        54.12501
226.90        48.85266
227.36        42.40308
227.81        37.71554
228.27        35.87357
228.73        35.70703
229.19        36.66148
229.65        37.95531
230.10         39.1575
230.56        40.47279
231.02        41.70129
231.48        42.53392
231.93        42.98154
232.39        43.10451
232.85        43.08052
233.31        43.28606
233.77        43.78694
234.22         44.4464
234.68        45.15937
235.14        45.61461
235.60        45.72935
236.05        45.72022
236.51        45.62832
236.97         45.4443
237.43        45.29033
237.88        45.25884
238.34        45.86096
238.80        48.31712
239.26        52.93579
239.71        59.35352
240.17        66.13425
240.63        71.35605
241.08        74.39642
241.54        75.42808
242.00        75.40796
242.46        76.00437
242.91         78.5311
243.37        84.50119
243.83        102.7977
244.28        161.6716
244.74        227.0296
245.20        190.2655
245.66        157.6304
246.11        150.2358
246.57        159.2646
247.03        194.1221
247.48        300.7621
247.94        260.9489
248.40        150.6702
248.85        115.1044
249.31        104.2293
249.77        102.7716
250.22        106.5059
250.68        115.1834
251.14        128.4341
251.59        137.5791
252.05        133.7961
252.51        121.1565
252.96        107.5302
253.42        100.6207
253.88        99.89391
254.33        102.3647
254.79         107.104
255.25        112.1774
255.70        116.1936
256.16        119.8391
256.62         121.688
257.07          120.18
257.53        116.3818
257.99        110.7132
258.44        104.7711
258.90        101.6369
259.35        100.2919
259.81        99.87654
260.27        98.60686
260.72          94.735
261.18        89.17035
261.63        82.60081
262.09        76.54085
262.55        71.91117
263.00        68.69362
263.46        66.57708
263.91        64.85714
264.37        63.20823
264.83        61.31387
265.28        59.17607
265.74        57.02491
266.19        54.91781
266.65        53.16672
267.11        51.70591
267.56        50.38684
268.02        49.02485
268.47        47.46839
268.93        45.78308
269.38         44.0898
269.84         42.8331
270.30        42.11959
270.75        41.82999
271.21         41.6885
271.66        41.27173
272.12         40.4648
272.57        39.38322
273.03        38.26166
273.48        37.36152
273.94        36.78769
274.39        36.40928
274.85        36.09311
275.31        35.62131
275.76        34.93659
276.22        34.14765
276.67        33.36036
277.13        32.83455
277.58        32.54358
278.04         32.4298
278.49        32.28267
278.95        31.89111
279.40        31.18901
279.86        30.33054
280.31        29.42283
280.77        28.75365
281.22        28.33793
281.68        28.11672
282.13          27.994
282.59        27.88091
283.04         27.7322
283.50        27.62572
283.95        27.51652
284.41        27.35913
284.86        27.15119
285.32        26.91749
285.77        26.77023
286.22        26.95304
286.68        27.45852
287.13        28.15583
287.59        28.82285
288.04        29.11297
288.50        28.98872
288.95        28.54815
289.41        27.99152
289.86        27.50274
290.32        27.22022
290.77        27.08836
291.22        27.14327
291.68        27.39128
292.13        27.83623
292.59        28.50605
293.04        29.38307
293.50        30.42739
293.95        31.59398
294.40        32.83857
294.86        34.14018
295.31        35.48939
295.77        36.88435
296.22        38.32488
296.68        39.75433
297.13          41.052
297.58        42.21825
298.04        43.30825
298.49        44.47284
298.95         46.0037
299.40        47.93985
299.85        50.19109
300.31        52.54725
300.76        54.65902
301.21        56.40502
301.67        57.91629
302.12        59.26781
302.58        60.69833
303.03        62.23869
303.48        63.85025
303.94        65.56995
304.39          67.387
304.84        69.29795
305.30        71.30103
305.75        73.25343
306.20        74.96628
306.66        76.42357
307.11        77.61953
307.57        78.71865
308.02        79.83524
308.47        81.07252
308.93        82.40887
309.38        83.77141
309.83        85.10326
310.29        86.37016
310.74        87.54831
311.19          88.678
311.65        89.81702
312.10        90.95662
312.55        92.09011
313.00        93.09538
313.46         93.7867
313.91        94.12375
314.36        94.18835
314.82        94.21471
315.27        94.50325
315.72        95.16108
316.18        96.10045
316.63        97.14771
317.08        97.96361
317.53        98.44408
317.99        98.67111
318.44        98.82582
318.89        99.21107
319.35        99.87389
319.80        100.7457
320.25        101.5822
320.70        101.9917
321.16        101.8916
321.61        101.4138
322.06         100.842
322.51         100.621
322.97        100.8352
323.42        101.4007
323.87        102.0712
324.32        102.4225
324.78        102.3344
325.23         101.992
325.68        101.5971
326.13         101.508
326.59        101.7958
327.04        102.3638
327.49        103.0699
327.94        103.7191
328.39        104.2238
328.85        104.6199
329.30        104.9407
329.75         105.059
330.20         105.004
330.66        104.8041
331.11        104.6921
331.56        104.9641
332.01        105.7057
332.46        106.8219
332.92        108.1329
333.37        109.5035
333.82        110.7191
334.27        111.8073
334.72        112.6302
335.17        112.9927
335.63        112.8943
336.08        112.4468
336.53        111.9247
336.98        111.8313
337.43         112.299
337.88        113.1976
338.34        114.3278
338.79        115.4388
339.24        116.3692
339.69        117.2161
340.14        117.8876
340.59        118.2281
341.05        118.2529
341.50        117.9799
341.95        117.6846
342.40        117.8187
342.85        118.4685
343.30        119.5136
343.75        120.6686
344.20        121.4138
344.66        121.6071
345.11        121.3849
345.56        120.9596
346.01        120.6567
346.46        120.5849
346.91        120.6489
347.36        120.7834
347.81        120.8956
348.26        120.9563
348.72        121.0246
349.17        121.1063
349.62        121.2403
350.07        121.4213
350.52         121.612
350.97        121.7626
351.42        121.8116
351.87        121.7467
352.32         121.591
352.77        121.3743
353.22        121.1474
353.67        120.9274
354.13        120.7095
354.58        120.4662
355.03        120.2179
355.48        119.9537
355.93        119.6664
356.38        119.3138
356.83        118.8272
357.28        118.1983
357.73        117.4574
358.18        116.6556
358.63        115.8732
359.08        115.1454
359.53        114.4671
359.98        113.8269
360.43        113.2006
360.88        112.5696
361.33        111.9231
361.78        111.2795
362.23        110.6681
362.68        110.0951
363.13        109.5684
363.58        109.0021
364.03        108.2601
364.48        107.3317
364.93        106.2549
365.38        105.2085
365.83        104.4871
366.28        104.1279
366.73        104.0107
367.18        103.9085
367.63        103.4489
368.08        102.5585
368.53        101.4098
368.98         100.141
369.43        98.95055
369.88        97.92129
370.33         96.9765
370.78        96.22983
371.23        95.87467
371.68        95.90997
372.13        96.28462
372.58        96.69064
373.03        96.59476
373.48        95.88661
373.93        94.73716
374.38        93.48263
374.83        92.64873
375.28        92.35974
375.72         92.4295
376.17        92.68012
376.62        92.79739
377.07        92.65472
377.52        92.33288
377.97         91.8551
378.42        91.25405
378.87        90.58003
379.32        89.85152
379.77        89.09383
380.22         88.3451
380.67        87.61805
381.11        86.90513
381.56        86.29383
382.01         85.9215
382.46        85.80798
382.91        85.93024
383.36        86.06635
383.81        85.86319
384.26         85.2619
384.71        84.35746
385.15        83.43636
385.60        83.01067
386.05         83.1096
386.50        83.56129
386.95        84.02234
387.40         83.9184
387.85         83.1669
388.29        82.00163
388.74        80.85439
389.19        79.99464
389.64        79.48292
390.09        79.17484
390.54        79.06467
390.98        79.14872
391.43        79.35851
391.88         79.6647
392.33        79.88103
392.78          79.594
393.23        78.76655
393.67        77.93035
394.12        77.36565
394.57        76.26857
395.02        74.97173
395.47        76.13168
395.91        77.37826
396.36        78.42583
396.81        78.37356
397.26        78.26486
397.71        78.16492
398.15        77.69595
398.60         77.0467
399.05        76.45088
399.50         75.9126
399.95        75.02812
400.39        74.30453
400.84        73.87076
401.29        73.87384
401.74        74.43118
402.18        75.24181
402.63        75.19981
403.08        74.47989
403.53        74.37793
403.97        74.93865
404.42        75.34185
404.87        75.40382
405.32        75.16764
405.76        74.59789
406.21        73.90898
406.66        73.24833
407.11        72.58762
407.55        72.15372
408.00        72.37268
408.45        73.10404
408.90        73.77177
409.34        74.00893
409.79        73.40446
410.24         72.2723
410.68        71.69958
411.13         71.8138
411.58        71.90209
412.03        71.87339
412.47        72.41025
412.92        72.56112
413.37         72.9844
413.81        73.30009
414.26        73.38628
414.71        73.19447
415.15        72.76366
415.60        72.24509
416.05        71.88415
416.49        71.75819
416.94        71.82446
417.39        71.92312
417.83        71.76076
418.28        71.30083
418.73        70.66193
419.17        70.08193
419.62        69.93665
420.07        70.24909
420.51        70.87875
420.96        71.57657
421.41        71.85262
421.85        71.56587
422.30        71.18963
422.74        70.78902
423.19        70.09431
423.64         69.3592
424.08        69.64226
424.53        70.76512
424.98        71.37484
425.42        71.30087
425.87        71.51839
426.31        71.98209
426.76        71.67667
427.21        70.90007
427.65        71.08533
428.10        72.12493
428.54        72.87799
428.99        73.26943
429.44        73.43664
429.88        73.42506
430.33        74.17683
430.77        75.05122
431.22        73.87514
431.66        71.21088
432.11        69.77565
432.56        69.88942
433.00        70.51328
433.45        71.50058
433.89        73.33298
434.34        74.60813
434.78        75.53898
435.23        71.72532
435.67        69.76227
436.12        71.84035
436.57        73.08763
437.01        73.93214
437.46        74.40958
437.90        74.70399
438.35        73.69007
438.79        74.54592
439.24         74.2985
439.68        73.92766
440.13        73.36346
440.57        73.02967
441.02        73.90316
441.46         75.5743
441.91        76.81622
442.35        77.16857
442.80        76.25215
443.24        74.63413
443.69        75.10458
444.13        77.26361
444.58          77.249
445.02        75.30125
445.47        74.95928
445.91        76.12352
446.36        76.44353
446.80        75.84646
447.24        75.51507
447.69        75.56081
448.13        75.72658
448.58        76.03723
449.02        76.43166
449.47        76.77682
449.91        77.22765
450.36        77.18752
450.80        77.12395
451.25        76.93919
451.69         76.7261
452.13        76.53705
452.58        76.35875
453.02        76.22344
453.47        76.21347
453.91        76.31503
454.36        76.51137
454.80        76.71333
455.24        76.69167
455.69        76.42825
456.13        76.08331
456.58        75.78812
457.02        75.36369
457.46        75.01154
457.91        75.25194
458.35         75.8681
458.79        76.12238
459.24        75.99889
459.68        75.67078
460.13        75.18797
460.57        75.14052
461.01        75.02435
461.46        74.05404
461.90        74.09521
462.34        74.19614
462.79        73.86629
463.23        73.80268
463.68         74.1573
464.12         74.5349
464.56        74.91255
465.01        74.95837
465.45        74.60017
465.89        74.43835
466.34        74.32619
466.78         73.2236
467.22        71.75693
467.67        70.99266
468.11        72.61008
468.55        73.36962
468.99        73.39931
469.44        73.01183
469.88         72.4181
470.32        72.29171
470.77        72.58179
471.21        72.50391
471.65        72.03527
472.10         71.8215
472.54        71.89583
472.98        71.96227
473.42        71.99461
473.87        72.23603
474.31        72.53002
474.75        72.34126
475.20        71.79124
475.64        71.63506
476.08        71.92074
476.52        71.86594
476.97        71.38857
477.41        71.78766
477.85        72.02526
478.29        71.52171
478.74        71.53167
479.18        72.04842
479.62        70.86223
480.06        71.18109
480.50        71.68093
480.95        72.05831
481.39        72.16741
481.83        71.28223
482.27        71.29656
482.72        71.60841
483.16        70.09584
483.60        70.37646
484.04        71.92357
484.48        72.17078
484.93        71.70332
485.37        73.35445
485.81        73.82001
486.25        72.66461
486.69        99.07243
487.14        80.26119
487.58         49.7233
488.02        60.91257
488.46        68.98003
488.90        68.65443
489.34        69.91363
489.79        69.31767
490.23        71.31857
490.67        72.21635
491.11        71.18385
491.55        71.02376
491.99        71.35247
492.43        71.08906
492.88        70.36502
493.32        70.39919
493.76         70.6572
494.20         70.9579
494.64        71.02441
495.08        71.16357
495.52        71.40643
495.96        71.23006
496.41        70.71624
496.85        71.26573
497.29        72.48205
497.73        71.32938
498.17        68.86167
498.61        68.89641
499.05        71.49139
499.49        72.11777
499.93        72.23594
500.37        72.06746
500.82        71.48562
501.26        71.33917
501.70        71.47564
502.14        71.70082
502.58        71.82723
503.02        71.76127
503.46        71.48236
503.90        71.05523
504.34         70.6361
504.78        70.42181
505.22        70.43588
505.66        70.70871
506.10        71.15832
506.54        71.27553
506.98        70.91561
507.42        71.43396
507.86        71.01037
508.30        70.59436
508.74        70.94733
509.18        71.02422
509.62        71.12402
510.06         71.1199
510.50        71.01719
510.94        70.82762
511.38        70.62718
511.82        70.55783
512.26        70.64557
512.70        70.84869
513.14        71.08419
513.58        71.21877
514.02        71.20948
514.46        71.08678
514.90        70.92753
515.34        70.83791
515.78        70.83678
516.22        70.95722
516.66         71.1209
517.10         71.0357
517.54         70.6766
517.98        70.69347
518.42        70.35213
518.86         70.4235
519.30        70.67544
519.74        71.11372
520.18        71.58595
520.62        71.84039
521.06        71.82667
521.50        71.62083
521.93        71.32921
522.37        71.12708
522.81         71.0763
523.25        71.11813
523.69        71.22684
524.13        71.36482
524.57        71.50773
525.01        71.67255
525.45        71.81667
525.89        71.86544
526.32        71.79882
526.76        71.63007
527.20        71.41804
527.64        71.28075
528.08        71.26231
528.52        71.27565
528.96        71.23824
529.40        71.21815
529.83        71.23522
530.27         70.5545
530.71        70.64758
531.15        70.51014
531.59        70.58504
532.03        70.78804
532.46        71.08789
532.90        71.39986
533.34        71.66486
533.78        71.89558
534.22        72.05206
534.66         72.0853
535.09         71.9826
535.53        71.78497
535.97        71.52695
536.41        71.28999
536.85        71.11028
537.28        70.98263
537.72        70.90614
538.16        70.88506
538.60        70.91469
539.04         70.9389
539.47        70.94452
539.91        71.10115
540.35        71.31985
540.79        71.29808
541.22        71.07392
541.66        70.99873
542.10        71.08374
542.54        71.13248
542.97        71.12794
543.41        71.15569
543.85        71.19991
544.29        71.26408
544.72        71.28845
545.16        71.18768
545.60         70.9424
546.04        70.63532
546.47        70.38815
546.91        70.26031
547.35         70.3422
547.79        70.93217
548.22        71.72128
548.66        71.88947
549.10        71.37106
549.53        70.61294
549.97        69.93047
550.41        69.56932
550.84        69.63181
551.28        70.05591
551.72        70.64043
552.15        71.00983
552.59        71.06127
553.03        70.91896
553.46        70.66935
553.90        70.51244
554.34        70.49871
554.77         70.4828
555.21        70.44375
555.65        70.57788
556.08        70.90111
556.52        70.50994
556.96        71.00576
557.39        70.90253
557.83        70.72511
558.27        70.61127
558.70        70.60309
559.14        70.52721
559.57        70.42862
560.01        70.64812
560.45        71.07406
560.88        71.25221
561.32         71.1404
561.75        70.93216
562.19        70.72497
562.63        70.31638
563.06        69.87344
563.50         69.9939
563.93        70.52494
564.37        70.73816
564.80        70.55653
565.24        70.41355
565.68        70.35565
566.11        70.31115
566.55        70.34641
566.98        70.39494
567.42        70.46578
567.85        70.71131
568.29        71.09642
568.72        71.09767
569.16        70.93416
569.60        71.30202
570.03         71.8624
570.47        71.87769
570.90        71.64528
571.34        70.07211
571.77         70.8747
572.21        71.22444
572.64        70.60609
573.08        69.52146
573.51        66.61447
573.95        69.20831
574.38        73.65827
574.82        71.40746
