SpectraSmart Spectrum 2.9.0.0
--------- Device Information -----------
Spectrum Name :  反射率_0
Saving Time :  2024/04/26 01:19:18
Spectro-Module Model Name : SE2030-DUVN
Spectro-Module Serial Number : OS361AC55029948
Wavelength Start : 200
Wavelength End : 1025
Wavelength Unit : Wavelength(nm)
Spectrum Unit : Reflectance(%)
-----------Spectrum Setting ------------
Integration Time : 20ms
Average : 10
Boxcar : 0
Background removal :  enabled
linearity correction :  enabled
SC :  disabled
Intensity correction :  disabled
DWT denoise :  enabled
savitzky-golay :  disabled
FFT :  disabled
Running average :  disabled
Kalman :  disabled
High pass :  disabled
---------------BEGIN--------------------
Wavelength(nm)             Reflectance(%)
200.29               0
200.75        96.52112
201.21        92.24275
201.67        86.38157
202.13        83.13761
202.58        83.18404
203.04        85.77399
203.50        88.67439
203.96        88.38536
204.42         84.6997
204.88        79.33353
205.34        74.93205
205.80         74.1393
206.26        77.91808
206.72        88.86718
207.18        111.0132
207.64        128.3733
208.10        111.6409
208.55        83.20953
209.01        66.22939
209.47        61.19218
209.93        63.12019
210.39        69.52486
210.85         77.6386
211.31        81.33408
211.77        78.36971
212.23        71.13287
212.69        63.52674
213.14        61.57143
213.60        66.25555
214.06        75.59955
214.52        86.25864
214.98        93.25293
215.44        95.07558
215.90        93.34805
216.36        89.75157
216.81        86.44464
217.27         84.5161
217.73        83.28005
218.19        81.84813
218.65        78.92583
219.11        73.77133
219.57        65.65439
220.02        55.37517
220.48        48.86451
220.94        49.49626
221.40        56.06568
221.86        62.47509
222.32        62.19725
222.77        55.91687
223.23         47.3349
223.69        40.14424
224.15        38.14084
224.61        40.83666
225.06        46.30323
225.52        51.68999
225.98        53.52621
226.44        51.25819
226.90        46.45942
227.36        41.22642
227.81        38.33809
228.27        38.64886
228.73        40.96457
229.19        44.11291
229.65        46.37324
230.10        47.26574
230.56        47.44019
231.02        47.37389
231.48        47.57357
231.93        48.11541
232.39        48.78457
232.85        49.42702
233.31        49.90516
233.77        50.16545
234.22        50.28843
234.68        50.32553
235.14        50.28492
235.60        50.21552
236.05        50.15585
236.51        50.13705
236.97        50.18055
237.43        50.33677
237.88        50.69193
238.34        51.36325
238.80        52.72006
239.26        54.75086
239.71        57.36637
240.17         59.8664
240.63        61.60443
241.08        62.55428
241.54        62.93807
242.00        63.18811
242.46        64.03236
242.91        66.33811
243.37         71.2981
243.83        87.97636
244.28         153.095
244.74        248.0516
245.20        221.7488
245.66        184.3505
246.11        171.9296
246.57        173.7126
247.03        189.0497
247.48         223.669
247.94        151.9893
248.40        101.4849
248.85        92.66755
249.31        92.53191
249.77        94.49635
250.22        97.96762
250.68        103.9754
251.14        112.5506
251.59        118.4415
252.05        116.1778
252.51        107.9287
252.96        98.42943
253.42        92.77678
253.88        90.63625
254.33        90.35594
254.79        92.12023
255.25        95.49377
255.70        99.35835
256.16        103.4655
256.62        106.1529
257.07        105.7035
257.53        102.9613
257.99        98.47101
258.44        93.43443
258.90        90.37327
259.35        88.54392
259.81        87.38001
260.27        85.66161
260.72        82.18967
261.18        77.63032
261.63        72.35127
262.09        67.45827
262.55        63.46998
263.00        60.42023
263.46        58.24691
263.91        56.43417
264.37        54.77084
264.83        53.00656
265.28        51.08326
265.74        49.30665
266.19        47.86075
266.65        46.94473
267.11        46.38373
267.56        45.84378
268.02         44.9356
268.47         43.5324
268.93        41.76898
269.38         39.8945
269.84        38.58173
270.30        38.00359
270.75        37.97709
271.21        38.12137
271.66        37.85249
272.12        37.02687
272.57        35.83712
273.03        34.60373
273.48        33.71214
273.94        33.29379
274.39        33.16928
274.85        33.15228
275.31        32.95905
275.76        32.50305
276.22        31.89998
276.67         31.2599
277.13         30.8428
277.58        30.62648
278.04        30.54982
278.49        30.40032
278.95        29.96157
279.40        29.17892
279.86         28.2161
280.31         27.2167
280.77        26.51178
281.22        26.12848
281.68        25.99645
282.13        25.98056
282.59        25.93099
283.04        25.78992
283.50        25.63631
283.95        25.47294
284.41        25.32697
284.86        25.19853
285.32        25.08006
285.77        24.99746
286.22        25.06371
286.68        25.26367
287.13        25.53309
287.59         25.7607
288.04        25.76646
288.50        25.54747
288.95        25.14916
289.41        24.70104
289.86         24.2865
290.32        24.00723
290.77        23.83704
291.22        23.81879
291.68        23.97307
292.13         24.3031
292.59        24.80722
293.04        25.47483
293.50        26.28394
293.95        27.19567
294.40         28.1794
294.86        29.17263
295.31        30.09658
295.77        30.94849
296.22        31.75408
296.68        32.56778
297.13        33.44854
297.58        34.43087
298.04        35.51278
298.49        36.69872
298.95        38.04346
299.40        39.53402
299.85        41.14834
300.31        42.80841
300.76        44.38908
301.21        45.82285
301.67         47.1533
302.12        48.36174
302.58        49.52681
303.03        50.65319
303.48        51.76538
303.94        52.94312
304.39        54.24527
304.84        55.69633
305.30        57.27158
305.75        58.86128
306.20         60.3214
306.66        61.62812
307.11        62.76665
307.57        63.83081
308.02        64.84958
308.47          65.896
308.93        66.96886
309.38         68.0368
309.83        69.10422
310.29        70.15524
310.74         71.1539
311.19         72.1244
311.65        73.10184
312.10         74.0747
312.55        75.04659
313.00        75.90461
313.46        76.47133
313.91        76.71324
314.36        76.71059
314.82        76.68896
315.27         76.9501
315.72         77.5899
316.18        78.51445
316.63        79.54995
317.08        80.36339
317.53        80.84607
317.99        81.07374
318.44        81.20103
318.89        81.48845
319.35        81.98264
319.80        82.62642
320.25        83.22546
320.70        83.46905
321.16        83.30295
321.61        82.84746
322.06        82.34663
322.51        82.17717
322.97        82.40574
323.42        82.94722
323.87         83.5953
324.32          83.995
324.78        84.03204
325.23        83.85254
325.68        83.57645
326.13        83.42577
326.59        83.45822
327.04        83.63142
327.49        83.91219
327.94        84.27787
328.39        84.69994
328.85        85.17049
329.30        85.68029
329.75        86.05352
330.20        86.26704
330.66        86.34949
331.11          86.449
331.56        86.73907
332.01        87.28226
332.46        88.01163
332.92        88.84626
333.37        89.80511
333.82        90.76187
334.27        91.71302
334.72        92.51175
335.17        92.92564
335.63        92.92194
336.08        92.61502
336.53        92.21423
336.98        92.10514
337.43         92.3991
337.88        92.99246
338.34        93.76621
338.79        94.60053
339.24        95.38318
339.69        96.17687
340.14        96.86686
340.59        97.24872
341.05        97.30523
341.50        97.07328
341.95        96.80337
342.40        96.90458
342.85        97.45573
343.30        98.34041
343.75        99.30971
344.20        99.91614
344.66        100.0371
345.11        99.79689
345.56        99.38279
346.01        99.07449
346.46        98.97266
346.91        99.00783
347.36        99.12828
347.81        99.25883
348.26        99.38013
348.72        99.54414
349.17        99.76577
349.62        100.1058
350.07        100.5483
350.52        101.0321
350.97        101.4637
351.42        101.7212
351.87         101.777
352.32        101.6695
352.77        101.4454
353.22        101.1867
353.67        100.9266
354.13        100.6554
354.58        100.3688
355.03        100.1126
355.48        99.88737
355.93        99.69864
356.38        99.47707
356.83        99.10441
357.28        98.56511
357.73        97.89613
358.18        97.20786
358.63        96.67535
359.08         96.3375
359.53        96.14537
359.98        95.98244
360.43        95.66536
360.88        95.14574
361.33        94.46709
361.78        93.74252
362.23        93.15863
362.68        92.76015
363.13        92.49402
363.58        92.22424
364.03        91.73644
364.48        90.99326
364.93        90.07306
365.38        89.13631
365.83        88.43953
366.28        88.03558
366.73        87.82338
367.18        87.66804
367.63        87.35217
368.08        86.81925
368.53        86.16808
368.98        85.43874
369.43        84.67953
369.88        83.92696
370.33        83.15635
370.78        82.47295
371.23        82.05941
371.68        81.94267
372.13        82.07828
372.58        82.28219
373.03        82.23271
373.48        81.85089
373.93        81.23093
374.38        80.54885
374.83        80.07937
375.28        79.88432
375.72        79.85756
376.17        79.89645
376.62        79.81159
377.07         79.5391
377.52        79.13173
377.97        78.64635
378.42        78.17046
378.87        77.74253
379.32        77.34982
379.77         76.9509
380.22        76.48248
380.67        75.93099
381.11        75.31673
381.56        74.72406
382.01        74.29351
382.46        74.06326
382.91        74.01176
383.36        73.99475
383.81        73.78192
384.26        73.33535
384.71        72.72013
385.15        72.12222
385.60        71.88757
386.05        72.02108
386.50        72.39799
386.95        72.76559
387.40         72.7042
387.85        72.15425
388.29        71.27862
388.74        70.40653
389.19        69.72683
389.64        69.28186
390.09        68.95985
390.54        68.77937
390.98        68.77468
391.43        68.91244
391.88        69.16937
392.33         69.3531
392.78        69.10611
393.23        68.42609
393.67        67.60432
394.12        66.94041
394.57        66.26826
395.02         65.8343
395.47        66.39615
395.91        67.73138
396.36        68.51381
396.81        68.54161
397.26        68.43725
397.71        68.25832
398.15        67.80184
398.60        67.21762
399.05        66.57462
399.50        65.97089
399.95        65.35773
400.39        65.05168
400.84        64.82998
401.29        64.75182
401.74        64.77467
402.18        64.88858
402.63        65.03323
403.08        65.23564
403.53         65.5302
403.97        65.89523
404.42        66.28401
404.87        66.54391
405.32        66.42495
405.76        65.89312
406.21        65.11462
406.66        64.31848
407.11        63.81111
407.55        63.69825
408.00        63.92679
408.45        64.34606
408.90        64.60164
409.34        64.54991
409.79        64.23764
410.24        63.82542
410.68         63.6188
411.13        63.68531
411.58        63.85373
412.03        64.09746
412.47        64.43294
412.92        64.77332
413.37        65.13406
413.81        65.40091
414.26        65.44064
414.71        65.22296
415.15        64.78302
415.60        64.26864
416.05        63.94207
416.49        63.87812
416.94        64.02863
417.39        64.23675
417.83          64.211
418.28        63.90855
418.73        63.44508
419.17        63.02666
419.62        62.98188
420.07        63.33226
420.51        63.94556
420.96        64.62868
421.41         64.9754
421.85        64.84993
422.30        64.70583
422.74        64.53841
423.19        63.90232
423.64        63.08112
424.08        63.33455
424.53        64.48523
424.98        65.06094
425.42        64.90999
425.87        64.98285
426.31        65.31422
426.76        65.25913
427.21        64.98902
427.65        65.24443
428.10        65.95698
428.54        66.61547
428.99        67.16396
429.44        67.48051
429.88        67.54997
430.33        68.12451
430.77        68.70371
431.22          67.676
431.66        65.52703
432.11        64.35666
432.56        64.49094
433.00        65.34833
433.45        66.76343
433.89        68.73508
434.34        69.87107
434.78         70.5601
435.23        67.17457
435.67        64.69633
436.12         67.1466
436.57        68.23954
437.01        68.96025
437.46        69.33193
437.90        69.49693
438.35        69.06676
438.79        69.60194
439.24        69.56052
439.68        69.44081
440.13        69.13091
440.57        68.97006
441.02        69.93191
441.46        71.58104
441.91        72.50673
442.35        72.43024
442.80        71.43269
443.24        70.08734
443.69        70.68307
444.13        72.72755
444.58        72.86987
445.02        71.38011
445.47        70.18516
445.91        71.72508
446.36        71.93109
446.80        71.48678
447.24        71.41572
447.69        71.74892
448.13        72.03825
448.58        72.24593
449.02        72.45812
449.47        72.66451
449.91        72.87089
450.36        73.07294
450.80        73.23695
451.25        73.32737
451.69        73.26321
452.13        73.06538
452.58        72.78008
453.02        72.50104
453.47        72.41016
453.91        72.51157
454.36         72.7542
454.80        73.07417
455.24        73.11749
455.69        72.81761
456.13        72.71179
456.58        72.90115
457.02        71.71098
457.46        71.38638
457.91        71.52297
458.35        72.45308
458.79        72.81588
459.24        72.56695
459.68        72.33386
460.13        72.15983
460.57        71.93219
461.01        71.74952
461.46        71.15959
461.90        70.76868
462.34        71.07094
462.79        70.67957
463.23        70.96481
463.68        71.36087
464.12         71.6995
464.56          71.887
465.01         71.9996
465.45        71.94674
465.89        71.91518
466.34        71.78177
466.78        70.88366
467.22        69.73764
467.67        68.98773
468.11        70.18848
468.55        70.76047
468.99        70.85471
469.44        70.50076
469.88        69.91203
470.32        69.92007
470.77         70.4272
471.21         70.4894
471.65        70.05106
472.10        69.78864
472.54        69.77706
472.98        69.79221
473.42        69.82577
473.87        70.10732
474.31        70.45156
474.75        70.24509
475.20        69.63488
475.64        69.46496
476.08         69.8061
476.52        69.78979
476.97        69.34695
477.41        69.52118
477.85        70.45948
478.29        69.06142
478.74        70.19454
479.18        70.27406
479.62        69.11253
480.06         69.6884
480.50        70.04714
480.95        70.46927
481.39        70.45164
481.83        69.60499
482.27        69.78644
482.72        69.31595
483.16        68.28459
483.60        68.29046
484.04        69.85293
484.48        70.32865
484.93        70.40623
485.37        71.60749
485.81        72.30745
486.25        71.33228
486.69        97.47475
487.14         78.9341
487.58        48.84748
488.02        60.00617
488.46        67.62737
488.90        67.32829
489.34        69.05563
489.79        68.04951
490.23        70.23912
490.67        70.95089
491.11        69.88857
491.55        69.88529
491.99        70.50596
492.43        70.37702
492.88        69.58066
493.32        69.51517
493.76        69.70127
494.20        69.98003
494.64        70.10792
495.08        70.32515
495.52         70.6358
495.96        70.64135
496.41        70.31861
496.85        70.68452
497.29        71.47778
497.73        70.18048
498.17        67.86914
498.61        68.22797
499.05        71.15161
499.49        71.57997
499.93        71.09865
500.37        70.75004
500.82        70.48483
501.26        70.61835
501.70         71.2111
502.14        71.39562
502.58        71.15283
503.02        70.95419
503.46        70.81038
503.90        70.37917
504.34        69.82112
504.78        69.58351
505.22        69.71534
505.66        70.10667
506.10        70.60686
506.54         70.8586
506.98        70.71442
507.42        70.75623
507.86        70.14324
508.30        69.93033
508.74        70.12309
509.18        70.39751
509.62        70.68873
510.06        70.83161
510.50        70.78627
510.94        70.60326
511.38        70.38869
511.82        70.30409
512.26        70.39016
512.70        70.59372
513.14        70.82732
513.58        70.96221
514.02        70.95715
514.46        70.83202
514.90        70.65849
515.34        70.61549
515.78        70.58447
516.22         70.7017
516.66        70.85284
517.10        70.75507
517.54        70.38301
517.98        70.39587
518.42        70.03379
518.86        70.04282
519.30        70.18916
519.74         70.4931
520.18        70.84558
520.62        71.06198
521.06         71.1058
521.50        71.03281
521.93         70.9015
522.37        70.80717
522.81        70.78842
523.25        70.80743
523.69        70.87526
524.13        71.01279
524.57        71.21086
525.01        71.46748
525.45        71.71081
525.89        71.82178
526.32        71.76711
526.76        71.57192
527.20        71.32372
527.64        71.18385
528.08        71.20438
528.52        71.28514
528.96        71.30515
529.40        71.27351
529.83         71.2031
530.27        70.38478
530.71        70.33797
531.15        70.13721
531.59        70.23873
532.03        70.53014
532.46        70.93977
532.90         71.3152
533.34        71.57684
533.78        71.76322
534.22        71.84956
534.66        71.80851
535.09        71.64061
535.53        71.38004
535.97        71.08081
536.41        70.85671
536.85        70.74558
537.28         70.7317
537.72        70.78122
538.16        70.83912
538.60        70.87975
539.04        70.87821
539.47        70.84879
539.91        70.95273
540.35        71.10269
540.79        71.19798
541.22        70.90469
541.66        70.85438
542.10        70.94665
542.54        70.99802
542.97        70.99596
543.41        71.04015
543.85        71.12033
544.29        71.22887
544.72         71.2963
545.16        71.23995
545.60        71.04909
546.04        70.76535
546.47        70.51937
546.91        70.53799
547.35        70.86881
547.79        71.41692
548.22        71.95025
548.66        72.29601
549.10        72.24948
549.53        71.39511
549.97          70.151
550.41        69.57274
550.84        69.79327
551.28        70.36951
551.72        71.05746
552.15        71.42577
552.59        71.30322
553.03        71.46634
553.46        71.03593
553.90        70.84702
554.34        70.76038
554.77         71.2221
555.21        71.27345
555.65        71.09631
556.08        71.64105
556.52        71.05425
556.96        71.36162
557.39         71.1938
557.83        71.09639
558.27         70.9911
558.70        70.93068
559.14        71.00721
559.57        71.18896
560.01        71.47005
560.45        71.74955
560.88        71.83784
561.32        71.73835
561.75        71.55219
562.19        71.37236
562.63        71.05799
563.06        70.72386
563.50        70.79757
563.93        71.17242
564.37         71.3503
564.80         71.2667
565.24        71.22626
565.68        71.23737
566.11        71.21478
566.55        71.21503
566.98        71.20918
567.42        71.23781
567.85        71.43075
568.29        71.79784
568.72         71.9519
569.16        72.04292
569.60        72.52203
570.03        73.04024
570.47        72.95444
570.90        72.59406
571.34        70.85462
571.77        71.89668
572.21        71.78146
572.64         71.5819
573.08        70.55296
573.51         67.3429
573.95        69.94854
574.38         74.4811
574.82         72.6047
