SpectraSmart Spectrum 2.9.0.0
--------- Device Information -----------
Spectrum Name :  反射率_0
Saving Time :  2024/04/26 02:02:14
Spectro-Module Model Name : SE2030-DUVN
Spectro-Module Serial Number : OS361AC55029948
Wavelength Start : 200
Wavelength End : 1025
Wavelength Unit : Wavelength(nm)
Spectrum Unit : Reflectance(%)
-----------Spectrum Setting ------------
Integration Time : 20ms
Average : 10
Boxcar : 0
Background removal :  enabled
linearity correction :  enabled
SC :  disabled
Intensity correction :  disabled
DWT denoise :  enabled
savitzky-golay :  disabled
FFT :  disabled
Running average :  disabled
Kalman :  disabled
High pass :  disabled
---------------BEGIN--------------------
Wavelength(nm)             Reflectance(%)
200.29               0
200.75        93.71389
201.21        84.14723
201.67        73.57028
202.13        67.79194
202.58        67.47615
203.04        71.27568
203.50        76.93594
203.96        80.42034
204.42        80.58989
204.88          78.919
205.34        77.19067
205.80        77.33978
206.26        80.21009
206.72         87.1902
207.18        100.4654
207.64        110.0627
208.10        98.55817
208.55        80.38643
209.01        69.51723
209.47        65.64687
209.93        65.60421
210.39        68.11937
210.85        71.20448
211.31        70.88993
211.77        66.21976
212.23        58.78548
212.69        52.14494
213.14        51.85215
213.60        58.56781
214.06        70.53968
214.52        83.71625
214.98          91.954
215.44         93.5312
215.90        90.29885
216.36        84.73734
216.81        80.26381
217.27        78.18692
217.73          77.484
218.19        76.58398
218.65        73.23724
219.11        66.40092
219.57        55.28074
220.02        41.26469
220.48        32.86489
220.94        35.03653
221.40        45.75287
221.86        56.46605
222.32        58.18572
222.77         51.7892
223.23          42.022
223.69        33.79014
224.15        32.14272
224.61        36.44751
225.06        44.05783
225.52         51.4055
225.98        53.96387
226.44        51.01478
226.90        44.73553
227.36        37.52861
227.81        32.54933
228.27        30.93321
228.73        31.43522
229.19        33.49717
229.65        36.26906
230.10        39.05013
230.56        41.81823
231.02        44.11234
231.48        45.37137
231.93        45.63503
232.39        45.11374
232.85        44.13237
233.31        43.27826
233.77        42.73459
234.22        42.37534
234.68        42.20117
235.14        42.10484
235.60        42.10175
236.05        42.37405
236.51        42.88982
236.97        43.55764
237.43        44.43983
237.88        45.59456
238.34         47.3193
238.80        50.22858
239.26        54.26368
239.71        59.21614
240.17        63.71224
240.63        66.08875
241.08        66.10831
241.54        64.14088
242.00         61.7677
242.46        61.28083
242.91        64.15555
243.37        73.08906
243.83        100.8819
244.28        182.9019
244.74        259.8237
245.20        198.2253
245.66        151.0786
246.11        138.3841
246.57        144.8833
247.03        177.2078
247.48         277.952
247.94        236.8139
248.40        131.4369
248.85        98.38614
249.31        88.78609
249.77        88.55672
250.22        93.93909
250.68        105.0324
251.14        121.9184
251.59        135.0741
252.05        133.5806
252.51        121.0932
252.96        105.9675
253.42         96.7021
253.88        93.14478
254.33        92.41173
254.79        94.21079
255.25        97.60645
255.70        101.3508
256.16        105.5386
256.62        108.3983
257.07        108.0303
257.53        105.2964
257.99        100.6994
258.44        95.60654
258.90        92.77656
259.35        91.32813
259.81        90.51657
260.27        88.91486
260.72         85.1233
261.18        79.92033
261.63        73.85945
262.09        68.18674
262.55        63.57684
263.00        60.09697
263.46        57.60644
263.91        55.58962
264.37        53.82698
264.83        52.03595
265.28        50.15316
265.74         48.3887
266.19        46.79551
266.65        45.57937
267.11        44.62842
267.56        43.73711
268.02        42.64643
268.47        41.23037
268.93        39.57996
269.38        37.82989
269.84        36.45338
270.30        35.58967
270.75        35.13889
271.21        34.88245
271.66        34.47897
272.12        33.82087
272.57        32.99929
273.03        32.19661
273.48        31.59702
273.94        31.26939
274.39        31.10386
274.85        30.94956
275.31        30.57715
275.76        29.94013
276.22        29.14578
276.67        28.35114
277.13        27.88353
277.58        27.72644
278.04        27.78564
278.49        27.81192
278.95        27.52045
279.40        26.84501
279.86        25.97435
280.31        25.03727
280.77         24.3412
281.22        23.92109
281.68        23.70014
282.13        23.62387
282.59        23.65437
283.04        23.74176
283.50        23.92998
283.95        24.09336
284.41        24.05593
284.86        23.79482
285.32        23.37756
285.77        22.99506
286.22         23.0064
286.68        23.43688
287.13        24.12943
287.59        24.82528
288.04         25.1278
288.50        24.98341
288.95        24.51577
289.41        23.94118
289.86        23.47118
290.32        23.24232
290.77        23.18314
291.22         23.3058
291.68        23.58833
292.13        24.02467
292.59        24.64269
293.04        25.43729
293.50        26.38713
293.95        27.45546
294.40         28.6001
294.86        29.78255
295.31        30.96519
295.77        32.14999
296.22         33.3571
296.68        34.57957
297.13        35.77436
297.58        36.95637
298.04        38.14912
298.49        39.45311
298.95        41.07851
299.40        43.03947
299.85        45.26539
300.31        47.55894
300.76        49.59734
301.21        51.27298
301.67        52.70665
302.12        53.99162
302.58        55.38453
303.03        56.92397
303.48        58.56915
303.94        60.33694
304.39        62.18693
304.84        64.10847
305.30        66.10758
305.75        68.06734
306.20        69.83438
306.66         71.3958
307.11        72.73462
307.57        73.98237
308.02        75.21507
308.47        76.52637
308.93        77.90653
309.38        79.31094
309.83        80.72384
310.29        82.11573
310.74         83.4456
311.19        84.72704
311.65        85.97889
312.10        87.18732
312.55        88.36575
313.00         89.4049
313.46        90.13757
313.91        90.53305
314.36        90.66362
314.82        90.78115
315.27        91.21798
315.72        92.07914
316.18        93.26726
316.63        94.55846
317.08        95.52876
317.53        96.05537
317.99        96.24467
318.44        96.33421
318.89        96.72012
319.35        97.47399
319.80        98.49756
320.25        99.50655
320.70        100.0386
321.16        99.98601
321.61        99.50378
322.06        98.89423
322.51        98.62878
322.97        98.80426
323.42        99.32711
323.87        99.95358
324.32        100.2671
324.78        100.1489
325.23        99.78408
325.68        99.37256
326.13        99.26424
326.59        99.52787
327.04        100.0698
327.49        100.7432
327.94        101.3436
328.39        101.7858
328.85         102.112
329.30        102.3742
329.75        102.4828
330.20        102.4735
330.66        102.3594
331.11        102.3507
331.56        102.7077
332.01        103.5032
332.46        104.6524
332.92        105.9709
333.37        107.3139
333.82        108.4699
334.27        109.4629
334.72        110.1893
335.17        110.5144
335.63        110.4512
336.08        110.1008
336.53        109.6821
336.98        109.6032
337.43        109.9789
337.88        110.7081
338.34        111.6606
338.79        112.7005
339.24        113.6943
339.69        114.6992
340.14        115.5583
340.59        116.0029
341.05        116.0102
341.50        115.6361
341.95        115.1917
342.40        115.1785
342.85        115.7004
343.30        116.6197
343.75        117.6619
344.20        118.3294
344.66        118.4873
345.11        118.2802
345.56        117.8955
346.01        117.6126
346.46        117.5337
346.91        117.5751
347.36        117.7083
347.81        117.9016
348.26        118.1313
348.72        118.4256
349.17        118.7375
349.62        119.0228
350.07        119.2477
350.52         119.394
350.97        119.4394
351.42        119.3683
351.87        119.1873
352.32        118.9124
352.77        118.5714
353.22        118.2103
353.67         117.852
354.13        117.5077
354.58        117.1685
355.03        116.8743
355.48        116.6217
355.93        116.4016
356.38        116.1543
356.83        115.7854
357.28        115.2708
357.73        114.6268
358.18        113.9202
358.63        113.2609
359.08        112.6785
359.53        112.1538
359.98         111.609
360.43        110.9203
360.88        110.0632
361.33        109.0717
361.78        108.0712
362.23        107.2627
362.68        106.6958
363.13        106.3282
363.58        105.9885
364.03         105.402
364.48        104.5156
364.93        103.4065
365.38        102.2924
365.83        101.5298
366.28        101.1787
366.73        101.0982
367.18         101.043
367.63        100.6185
368.08        99.74258
368.53        98.59164
368.98        97.33036
369.43        96.19368
369.88        95.26785
370.33         94.4685
370.78        93.84975
371.23        93.50735
371.68        93.42465
372.13        93.58016
372.58        93.76305
373.03        93.60529
373.48        93.03056
373.93        92.14917
374.38        91.18929
374.83         90.5121
375.28        90.19912
375.72        90.11537
376.17        90.14159
376.62        90.06052
377.07        89.78371
377.52        89.36509
377.97        88.82036
378.42        88.17124
378.87        87.46257
379.32        86.72503
379.77        85.97566
380.22        85.23363
380.67        84.50566
381.11         83.7814
381.56        83.15405
382.01        82.77495
382.46        82.66563
382.91        82.79752
383.36        82.93615
383.81        82.70998
384.26        82.05779
384.71        81.08243
385.15        80.09053
385.60        79.61758
386.05        79.70067
386.50        80.16592
386.95        80.65407
387.40        80.56181
387.85        79.80415
388.29        78.62827
388.74        77.48336
389.19        76.68157
389.64        76.27943
390.09         76.1003
390.54        76.12097
390.98        76.30972
391.43        76.59886
391.88        76.97838
392.33        77.21399
392.78        76.93507
393.23        76.15662
393.67        75.05303
394.12        74.03663
394.57        73.36737
395.02        73.16956
395.47        73.50123
395.91        74.22517
396.36        74.78848
396.81        75.04595
397.26        75.16811
397.71        75.12708
398.15        74.74341
398.60        74.14106
399.05         73.4678
399.50        72.81725
399.95        71.95904
400.39        71.34224
400.84        71.06023
401.29        71.15659
401.74        71.32487
402.18        71.45519
402.63        71.39227
403.08        71.25646
403.53        71.41507
403.97        71.87005
404.42        72.35882
404.87        72.67733
405.32         72.5614
405.76        71.95792
406.21        71.13465
406.66        70.30399
407.11        69.60149
407.55        69.23997
408.00        69.45893
408.45        70.11053
408.90        70.74793
409.34        71.02386
409.79         70.5027
410.24        69.49775
410.68        69.02945
411.13        69.20679
411.58        69.44356
412.03          69.649
412.47        69.93705
412.92        70.20401
413.37        70.45185
413.81        70.59792
414.26        70.55776
414.71        70.31016
415.15        69.87248
415.60        69.38863
416.05        69.11142
416.49        69.10808
416.94        69.33582
417.39        69.60151
417.83         69.5548
418.28        69.14121
418.73        68.48357
419.17         67.8597
419.62        67.71108
420.07          68.078
420.51        68.80397
420.96        69.59441
421.41        69.90011
421.85        69.57106
422.30        69.05538
422.74        68.48924
423.19        67.80801
423.64        67.22612
424.08        67.51912
424.53        68.50716
424.98        69.07917
425.42        69.07887
425.87        69.32771
426.31        69.78883
426.76         69.5563
427.21        68.91666
427.65        69.22076
428.10        70.35259
428.54        71.17178
428.99        71.59476
429.44        71.83093
429.88        71.87624
430.33        72.46667
430.77        73.06651
431.22        71.80436
431.66        69.25708
432.11        68.05636
432.56        68.42874
433.00        69.09547
433.45        69.95309
433.89        71.77115
434.34        73.19714
434.78        74.52679
435.23        71.02709
435.67        69.04729
436.12        71.28195
436.57        72.37098
437.01        72.99081
437.46        73.29968
437.90        73.51787
438.35        72.61662
438.79        73.43266
439.24        73.31916
439.68        73.15137
440.13        72.78463
440.57        72.57967
441.02        73.62427
441.46        75.41998
441.91        76.27201
442.35        75.96693
442.80        74.93996
443.24        73.69451
443.69        74.32719
444.13        76.37586
444.58        76.35685
445.02        74.49529
445.47         74.1104
445.91         75.1626
446.36        75.49559
446.80        75.05322
447.24        74.96207
447.69        75.25158
448.13        75.49697
448.58        75.68873
449.02        75.88688
449.47        76.07677
449.91        76.25087
450.36        76.40535
450.80        76.51777
451.25        76.55987
451.69        76.46377
452.13         76.2491
452.58        75.94271
453.02        75.65398
453.47        75.59527
453.91        75.78266
454.36        76.16125
454.80        76.56268
455.24         76.6397
455.69        76.34789
456.13        75.85783
456.58        75.39564
457.02        74.99825
457.46        74.84728
457.91        75.24088
458.35        75.93354
458.79         76.2469
459.24        76.14063
459.68        75.81709
460.13         75.3494
460.57        75.03143
461.01        75.03342
461.46        74.05513
461.90        73.76653
462.34        74.30962
462.79        73.69617
463.23         73.8148
463.68        73.92634
464.12        74.19598
464.56        74.51128
465.01        74.76141
465.45        74.74979
465.89        74.61251
466.34        74.30328
466.78        73.21416
467.22        71.89163
467.67        71.64058
468.11        72.83418
468.55        73.59327
468.99        73.68742
469.44        73.33376
469.88        72.74026
470.32        72.65034
470.77        73.00251
471.21         72.9356
471.65        72.42365
472.10        72.13431
472.54        72.13042
472.98        72.17513
473.42        72.25444
473.87        72.56006
474.31        72.91398
474.75        72.82188
475.20        72.37732
475.64        72.15833
476.08        72.23879
476.52        72.14781
476.97         71.8908
477.41        71.97376
477.85        72.39958
478.29         71.9006
478.74        72.52793
479.18        72.19904
479.62        71.68761
480.06        72.28557
480.50        72.47604
480.95         72.8263
481.39        72.91046
481.83        71.74818
482.27         71.9157
482.72        71.72086
483.16        70.22629
483.60        70.51059
484.04        72.07241
484.48        72.46272
484.93         72.0927
485.37        74.06564
485.81        74.30287
486.25        73.27656
486.69        99.14817
487.14        80.54346
487.58        50.14597
488.02        61.24921
488.46        69.83203
488.90        68.73456
489.34        70.59436
489.79         69.7478
490.23        71.78493
490.67        72.62868
491.11        71.61025
491.55        71.64068
491.99        72.24462
492.43        72.11169
492.88        71.32463
493.32        71.22221
493.76        71.34026
494.20        71.56802
494.64        71.65642
495.08        71.94568
495.52        72.36936
495.96        72.15607
496.41        71.40573
496.85        71.76296
497.29         72.9204
497.73        71.81017
498.17        69.46429
498.61        69.73392
499.05        72.58324
499.49        73.11821
499.93         72.8961
500.37        72.61372
500.82        72.16666
501.26        72.09377
501.70        72.22243
502.14        72.49345
502.58        72.69937
503.02        72.68375
503.46        72.41471
503.90        71.93723
504.34         71.4343
504.78        71.19998
505.22        71.29541
505.66         71.6134
506.10        72.01856
506.54        72.23497
506.98        72.11174
507.42        71.85372
507.86        71.54654
508.30        70.75784
508.74        71.36212
509.18        71.67478
509.62        72.08418
510.06        72.21441
510.50        72.22359
510.94        71.99966
511.38        71.71079
511.82        71.56019
512.26        71.59889
512.70        71.75707
513.14        71.96661
513.58        72.12592
514.02         72.1925
514.46        72.19943
514.90        72.16734
515.34         72.1092
515.78        72.02729
516.22        71.97118
516.66        71.94515
517.10        71.80115
517.54        71.54292
517.98        71.75941
518.42        71.63909
518.86        71.76624
519.30        71.88954
519.74        72.07182
520.18        72.26606
520.62        72.38881
521.06        72.42936
521.50        72.40038
521.93        72.33651
522.37        72.29568
522.81         72.2993
523.25         72.3334
523.69        72.38058
524.13        72.41287
524.57        72.42522
525.01        72.42988
525.45        72.44003
525.89        72.47686
526.32        72.53204
526.76        72.58647
527.20        72.62081
527.64        72.62504
528.08        72.61137
528.52        72.53197
528.96        72.35072
529.40        72.21455
529.83        72.17292
530.27        71.45979
530.71        71.56347
531.15        71.46555
531.59        71.60589
532.03        71.89777
532.46        72.29433
532.90        72.67815
533.34        72.97914
533.78        73.21961
534.22        73.35418
534.66        73.32944
535.09         73.1409
535.53        72.83321
535.97         72.4817
536.41        72.23267
536.85        72.13021
537.28         72.1474
537.72        72.22547
538.16        72.27332
538.60        72.26332
539.04        72.16942
539.47        72.02635
539.91         72.0789
540.35        72.25906
540.79        72.24132
541.22        72.04414
541.66        71.99379
542.10        72.08935
542.54         72.1368
542.97        72.13527
543.41        72.19423
543.85        72.30318
544.29        72.45995
544.72          72.563
545.16        72.48438
545.60        72.20165
546.04        71.75546
546.47        71.34637
546.91        71.29053
547.35        71.63167
547.79        72.33381
548.22        73.06415
548.66        73.22031
549.10        72.73286
549.53        71.91121
549.97        71.10603
550.41        70.68703
550.84        70.77082
551.28        71.27101
551.72        71.96893
552.15         72.4198
552.59        72.49293
553.03        72.47531
553.46        72.18421
553.90        72.04795
554.34        72.03879
554.77        72.01612
555.21        71.93816
555.65         71.9873
556.08        72.19423
556.52        71.63708
556.96        71.99628
557.39         71.9053
557.83        71.88741
558.27        71.88104
558.70        71.91618
559.14        72.03512
559.57        72.20204
560.01        72.37572
560.45        72.49173
560.88        72.54391
561.32        72.50098
561.75        72.17908
562.19        71.73369
562.63        71.38222
563.06        71.23433
563.50        71.42587
563.93        71.82536
564.37        72.12811
564.80        72.20724
565.24        72.09363
565.68        71.83969
566.11        71.67545
566.55        71.68785
566.98        71.60942
567.42        71.50275
567.85        71.79411
568.29        72.39514
568.72        72.44615
569.16        72.16363
569.60        72.52278
570.03        73.20517
570.47        73.18158
570.90        72.74064
571.34        71.29661
571.77        72.25998
572.21        72.08901
572.64        71.91319
573.08         70.5932
573.51        67.64592
573.95        70.28476
574.38        74.89836
574.82        72.55516
