SpectraSmart Spectrum 2.9.0.0
--------- Device Information -----------
Spectrum Name :  反射率_0
Saving Time :  2024/04/26 01:51:21
Spectro-Module Model Name : SE2030-DUVN
Spectro-Module Serial Number : OS361AC55029948
Wavelength Start : 200
Wavelength End : 1025
Wavelength Unit : Wavelength(nm)
Spectrum Unit : Reflectance(%)
-----------Spectrum Setting ------------
Integration Time : 20ms
Average : 10
Boxcar : 0
Background removal :  enabled
linearity correction :  enabled
SC :  disabled
Intensity correction :  disabled
DWT denoise :  enabled
savitzky-golay :  disabled
FFT :  disabled
Running average :  disabled
Kalman :  disabled
High pass :  disabled
---------------BEGIN--------------------
Wavelength(nm)             Reflectance(%)
200.29               0
200.75        104.9949
201.21        95.77615
201.67         84.2875
202.13        76.68717
202.58        73.94218
203.04        74.47091
203.50         76.8676
203.96        78.85942
204.42        79.55434
204.88        79.75684
205.34          79.986
205.80        80.81788
206.26        82.75812
206.72        86.65894
207.18        93.68995
207.64        99.10442
208.10        93.78813
208.55         84.3078
209.01        78.75426
209.47        77.50317
209.93        78.81757
210.39         82.0625
210.85        85.47194
211.31        85.19122
211.77        80.30321
212.23        72.47156
212.69        65.04498
213.14        63.23016
213.60        67.73085
214.06        77.05114
214.52        88.01752
214.98         95.6977
215.44        98.50958
215.90          97.825
216.36        95.10905
216.81        92.28901
217.27        90.47093
217.73        89.12542
218.19        87.50969
218.65        84.53197
219.11        79.48986
219.57        71.50985
220.02        61.55693
220.48        55.77248
220.94         57.4156
221.40        65.12347
221.86        71.90342
222.32        70.40192
222.77        61.80714
223.23        50.58881
223.69        41.40596
224.15         39.0442
224.61        42.84587
225.06        50.30547
225.52        57.89072
225.98        61.12045
226.44         59.2139
226.90        54.09821
227.36        48.26813
227.81         45.0713
228.27        45.50953
228.73        48.15848
229.19        51.65585
229.65        54.04177
230.10        54.77506
230.56        54.65434
231.02        54.26529
231.48        54.21169
231.93        54.58295
232.39        55.16409
232.85        55.68742
233.31        55.86407
233.77        55.61419
234.22        55.02399
234.68        54.39087
235.14        54.20771
235.60        54.63173
236.05        55.56743
236.51        56.55463
236.97        56.89893
237.43        56.47816
237.88        55.44718
238.34        54.35208
238.80        54.90251
239.26        57.82362
239.71        62.78681
240.17        68.23581
240.63        71.93092
241.08        73.22488
241.54        72.60703
242.00        71.23701
242.46        70.79824
242.91        72.42507
243.37        77.27006
243.83        93.37395
244.28         148.107
244.74        213.5365
245.20        182.0548
245.66        151.6151
246.11        144.6546
246.57        153.0473
247.03        185.2362
247.48        278.7364
247.94        226.7772
248.40         125.897
248.85        95.48956
249.31        86.71195
249.77        86.01843
250.22        89.85298
250.68        98.31025
251.14        111.2645
251.59        120.6805
252.05          118.27
252.51        107.6587
252.96        95.83886
253.42        89.93022
253.88        89.68068
254.33        92.30152
254.79        97.51824
255.25        104.3026
255.70         110.857
256.16        117.0034
256.62        120.6774
257.07         119.719
257.53        115.3765
257.99        108.6506
258.44        101.3603
258.90        96.80785
259.35        94.28219
259.81        92.95982
260.27        91.33367
260.72        87.92213
261.18        83.38795
261.63        78.14758
262.09        73.35479
262.55        69.54011
263.00        66.67461
263.46        64.63493
263.91        62.87782
264.37        61.23076
264.83        59.41676
265.28        57.38345
265.74         55.3595
266.19        53.40509
266.65        51.80973
267.11        50.51454
267.56        49.33721
268.02        48.04871
268.47        46.50338
268.93        44.77341
269.38        43.02814
269.84        41.79664
270.30        41.20392
270.75        41.11163
271.21        41.16202
271.66        40.80886
272.12          39.921
272.57         38.6534
273.03        37.35254
273.48        36.44989
273.94        36.07195
274.39         36.0231
274.85        36.04184
275.31        35.72189
275.76        34.97659
276.22        33.99072
276.67        32.97668
277.13        32.34871
277.58         32.1101
278.04        32.13614
278.49        32.15882
278.95        31.89065
279.40        31.24257
279.86        30.39934
280.31         29.4695
280.77        28.73739
281.22        28.23173
281.68        27.90186
282.13        27.68065
282.59        27.52285
283.04        27.38751
283.50        27.33104
283.95        27.29192
284.41        27.19844
284.86        27.03023
285.32        26.81192
285.77        26.63404
286.22        26.70869
286.68        27.03325
287.13        27.50014
287.59        27.92399
288.04        28.01307
288.50        27.74917
288.95        27.22122
289.41        26.62468
289.86        26.13614
290.32         25.8786
290.77        25.78582
291.22        25.87019
291.68        26.10633
292.13        26.48179
292.59        27.01964
293.04        27.70055
293.50        28.48679
293.95         29.3467
294.40        30.25532
294.86        31.20057
295.31        32.18235
295.77        33.21064
296.22        34.28864
296.68        35.40639
297.13        36.51434
297.58        37.61797
298.04        38.74432
298.49        39.95464
298.95        41.39925
299.40        43.08645
299.85        44.96298
300.31        46.90852
300.76        48.72427
301.21        50.33371
301.67        51.83028
302.12        53.22186
302.58        54.63332
303.03         56.0822
303.48        57.56919
303.94        59.20935
304.39         61.1094
304.84        63.28482
305.30        65.69411
305.75        68.10359
306.20         70.1817
306.66        71.87672
307.11        73.21917
307.57        74.46794
308.02        75.89175
308.47        77.61324
308.93        79.55426
309.38        81.52307
309.83        83.27358
310.29        84.73537
310.74        85.95668
311.19        87.10175
311.65        88.41769
312.10        89.94762
312.55         91.6294
313.00        93.25365
313.46          94.486
313.91        95.22955
314.36        95.59762
314.82        95.88157
315.27        96.47312
315.72        97.50388
316.18        98.85774
316.63        100.2928
317.08        101.3609
317.53        101.9383
317.99        102.1476
318.44        102.2746
318.89         102.785
319.35        103.7612
319.80        105.0882
320.25        106.4068
320.70         107.125
321.16        107.1044
321.61        106.5382
322.06         105.816
322.51        105.5488
322.97        105.8664
323.42        106.6362
323.87        107.5452
324.32        108.0573
324.78        108.0111
325.23        107.6273
325.68         107.152
326.13        107.0121
326.59           107.3
327.04        107.9055
327.49        108.6455
327.94        109.2605
328.39        109.6556
328.85        109.8949
329.30        110.0881
329.75        110.2244
330.20        110.3577
330.66        110.4692
331.11        110.7134
331.56        111.2614
332.01        112.1585
332.46        113.3375
332.92        114.6376
333.37          115.98
333.82        117.1688
334.27        118.2136
334.72        118.9896
335.17        119.3265
335.63        119.2322
336.08        118.8318
336.53        118.3744
336.98         118.317
337.43        118.7785
337.88        119.6281
338.34        120.7057
338.79        121.8337
339.24        122.8602
339.69        123.8649
340.14        124.6661
340.59        124.9593
341.05        124.7387
341.50        124.0787
341.95        123.3962
342.40        123.3432
342.85        124.0461
343.30         125.333
343.75        126.7966
344.20        127.7021
344.66        127.8516
345.11        127.4504
345.56        126.8318
346.01        126.5059
346.46        126.6151
346.91        126.9843
347.36         127.448
347.81        127.7665
348.26        127.8657
348.72        127.8516
349.17         127.773
349.62        127.7362
350.07        127.7686
350.52        127.8178
350.97        127.8355
351.42        127.7642
351.87        127.5905
352.32        127.3422
352.77        127.0516
353.22        126.7666
353.67        126.4986
354.13        126.2397
354.58        125.9419
355.03         125.595
355.48        125.1894
355.93        124.7375
356.38        124.2266
356.83        123.6364
357.28        122.9702
357.73        122.2358
358.18         121.481
358.63          120.78
359.08        120.1515
359.53        119.5856
359.98        119.0211
360.43        118.3567
360.88        117.5676
361.33        116.6727
361.78          115.76
362.23         114.976
362.68        114.3567
363.13        113.8703
363.58        113.3904
364.03        112.7136
364.48        111.8021
364.93        110.7169
365.38        109.6203
365.83        108.7785
366.28        108.2362
366.73        107.8837
367.18        107.5509
367.63         106.967
368.08        106.0749
368.53        105.0048
368.98        103.8461
369.43        102.7148
369.88        101.6696
370.33        100.6739
370.78        99.81747
371.23        99.25742
371.68        99.00246
372.13        98.99837
372.58        99.06828
373.03        98.90328
373.48        98.42187
373.93        97.72038
374.38        96.91224
374.83        96.17628
375.28        95.57229
375.72        95.02985
376.17        94.58047
376.62        94.25736
377.07        94.03947
377.52        93.90441
377.97        93.75055
378.42        93.40755
378.87        92.85085
379.32        92.15537
379.77        91.38626
380.22        90.63621
380.67        89.93015
381.11        89.22769
381.56        88.58418
382.01        88.09851
382.46        87.79259
382.91        87.67673
383.36        87.58124
383.81        87.22791
384.26        86.57916
384.71        85.70682
385.15        84.86714
385.60        84.52707
386.05        84.69578
386.50        85.21029
386.95        85.71482
387.40        85.61536
387.85        84.83134
388.29        83.60195
388.74        82.38564
389.19        81.48818
389.64        80.97091
390.09        80.66798
390.54        80.57527
390.98        80.69192
391.43         80.9589
391.88        81.35229
392.33         81.6273
392.78        81.38896
393.23        80.63718
393.67        79.56644
394.12        78.57431
394.57        77.83327
395.02        77.49296
395.47        77.74577
395.91        78.45169
396.36        78.93521
396.81        79.05852
397.26         79.0782
397.71         78.9973
398.15        78.62318
398.60        78.07403
399.05        77.52764
399.50         77.0404
399.95        76.20245
400.39        75.51321
400.84         75.3521
401.29        75.70745
401.74        75.80023
402.18        75.56498
402.63        75.36956
403.08        75.33844
403.53        75.46173
403.97         75.7402
404.42        76.12778
404.87        76.44496
405.32        76.35292
405.76        75.78713
406.21        75.05284
406.66        74.33058
407.11        73.62841
407.55        73.17538
408.00        73.43269
408.45        74.22018
408.90        74.72285
409.34        74.66158
409.79        74.08991
410.24        73.27776
410.68        72.82634
411.13        72.83486
411.58        72.94114
412.03        73.09212
412.47         73.3649
412.92        73.66387
413.37        73.99552
413.81        74.24656
414.26        74.28919
414.71        74.08986
415.15        73.67563
415.60        73.19942
416.05        72.93353
416.49        72.95149
416.94        73.19803
417.39        73.48878
417.83        73.48653
418.28        73.13694
418.73        72.56484
419.17        72.01458
419.62        71.88009
420.07        72.18871
420.51        72.79217
420.96        73.45352
421.41        73.68945
421.85        73.36247
422.30        72.99575
422.74          72.621
423.19        71.82913
423.64        70.91087
424.08        71.14086
424.53        72.35204
424.98        73.00718
425.42         72.9252
425.87        73.23616
426.31        73.85976
426.76        73.57298
427.21        72.70371
427.65        72.92585
428.10        74.12165
428.54        74.95223
428.99        75.34641
429.44        75.51397
429.88        75.47855
430.33        76.27823
430.77        77.21101
431.22        75.71011
431.66        72.53444
432.11        71.17056
432.56        71.86042
433.00        72.79314
433.45        73.77113
433.89        75.67276
434.34        77.06863
434.78        78.41113
435.23        74.71013
435.67        72.44554
436.12        74.31496
436.57        75.54262
437.01        76.75857
437.46         77.1496
437.90        76.80002
438.35        76.59196
438.79        76.77712
439.24        76.70448
439.68        76.46763
440.13         76.1636
440.57        76.08159
441.02        76.88148
441.46         78.2308
441.91        79.29379
442.35        79.65716
442.80        78.71598
443.24        77.02168
443.69        77.45134
444.13        79.59357
444.58        79.53452
445.02        77.52832
445.47        77.16881
445.91        78.37833
446.36         78.7673
446.80        78.25468
447.24        78.10865
447.69        78.41126
448.13        78.51751
448.58        78.88673
449.02        79.18398
449.47        79.49969
449.91        79.76491
450.36         79.9558
450.80        80.07884
451.25        80.10589
451.69         79.9132
452.13        79.56528
452.58        79.24825
453.02        79.02695
453.47        78.91707
453.91        78.89553
454.36        79.04292
454.80        79.33213
455.24        79.29684
455.69        78.85272
456.13        79.13932
456.58        79.09394
457.02        78.14297
457.46        77.40911
457.91        77.70271
458.35        79.00607
458.79        79.47948
459.24          79.062
459.68        78.65601
460.13        78.38031
460.57        78.05149
461.01        77.78622
461.46        77.17529
461.90        76.95128
462.34        76.96598
462.79        76.84832
463.23        76.95335
463.68        77.07227
464.12        77.34554
464.56         77.6455
465.01        77.72968
465.45        77.50542
465.89        77.28066
466.34        76.96729
466.78        76.09303
467.22        75.18363
467.67        74.17744
468.11        75.54435
468.55        76.16704
468.99        76.43282
469.44        76.10831
469.88         75.4201
470.32        75.38029
470.77        75.88326
471.21        75.88789
471.65        75.34095
472.10        74.97848
472.54        74.91357
472.98        74.93196
473.42        75.02304
473.87        75.48441
474.31        76.04799
474.75        75.80183
475.20        74.96524
475.64        74.78526
476.08        75.25706
476.52        75.28802
476.97        74.84515
477.41        74.76643
477.85        75.08058
478.29        74.70528
478.74        74.78397
479.18        74.93211
479.62        73.82339
480.06        74.51506
480.50        74.91814
480.95        75.41056
481.39        75.46024
481.83        74.73994
482.27        74.92227
482.72        74.43732
483.16        73.24255
483.60        73.37158
484.04        74.67426
484.48        75.18475
484.93        75.39622
485.37        76.51171
485.81        77.57679
486.25        76.00093
486.69         104.049
487.14        84.42666
487.58        52.06981
488.02        63.90734
488.46        72.35787
488.90        71.96194
489.34        73.53557
489.79        72.62066
490.23        74.61395
490.67        75.30341
491.11        74.09758
491.55        74.10686
491.99        74.83183
492.43         74.7122
492.88        73.82905
493.32        73.71455
493.76        73.86213
494.20        74.08596
494.64        74.13252
495.08        74.25756
495.52        74.50083
495.96        74.50082
496.41        74.25871
496.85        74.82406
497.29        75.84449
497.73        74.65185
498.17        72.32382
498.61         72.4537
499.05         75.0924
499.49        75.66703
499.93         75.7015
500.37        75.48899
500.82        74.97002
501.26        74.44524
501.70        74.68401
502.14        75.24899
502.58        74.99553
503.02        74.99872
503.46          74.868
503.90        74.58138
504.34        74.24195
504.78        74.07795
505.22        74.13767
505.66        74.35391
506.10        74.62527
506.54        74.71284
506.98        74.53928
507.42         74.3315
507.86        74.12423
508.30        73.68378
508.74        74.04459
509.18        74.28831
509.62        74.59001
510.06        74.73031
510.50        74.66729
510.94        74.46054
511.38        74.20979
511.82        74.09454
512.26        74.15836
512.70        74.34075
513.14         74.5747
513.58        74.75497
514.02        74.83663
514.46        74.84509
514.90        74.80429
515.34        74.73617
515.78         74.6461
516.22         74.5825
516.66        74.53382
517.10        74.33933
517.54        74.00311
517.98        74.07715
518.42        73.86436
518.86        73.96442
519.30         74.1553
519.74         74.4849
520.18        74.85085
520.62        75.05267
521.06        75.07461
521.50        75.00341
521.93        74.95043
522.37        74.88832
522.81        74.86696
523.25        74.90813
523.69        74.98061
524.13         75.0142
524.57         74.9983
525.01        74.95801
525.45        74.93053
525.89        74.97362
526.32        75.08781
526.76        75.24146
527.20        75.37266
527.64        75.43004
528.08        75.41914
528.52        75.23538
528.96        74.89983
529.40        74.81823
529.83        74.97758
530.27        74.19394
530.71        74.04697
531.15        73.83928
531.59        74.03998
532.03        74.35844
532.46        74.72284
532.90        75.06813
533.34        75.32079
533.78        75.49245
534.22        75.56206
534.66        75.51201
535.09        75.34445
535.53        75.09763
535.97        74.82327
536.41        74.62951
536.85        74.54929
537.28        74.56149
537.72        74.62839
538.16        74.69459
538.60        74.73576
539.04        74.70886
539.47        74.61433
539.91        74.65273
540.35        74.75004
540.79        74.59802
541.22        74.25774
541.66         74.1294
542.10        74.22948
542.54        74.33451
542.97        74.43121
543.41        74.61236
543.85         74.8509
544.29        75.14606
544.72        75.36137
545.16        75.32066
545.60        74.99537
546.04        74.42815
546.47        73.87195
546.91        73.75534
547.35        74.13263
547.79        74.88836
548.22        75.65194
548.66        75.82631
549.10        75.31761
549.53         74.3756
549.97        73.40769
550.41        72.93372
550.84        73.09007
551.28        73.71157
551.72        74.53836
552.15        75.07865
552.59        75.18472
553.03        75.07569
553.46        74.86584
553.90        74.50606
554.34        74.52693
554.77        74.38694
555.21        74.23187
555.65        74.27742
556.08        74.55498
556.52        74.20222
556.96        74.83963
557.39        74.63779
557.83        74.23365
558.27         74.1581
558.70        74.44361
559.14        74.64893
559.57        74.72925
560.01        74.96906
560.45        75.26675
560.88        75.34745
561.32        75.20338
561.75         74.8497
562.19        74.44373
562.63        74.09808
563.06        73.89722
563.50        73.99171
563.93        74.27301
564.37        74.44048
564.80        74.42782
565.24        74.42632
565.68         74.4338
566.11        74.41163
566.55        74.41773
566.98        74.37925
567.42        74.35766
567.85        74.57619
568.29        75.02454
568.72        75.17329
569.16        75.17226
569.60        75.61541
570.03        76.14026
570.47        75.96803
570.90        75.48051
571.34        73.84523
571.77        74.80836
572.21        75.06782
572.64         74.7682
573.08        73.65392
573.51        70.37821
573.95         73.2228
574.38         78.1881
574.82        75.78547
