SpectraSmart Spectrum 2.9.0.0
--------- Device Information -----------
Spectrum Name :  反射率_0
Saving Time :  2024/04/26 01:21:46
Spectro-Module Model Name : SE2030-DUVN
Spectro-Module Serial Number : OS361AC55029948
Wavelength Start : 200
Wavelength End : 1025
Wavelength Unit : Wavelength(nm)
Spectrum Unit : Reflectance(%)
-----------Spectrum Setting ------------
Integration Time : 20ms
Average : 10
Boxcar : 0
Background removal :  enabled
linearity correction :  enabled
SC :  disabled
Intensity correction :  disabled
DWT denoise :  enabled
savitzky-golay :  disabled
FFT :  disabled
Running average :  disabled
Kalman :  disabled
High pass :  disabled
---------------BEGIN--------------------
Wavelength(nm)             Reflectance(%)
200.29               0
200.75        102.5547
201.21        97.57063
201.67        91.25366
202.13        87.19358
202.58        85.92448
203.04        86.98123
203.50        88.56225
203.96        87.83708
204.42        84.69296
204.88        80.50598
205.34         77.3294
205.80        77.32668
206.26        81.51241
206.72        92.55979
207.18        115.3224
207.64        137.0729
208.10        126.9038
208.55        101.4209
209.01        84.61897
209.47        78.52608
209.93          78.663
210.39        82.66399
210.85        87.70808
211.31        88.12526
211.77        82.37603
212.23        72.77959
212.69        64.14765
213.14        63.83092
213.60        72.74545
214.06        88.33629
214.52        105.0556
214.98        114.4971
215.44         114.667
215.90        108.6796
216.36        100.0053
216.81        93.42432
217.27        90.72998
217.73        90.24316
218.19        90.67128
218.65        90.49071
219.11        88.95412
219.57        85.83437
220.02        81.52238
220.48        78.84835
220.94        78.94351
221.40        81.34772
221.86        81.83813
222.32        76.04453
222.77        65.45618
223.23        53.65816
223.69         44.6901
224.15        42.75614
224.61        46.97899
225.06        54.92145
225.52        63.00359
225.98         66.6127
226.44        64.89377
226.90        59.74211
227.36        53.52716
227.81        49.46616
228.27        48.61732
228.73        49.67612
229.19        51.67229
229.65         53.2094
230.10        53.83818
230.56        54.15004
231.02          54.353
231.48        54.61404
231.93        54.96593
232.39        55.30227
232.85        55.61129
233.31        55.99241
233.77        56.45308
234.22        57.01299
234.68        57.59341
235.14        57.96194
235.60        58.07189
236.05        58.01434
236.51        57.99009
236.97        58.29047
237.43        59.07029
237.88        60.45913
238.34        62.40757
238.80        64.78168
239.26        67.26798
239.71        69.88642
240.17        72.21287
240.63        74.27712
241.08        76.18233
241.54         77.7158
242.00        79.26621
242.46        81.73143
242.91         86.5696
243.37        96.96743
243.83        126.2772
244.28        211.5795
244.74        290.3987
245.20        224.1024
245.66        174.9553
246.11         163.361
246.57        174.0493
247.03        218.7475
247.48        357.1342
247.94        305.3933
248.40        161.9452
248.85        115.8403
249.31        101.3161
249.77        98.52757
250.22        101.8438
250.68         110.604
251.14        124.3808
251.59        134.1949
252.05         130.788
252.51        118.1632
252.96        104.3838
253.42        97.38084
253.88         96.6964
254.33        99.35617
254.79        104.2134
255.25        109.0958
255.70        112.7299
256.16        115.9429
256.62        117.7559
257.07        117.0497
257.53        114.6924
257.99        110.7774
258.44        106.3242
258.90        103.7735
259.35        102.2153
259.81        101.2205
260.27         99.4362
260.72        95.51101
261.18        90.30164
261.63        84.26376
262.09        78.71506
262.55        74.34624
263.00        71.13776
263.46         68.9199
263.91        67.08096
264.37        65.40239
264.83        63.57315
265.28        61.55286
265.74        59.53907
266.19        57.52917
266.65        55.82615
267.11        54.38259
267.56        53.07201
268.02        51.74923
268.47        50.25972
268.93        48.65479
269.38        47.03436
269.84        45.80463
270.30        45.06369
270.75        44.71474
271.21        44.49522
271.66        43.99558
272.12        43.11872
272.57        41.98252
273.03        40.85065
273.48        40.02408
273.94        39.60347
274.39        39.42371
274.85        39.31238
275.31        38.98992
275.76        38.37673
276.22        37.60219
276.67        36.76327
277.13        36.11868
277.58        35.65593
278.04         35.3369
278.49         34.9971
278.95        34.49759
279.40        33.77593
279.86         32.9655
280.31        32.12875
280.77        31.48959
281.22        31.04363
281.68         30.7564
282.13        30.54681
282.59         30.3549
283.04        30.13978
283.50        29.96896
283.95        29.79364
284.41        29.57125
284.86        29.29391
285.32        28.98499
285.77        28.74886
286.22        28.81882
286.68        29.18673
287.13        29.72819
287.59        30.22399
288.04        30.32716
288.50        30.01051
288.95        29.38005
289.41        28.65217
289.86        28.03184
290.32        27.65714
290.77        27.45437
291.22        27.44643
291.68        27.62214
292.13        27.96738
292.59        28.50164
293.04        29.18366
293.50        29.94098
293.95        30.73014
294.40        31.52867
294.86        32.33887
295.31        33.18599
295.77        34.08149
296.22        35.01562
296.68        35.95818
297.13         36.8294
297.58        37.63514
298.04        38.42583
298.49        39.28445
298.95        40.38799
299.40         41.7557
299.85        43.32579
300.31        44.98882
300.76        46.56661
301.21        47.97482
301.67        49.28596
302.12        50.46854
302.58        51.58364
303.03        52.63486
303.48        53.63986
303.94        54.72778
304.39        56.03619
304.84        57.59576
305.30        59.35935
305.75        61.12631
306.20        62.61066
306.66        63.77423
307.11        64.65897
307.57        65.47466
308.02        66.41974
308.47        67.59808
308.93        68.94373
309.38        70.33784
309.83        71.64761
310.29          72.816
310.74        73.85308
311.19        74.81528
311.65        75.78508
312.10        76.77533
312.55        77.77599
313.00         78.6912
313.46        79.37599
313.91        79.79459
314.36        80.01143
314.82        80.22579
315.27        80.69472
315.72        81.50156
316.18        82.56505
316.63        83.70045
317.08        84.55849
317.53        85.03643
317.99         85.2159
318.44        85.30214
318.89        85.63817
319.35        86.28426
319.80          87.161
320.25        88.01117
320.70        88.41219
321.16        88.27771
321.61        87.76252
322.06        87.15991
322.51        86.92413
322.97        87.14935
323.42         87.7355
323.87        88.46242
324.32        88.95109
324.78        89.07502
325.23        88.98592
325.68        88.81172
326.13        88.78968
326.59        88.96693
327.04          89.281
327.49        89.66062
327.94        90.02521
328.39        90.34091
328.85        90.63795
329.30         90.9363
329.75        91.10253
330.20        91.14651
330.66        91.08274
331.11        91.13428
331.56        91.58842
332.01        92.51072
332.46        93.80149
332.92        95.19836
333.37        96.40095
333.82        97.18292
334.27        97.62256
334.72        97.77389
335.17        97.76885
335.63        97.69824
336.08        97.58295
336.53        97.52276
336.98        97.71896
337.43         98.2132
337.88        98.96185
338.34        99.85179
338.79        100.7687
339.24        101.6064
339.69        102.4037
340.14        103.0618
340.59         103.426
341.05        103.4914
341.50        103.2829
341.95        103.0376
342.40        103.1378
342.85        103.6574
343.30        104.4984
343.75        105.4072
344.20        105.9259
344.66        105.9461
345.11         105.603
345.56        105.1232
346.01         104.847
346.46        104.8748
346.91        105.0986
347.36        105.4232
347.81        105.7083
348.26        105.9057
348.72        106.0824
349.17        106.2334
349.62        106.3895
350.07        106.5542
350.52        106.6976
350.97        106.8048
351.42        106.8713
351.87        106.8929
352.32        106.8699
352.77        106.8071
353.22        106.7115
353.67        106.5834
354.13        106.4357
354.58        106.2283
355.03        105.9568
355.48        105.6206
355.93        105.2267
356.38         104.796
356.83        104.3602
357.28         103.928
357.73         103.495
358.18         103.045
358.63        102.5474
359.08        102.0045
359.53        101.4403
359.98         100.874
360.43        100.3336
360.88        99.81906
361.33        99.30008
361.78         98.7906
362.23        98.31689
362.68        97.87724
363.13        97.47871
363.58        97.03027
364.03        96.38371
364.48        95.52885
364.93        94.51664
365.38        93.52212
365.83        92.82984
366.28        92.49162
366.73        92.40514
367.18        92.38464
367.63        92.12499
368.08        91.54764
368.53        90.76678
368.98         89.8852
369.43        89.05161
369.88        88.32464
370.33        87.65683
370.78        87.07863
371.23        86.64926
371.68        86.36838
372.13        86.22572
372.58         86.1445
373.03        85.98149
373.48        85.69728
373.93        85.32976
374.38          84.921
374.83        84.54034
375.28        84.20919
375.72        83.89006
376.17        83.60368
376.62        83.36411
377.07        83.15738
377.52        82.95985
377.97        82.73353
378.42        82.41517
378.87        81.99941
379.32        81.53368
379.77        81.00849
380.22        80.40237
380.67         79.7226
381.11        78.96788
381.56        78.25979
382.01        77.80569
382.46        77.65086
382.91        77.76079
383.36        77.91194
383.81        77.74094
384.26         77.1851
384.71         76.3503
385.15        75.51346
385.60        75.16142
386.05         75.3234
386.50         75.8273
386.95        76.34857
387.40        76.34315
387.85          75.726
388.29         74.7205
388.74        73.71324
389.19        72.94722
389.64        72.48325
390.09         72.1875
390.54        72.09072
390.98        72.24832
391.43         72.6069
391.88        73.11533
392.33        73.52715
392.78        73.39969
393.23        72.71829
393.67        71.82674
394.12        71.05281
394.57        70.21209
395.02        69.59022
395.47        70.03833
395.91        71.35525
396.36        72.15182
396.81        72.22432
397.26         72.2429
397.71        72.20956
398.15        71.80487
398.60        71.16875
399.05        70.40305
399.50        69.65326
399.95        68.94144
400.39        68.61858
400.84        68.38774
401.29        68.28628
401.74        68.33846
402.18        68.47417
402.63        68.39797
403.08        68.24403
403.53        68.42779
403.97        68.96416
404.42        69.62503
404.87        70.14028
405.32        70.13724
405.76        69.53996
406.21        68.54342
406.66        67.49836
407.11         66.9324
407.55        66.96828
408.00        67.39288
408.45        67.97633
408.90        68.33695
409.34        68.27049
409.79         67.7495
410.24        67.02644
410.68        66.61777
411.13        66.62174
411.58        66.78224
412.03        67.03846
412.47        67.37286
412.92        67.67793
413.37        67.98714
413.81        68.20189
414.26        68.20781
414.71        67.97849
415.15         67.5403
415.60        67.02751
416.05        66.68321
416.49        66.58076
416.94        66.68042
417.39        66.84251
417.83        66.80495
418.28        66.52634
418.73        66.10035
419.17        65.71898
419.62        65.69462
420.07         66.0398
420.51        66.63098
420.96        67.24911
421.41        67.45957
421.85        67.13949
422.30        66.74174
422.74        66.33022
423.19        65.61644
423.64        64.86426
424.08        65.16389
424.53        66.31271
424.98        66.93759
425.42        66.87435
425.87        66.96509
426.31        67.25129
426.76        67.21131
427.21        66.99883
427.65        67.18494
428.10        67.73193
428.54        68.35439
428.99        69.00719
429.44        69.37927
429.88        69.46317
430.33        70.17082
430.77        70.90182
431.22        69.83846
431.66          67.465
432.11        65.86297
432.56        65.42713
433.00        66.07811
433.45        67.65676
433.89        69.42783
434.34        70.03625
434.78        71.54843
435.23        67.69316
435.67        66.61399
436.12        68.58038
436.57        69.65552
437.01         70.0233
437.46        70.22139
437.90        70.45751
438.35        69.98714
438.79        70.58411
439.24        70.47318
439.68        70.21275
440.13        69.76978
440.57        69.49135
441.02         70.2517
441.46        71.69583
441.91         72.6189
442.35        72.71808
442.80        71.99795
443.24        70.87069
443.69        71.36971
444.13        73.12319
444.58        73.01469
445.02         71.2911
445.47        70.99393
445.91        72.05684
446.36        72.39687
446.80        71.94173
447.24        71.83867
447.69        72.16362
448.13        72.24223
448.58        72.61849
449.02        72.89574
449.47        73.17987
449.91        73.38371
450.36        73.49255
450.80        73.50194
451.25        73.42693
451.69        73.27843
452.13        73.09563
452.58        72.89015
453.02        72.72105
453.47         72.7208
453.91        72.88085
454.36        73.15691
454.80        73.45116
455.24        73.49812
455.69         73.2578
456.13        72.98502
456.58        72.77326
457.02          72.195
457.46        71.51424
457.91        71.79817
458.35         72.4967
458.79        72.81589
459.24        72.60145
459.68        72.39545
460.13        72.23168
460.57        71.96896
461.01        71.70123
461.46        71.20301
461.90        70.49432
462.34        71.06798
462.79         70.6679
463.23        71.04575
463.68        71.40778
464.12        71.74689
464.56        71.95423
465.01        71.92801
465.45        71.63612
465.89        71.55633
466.34        71.55637
466.78        70.64697
467.22        69.28791
467.67        68.86732
468.11        69.67294
468.55        70.40737
468.99        70.77618
469.44        70.53397
469.88        69.86385
470.32        69.78183
470.77        70.23713
471.21        70.25077
471.65        69.78638
472.10        69.52629
472.54        69.53783
472.98        69.59243
473.42        69.67635
473.87         69.9955
474.31        70.35635
474.75        70.19183
475.20        69.62349
475.64        69.35732
476.08        69.46748
476.52        69.38707
476.97        69.09816
477.41        69.20526
477.85        69.72417
478.29        69.27339
478.74        69.62269
479.18        69.85617
479.62        68.87206
480.06         69.5133
480.50        69.84435
480.95        70.12166
481.39        69.86397
481.83        69.33783
482.27        69.50182
482.72        68.86493
483.16        67.95914
483.60        68.22233
484.04        69.70716
484.48        70.06705
484.93        69.81299
485.37        71.47668
485.81        71.98659
486.25        70.87586
486.69        95.37514
487.14        77.04379
487.58        48.45029
488.02         59.2181
488.46        67.30001
488.90        67.07998
489.34        68.95942
489.79        67.81429
490.23         69.3811
490.67        70.02198
491.11        69.32903
491.55        69.53812
491.99        70.14514
492.43        70.05406
492.88        69.32426
493.32        69.16396
493.76        69.14664
494.20        69.30807
494.64        69.44166
495.08        69.69389
495.52        70.03742
495.96        70.14061
496.41        69.94077
496.85         70.2021
497.29        70.73383
497.73        69.53915
498.17        67.60665
498.61        67.90881
499.05        70.40345
499.49        70.89083
499.93        70.86924
500.37        70.59994
500.82        70.01497
501.26        69.96696
501.70        70.22279
502.14        70.58076
502.58         70.4527
503.02        70.38979
503.46          70.246
503.90        69.94306
504.34        69.59492
504.78        69.34076
505.22        69.27663
505.66        69.60515
506.10        70.18194
506.54        70.39065
506.98        70.12058
507.42        69.94106
507.86        69.78997
508.30        69.20737
508.74        69.59962
509.18        69.77451
509.62        70.03951
510.06        70.18019
510.50         70.1606
510.94        70.02261
511.38        69.84978
511.82          69.808
512.26        69.93055
512.70         70.1575
513.14         70.3905
513.58        70.52071
514.02        70.51532
514.46        70.32967
514.90        70.02231
515.34        70.10468
515.78        69.89967
516.22        69.99779
516.66        70.13477
517.10        70.06345
517.54        69.75755
517.98        69.88635
518.42        69.64522
518.86        69.73158
519.30        69.89767
519.74        70.17675
520.18        70.49243
520.62        70.71677
521.06        70.82185
521.50        70.83811
521.93        70.79047
522.37        70.71894
522.81        70.65159
523.25        70.58218
523.69        70.53535
524.13         70.5507
524.57        70.63257
525.01        70.76891
525.45        70.93186
525.89        71.07191
526.32        71.16028
526.76         71.2038
527.20        71.19391
527.64        71.13877
528.08        71.06431
528.52        70.91593
528.96        70.68975
529.40        70.58113
529.83        70.63844
530.27        70.08952
530.71        70.33694
531.15         70.2921
531.59        70.36939
532.03        70.51675
532.46         70.7272
532.90        70.95489
533.34        71.15891
533.78        71.33957
534.22        71.46033
534.66        71.47884
535.09        71.38219
535.53        71.21426
535.97        70.99948
536.41        70.79929
536.85        70.64413
537.28        70.52979
537.72         70.4649
538.16        70.47169
538.60        70.54593
539.04        70.62196
539.47        70.67055
539.91        70.83727
540.35        71.03176
540.79        70.96544
541.22        70.68916
541.66        70.57414
542.10        70.63669
542.54        70.66807
542.97        70.66007
543.41        70.71179
543.85        70.80758
544.29        70.95077
544.72        71.03834
545.16        70.93753
545.60        70.62849
546.04        70.14996
546.47        69.70254
546.91        69.62543
547.35        69.95911
547.79        70.61053
548.22          71.279
548.66        71.48113
549.10        71.15199
549.53        70.44286
549.97        69.83164
550.41        69.46981
550.84        69.48724
551.28        69.88843
551.72        70.51461
552.15        70.76434
552.59        70.48512
553.03        70.91299
553.46        70.32981
553.90        70.18368
554.34        70.36593
554.77        70.45705
555.21        70.50042
555.65         70.6294
556.08        70.87437
556.52        70.36279
556.96        70.72257
557.39        70.49924
557.83        70.25527
558.27        70.14119
558.70        70.20839
559.14        70.33839
559.57        70.49686
560.01        70.79966
560.45        71.12106
560.88        71.20571
561.32        71.06057
561.75        70.73505
562.19        70.39268
562.63        70.17042
563.06        70.11533
563.50        70.23504
563.93        70.42712
564.37        70.56718
564.80        70.57195
565.24        70.44116
565.68        70.23746
566.11        70.13423
566.55        70.20041
566.98        70.32525
567.42        70.48499
567.85        70.67091
568.29        70.90345
568.72        70.97432
569.16        71.04357
569.60        71.44495
570.03        71.84151
570.47        71.69777
570.90        71.34095
571.34        69.59297
571.77        70.52921
572.21        70.48882
572.64        69.93632
573.08        68.92443
573.51         66.1881
573.95        68.75136
574.38        72.86642
574.82        71.08399
