SpectraSmart Spectrum 2.9.0.0
--------- Device Information -----------
Spectrum Name :  反射率_0
Saving Time :  2024/04/26 01:45:47
Spectro-Module Model Name : SE2030-DUVN
Spectro-Module Serial Number : OS361AC55029948
Wavelength Start : 200
Wavelength End : 1025
Wavelength Unit : Wavelength(nm)
Spectrum Unit : Reflectance(%)
-----------Spectrum Setting ------------
Integration Time : 20ms
Average : 10
Boxcar : 0
Background removal :  enabled
linearity correction :  enabled
SC :  disabled
Intensity correction :  disabled
DWT denoise :  enabled
savitzky-golay :  disabled
FFT :  disabled
Running average :  disabled
Kalman :  disabled
High pass :  disabled
---------------BEGIN--------------------
Wavelength(nm)             Reflectance(%)
200.29               0
200.75        93.06404
201.21        84.35814
201.67         74.2927
202.13        67.89126
202.58        65.85197
203.04         67.0359
203.50        70.22848
203.96        73.25566
204.42        75.06306
204.88        76.11806
205.34        76.97104
205.80        78.43605
206.26        81.17675
206.72         86.3813
207.18         95.0581
207.64        99.09478
208.10        87.98132
208.55        73.94852
209.01         66.5169
209.47        64.92456
209.93        66.69852
210.39        71.02385
210.85        76.10767
211.31        77.80154
211.77        74.75927
212.23         68.5606
212.69        62.18909
213.14        60.37331
213.60         63.8041
214.06        71.12878
214.52         79.7275
214.98        85.62614
215.44        87.49999
215.90        86.39263
216.36        83.68654
216.81        81.14923
217.27        79.70648
217.73        78.95145
218.19        77.66779
218.65        74.04573
219.11        67.20887
219.57        56.11059
220.02        42.43898
220.48        35.41825
220.94        39.91027
221.40        53.26038
221.86        65.69415
222.32        67.21847
222.77        59.13762
223.23        47.05571
223.69        36.67543
224.15        33.77851
224.61        37.77879
225.06        45.79034
225.52        53.94154
225.98        57.30212
226.44        55.02651
226.90        49.28895
227.36        42.82949
227.81        39.30695
228.27        39.77514
228.73        42.66399
229.19        46.48808
229.65        49.11386
230.10        49.95159
230.56        49.86206
231.02        49.43058
231.48        49.24416
231.93        49.41438
232.39        49.71474
232.85        49.98281
233.31        50.08813
233.77        49.99037
234.22        49.76682
234.68        49.57738
235.14         49.6214
235.60        49.96756
236.05        50.57981
236.51        51.27184
236.97        51.76298
237.43        52.07928
237.88        52.43481
238.34        53.11684
238.80        54.91199
239.26        58.01866
239.71        62.17469
240.17        66.63232
240.63        70.71134
241.08        74.13484
241.54        76.82993
242.00        79.02203
242.46         81.4231
242.91        85.29593
243.37        92.64951
243.83        113.5253
244.28        180.4502
244.74        255.0682
245.20        211.6108
245.66        173.1908
246.11         163.347
246.57        170.6263
247.03        202.4972
247.48        293.2791
247.94        228.3667
248.40        126.6874
248.85        97.66862
249.31        89.72931
249.77          89.247
250.22         92.8625
250.68        100.7636
251.14        112.7872
251.59        121.3301
252.05        118.5848
252.51        107.9266
252.96        96.01818
253.42        89.59142
253.88        88.38324
254.33        89.98863
254.79        94.22121
255.25        100.1273
255.70        106.1664
256.16        112.1876
256.62         116.351
257.07        116.7658
257.53        114.4384
257.99         109.982
258.44        104.8021
258.90        101.7436
259.35        99.99213
259.81        98.95179
260.27        97.23666
260.72        93.48117
261.18        88.47626
261.63        82.65746
262.09        77.28519
262.55        72.98407
263.00        69.74995
263.46        67.46411
263.91        65.52909
264.37        63.72271
264.83        61.75289
265.28        59.58139
265.74        57.47662
266.19        55.55175
266.65        54.08751
267.11        52.96712
267.56        51.95836
268.02         50.7972
268.47        49.33032
268.93        47.65208
269.38         45.9218
269.84        44.65304
270.30        43.97301
270.75        43.74002
271.21        43.65285
271.66        43.24696
272.12        42.40573
272.57        41.27253
273.03        40.10276
273.48        39.18195
273.94        38.62279
274.39        38.27348
274.85        38.00966
275.31        37.62684
275.76        37.05317
276.22        36.38523
276.67        35.67556
277.13         35.1116
277.58        34.66555
278.04        34.32492
278.49        33.93591
278.95        33.37227
279.40        32.58216
279.86        31.68874
280.31        30.78553
280.77        30.14144
281.22        29.75528
281.68        29.57901
282.13        29.47786
282.59        29.30886
283.04        29.02585
283.50        28.72528
283.95        28.42485
284.41        28.18295
284.86        28.00664
285.32        27.87388
285.77        27.82856
286.22        28.01236
286.68        28.39567
287.13        28.89148
287.59        29.30572
288.04        29.32965
288.50        28.95396
288.95        28.27402
289.41          27.524
289.86        26.93891
290.32         26.6541
290.77        26.58705
291.22        26.72139
291.68        26.98432
292.13        27.34938
292.59        27.85209
293.04        28.48503
293.50        29.23167
293.95        30.06252
294.40        30.93739
294.86        31.83407
295.31         32.7392
295.77        33.65796
296.22        34.60022
296.68        35.55202
297.13        36.45881
297.58        37.33019
298.04        38.19561
298.49        39.13916
298.95        40.34282
299.40        41.81882
299.85        43.50666
300.31        45.25273
300.76        46.80843
301.21        48.08989
301.67         49.2039
302.12        50.20341
302.58         51.2712
303.03        52.43331
303.48        53.66937
303.94        55.03677
304.39        56.56142
304.84         58.2443
305.30        60.06778
305.75         61.8774
306.20        63.46073
306.66        64.79134
307.11        65.87666
307.57        66.88431
308.02        67.95184
308.47        69.17902
308.93        70.53665
309.38        71.93877
309.83        73.30062
310.29        74.58055
310.74        75.76437
311.19        76.91371
311.65        78.12309
312.10         79.3911
312.55        80.69501
313.00        81.87722
313.46        82.69176
313.91         83.0828
314.36        83.14949
314.82        83.15999
315.27        83.47607
315.72        84.21764
316.18        85.28391
316.63        86.47146
317.08        87.39364
317.53        87.93311
317.99        88.18444
318.44        88.35959
318.89        88.80859
319.35        89.59019
319.80        90.61685
320.25        91.60566
320.70         92.0985
321.16        91.99702
321.61        91.45678
322.06        90.80768
322.51        90.56457
322.97        90.83105
323.42        91.49511
323.87        92.28044
324.32        92.71044
324.78        92.64466
325.23        92.28033
325.68        91.83007
326.13        91.66326
326.59        91.86791
327.04        92.35189
327.49        92.98567
327.94        93.59137
328.39        94.08953
328.85         94.5109
329.30        94.90464
329.75         95.1844
330.20        95.36481
330.66        95.44525
331.11         95.5689
331.56        95.89771
332.01         96.4902
332.46        97.29625
332.92        98.21861
333.37        99.25907
333.82         100.276
334.27        101.2626
334.72        102.0941
335.17        102.5816
335.63        102.6993
336.08        102.5527
336.53        102.3064
336.98         102.281
337.43        102.5754
337.88        103.1023
338.34        103.7995
338.79        104.6479
339.24        105.5572
339.69        106.5668
340.14        107.4832
340.59        107.9653
341.05        107.9639
341.50         107.555
341.95        107.0865
342.40        107.1107
342.85        107.7363
343.30        108.8063
343.75        109.9823
344.20        110.6625
344.66        110.6924
345.11         110.256
345.56        109.6366
346.01        109.2577
346.46        109.2469
346.91        109.4706
347.36        109.8156
347.81        110.1153
348.26        110.3157
348.72        110.5003
349.17        110.6729
349.62        110.8737
350.07        111.1012
350.52        111.3045
350.97        111.4657
351.42        111.5809
351.87        111.6409
352.32        111.6522
352.77        111.5851
353.22        111.3892
353.67        111.0727
354.13        110.6819
354.58        110.2607
355.03        109.9371
355.48        109.7329
355.93        109.6008
356.38        109.4862
356.83        109.2996
357.28        109.0024
357.73        108.6185
358.18        108.1296
358.63        107.5088
359.08        106.7756
359.53         105.957
359.98        105.1267
360.43        104.3984
360.88        103.7961
361.33        103.2822
361.78        102.8257
362.23        102.3702
362.68         101.892
363.13        101.4164
363.58        100.9002
364.03         100.271
364.48        99.52937
364.93        98.69667
365.38        97.87351
365.83        97.23293
366.28        96.79766
366.73        96.48965
367.18         96.2142
367.63        95.81339
368.08        95.24968
368.53        94.61208
368.98        93.88624
369.43        93.03838
369.88        92.09378
370.33        91.04861
370.78        90.10665
371.23        89.61295
371.68        89.62281
372.13        90.03999
372.58        90.53471
373.03        90.53816
373.48         89.9195
373.93        88.86712
374.38        87.70571
374.83        86.93552
375.28        86.67705
375.72        86.74618
376.17        86.97755
376.62         87.0807
377.07         86.9427
377.52        86.64806
377.97        86.22042
378.42        85.69154
378.87        85.10528
379.32        84.46652
379.77        83.81246
380.22        83.20062
380.67        82.63986
381.11        82.11901
381.56        81.66278
382.01        81.30694
382.46        81.05891
382.91         80.9284
383.36        80.80493
383.81        80.51521
384.26        80.03411
384.71        79.39616
385.15        78.76994
385.60        78.48614
386.05        78.54001
386.50        78.82363
386.95        79.07497
387.40        78.86022
387.85        78.13992
388.29        77.09272
388.74        76.10323
389.19        75.41073
389.64        75.05795
390.09          74.908
390.54        74.94296
390.98        75.13112
391.43        75.41579
391.88        75.78386
392.33         76.0387
392.78        75.86684
393.23        75.27724
393.67        74.41766
394.12         73.6439
394.57        73.12666
395.02         72.9851
395.47         73.3418
395.91        74.07005
396.36        74.59494
396.81         74.7939
397.26        74.87299
397.71        74.81342
398.15        74.46292
398.60        73.94614
399.05        73.31646
399.50        72.69937
399.95        72.06635
400.39        71.77214
400.84        71.56476
401.29        71.48846
401.74        71.46107
402.18        71.47009
402.63        71.47046
403.08        71.53873
403.53        71.77954
403.97        72.18112
404.42        72.67233
404.87        73.04697
405.32         72.9547
405.76        72.34472
406.21        71.45094
406.66        70.54103
407.11        69.95748
407.55        69.85479
408.00        70.16931
408.45        70.73578
408.90        71.29434
409.34        71.54791
409.79         71.0789
410.24         70.1659
410.68        69.70237
411.13        69.79446
411.58        69.94934
412.03        70.10941
412.47         70.3931
412.92        70.70548
413.37         71.0461
413.81        71.29835
414.26        71.32343
414.71        71.08591
415.15        70.61672
415.60        70.07516
416.05        69.74159
416.49        69.69359
416.94        69.87958
417.39        70.10717
417.83        70.02868
418.28        69.59132
418.73        68.92367
419.17        68.30025
419.62         68.1552
420.07        68.52997
420.51        69.26704
420.96        70.07767
421.41        70.44054
421.85        70.20162
422.30        69.74477
422.74        69.20037
423.19         68.6014
423.64        68.11643
424.08        68.30244
424.53        69.01325
424.98        69.45036
425.42        69.50222
425.87         69.7435
426.31        70.15284
426.76        70.10486
427.21        69.79877
427.65        70.13218
428.10        70.99744
428.54        71.69863
428.99        72.17704
429.44        72.30922
429.88        72.15025
430.33        72.78387
430.77        73.57265
431.22        72.31207
431.66        69.60406
432.11        68.14023
432.56        68.27481
433.00        69.23181
433.45        70.76134
433.89        72.71555
434.34        73.66806
434.78        74.63521
435.23        70.57535
435.67        68.84252
436.12        71.72845
436.57        72.74725
437.01        72.60012
437.46        72.86736
437.90        73.45716
438.35        72.83422
438.79        73.74771
439.24        73.65734
439.68        73.44281
440.13         73.0135
440.57        72.72185
441.02        73.43778
441.46        74.80075
441.91        75.58443
442.35        75.52563
442.80        74.76965
443.24        73.68166
443.69        74.07832
444.13        75.63819
444.58        75.49986
445.02         73.9323
445.47         73.8773
445.91        75.18096
446.36        75.64785
446.80        75.18079
447.24        74.92834
447.69        75.02109
448.13        75.19692
448.58        75.48499
449.02        75.89309
449.47        76.33458
449.91        76.68357
450.36        76.89949
450.80        76.99928
451.25        76.98995
451.69        76.85667
452.13        76.63682
452.58        76.33534
453.02        76.05322
453.47        75.99612
453.91        76.18034
454.36        76.55808
454.80        76.95829
455.24        77.05212
455.69        76.79936
456.13        76.28459
456.58        75.74813
457.02        75.43536
457.46        75.43636
457.91        75.63422
458.35        75.88882
458.79        76.03333
459.24        76.05163
459.68        75.91866
460.13        75.65303
460.57        75.39226
461.01        75.25493
461.46        74.47922
461.90        74.14575
462.34         74.3876
462.79        74.27973
463.23        74.43261
463.68         74.8491
464.12        75.20088
464.56        75.48918
465.01        75.58481
465.45        75.35905
465.89        75.11568
466.34        74.83994
466.78        73.81982
467.22        72.56268
467.67        72.55298
468.11        73.88428
468.55        74.55686
468.99         74.3457
469.44        73.87095
469.88        73.37625
470.32        73.39461
470.77        73.84644
471.21        73.91578
471.65        73.55516
472.10        73.42487
472.54        73.53654
472.98        73.57355
473.42        73.52256
473.87        73.57874
474.31        73.64893
474.75        73.45702
475.20        73.10547
475.64        72.88171
476.08        73.11427
476.52        73.08692
476.97        72.83158
477.41        73.13184
477.85        73.51535
478.29        73.08286
478.74        73.42057
479.18        73.68626
479.62        72.74527
480.06        73.41525
480.50        73.64017
480.95        73.90647
481.39        73.77891
481.83        72.90218
482.27        72.90791
482.72        72.85704
483.16        71.50988
483.60        71.79267
484.04        73.39462
484.48        73.76277
484.93        73.42011
485.37        75.07203
485.81          75.695
486.25        74.36879
486.69        99.39159
487.14         80.3781
487.58        50.58165
488.02        62.38244
488.46        71.05675
488.90        70.30933
489.34        71.77918
489.79        71.34193
490.23        73.15653
490.67        74.04513
491.11        72.95788
491.55        72.95667
491.99        73.58265
492.43         73.5013
492.88        72.81335
493.32        72.86664
493.76        73.10847
494.20         73.3791
494.64        73.42229
495.08        73.39893
495.52        73.40903
495.96        73.41187
496.41        73.33656
496.85        73.71727
497.29        74.30272
497.73        73.04156
498.17         71.0102
498.61        71.42682
499.05        74.22573
499.49        74.89734
499.93         74.9733
500.37        74.55501
500.82        73.66392
501.26        73.69743
501.70         74.3644
502.14         74.6383
502.58        74.35987
503.02        74.18922
503.46        74.12597
503.90        73.77899
504.34        73.29858
504.78        73.09944
505.22        73.21767
505.66        73.59142
506.10        74.11178
506.54        74.29311
506.98        73.99493
507.42        74.24118
507.86        74.01912
508.30        73.31792
508.74        73.82219
509.18        73.90803
509.62        74.06166
510.06        74.09399
510.50        73.99715
510.94        73.79779
511.38        73.57933
511.82        73.51511
512.26        73.63544
512.70        73.88564
513.14        74.17268
513.58        74.34778
514.02        74.36288
514.46        74.25667
514.90        74.10411
515.34        74.00936
515.78        73.99537
516.22        74.08863
516.66        74.22963
517.10        74.17456
517.54        73.90387
517.98        73.99228
518.42        73.76863
518.86         73.8878
519.30        74.13689
519.74        74.52512
520.18        74.93546
520.62        75.17608
521.06        75.20699
521.50        75.08413
521.93        74.87807
522.37        74.70428
522.81        74.61378
523.25         74.5768
523.69        74.59578
524.13        74.67387
524.57        74.80148
525.01        74.98029
525.45        75.17382
525.89        75.31733
526.32         75.3818
526.76        75.37305
527.20        75.30868
527.64        75.24341
528.08         75.2095
528.52        75.13211
528.96        74.96997
529.40        74.87042
529.83        74.87311
530.27        74.18444
530.71        74.31784
531.15        74.16393
531.59        74.17616
532.03        74.28743
532.46        74.49377
532.90        74.74913
533.34        75.00887
533.78        75.27846
534.22        75.49512
534.66        75.57665
535.09        75.50147
535.53        75.31526
535.97         75.0802
536.41        74.92394
536.85        74.88205
537.28        74.92436
537.72        74.99141
538.16        74.99754
538.60        74.92297
539.04        74.74677
539.47        74.51524
539.91        74.49468
540.35        74.61904
540.79        74.55097
541.22        74.31761
541.66        74.26185
542.10        74.38417
542.54        74.49005
542.97        74.55024
543.41        74.63351
543.85        74.71849
544.29        74.80521
544.72        74.84675
545.16        74.78648
545.60        74.60747
546.04        74.37809
546.47        74.20048
546.91        74.11224
547.35        74.19425
547.79        74.74165
548.22        75.46595
548.66        75.59405
549.10        75.07098
549.53        74.32741
549.97        73.67559
550.41         73.3522
550.84        73.45639
551.28        73.93504
551.72        74.57051
552.15        74.95876
552.59        74.99068
553.03        74.78838
553.46        74.47649
553.90        74.31953
554.34        74.37557
554.77        74.48142
555.21         74.5471
555.65        74.67707
556.08        74.88046
556.52         74.2247
556.96        74.50268
557.39        74.37926
557.83        74.41444
558.27        74.52099
558.70        74.68079
559.14        74.86208
559.57        75.01356
560.01        75.11292
560.45        75.14459
560.88        75.20625
561.32        75.26954
561.75        75.04155
562.19        74.64759
562.63        74.35114
563.06        74.21275
563.50         74.2555
563.93         74.4021
564.37        74.48832
564.80        74.46399
565.24        74.46273
565.68        74.47062
566.11        74.44526
566.55        74.43809
566.98         74.3793
567.42        74.31509
567.85        74.46711
568.29        74.81838
568.72        74.80488
569.16        74.64096
569.60        75.05171
570.03        75.38463
570.47        75.38332
570.90        75.32077
571.34        73.10724
571.77        74.08569
572.21        74.64822
572.64        73.78082
573.08        72.52088
573.51        69.95286
573.95        72.47504
574.38        76.44264
574.82        74.42337
