SpectraSmart Spectrum 2.9.0.0
--------- Device Information -----------
Spectrum Name :  反射率_0
Saving Time :  2024/04/26 01:08:15
Spectro-Module Model Name : SE2030-DUVN
Spectro-Module Serial Number : OS361AC55029948
Wavelength Start : 200
Wavelength End : 1025
Wavelength Unit : Wavelength(nm)
Spectrum Unit : Reflectance(%)
-----------Spectrum Setting ------------
Integration Time : 20ms
Average : 10
Boxcar : 0
Background removal :  enabled
linearity correction :  enabled
SC :  disabled
Intensity correction :  disabled
DWT denoise :  enabled
savitzky-golay :  disabled
FFT :  disabled
Running average :  disabled
Kalman :  disabled
High pass :  disabled
---------------BEGIN--------------------
Wavelength(nm)             Reflectance(%)
200.29               0
200.75        85.86287
201.21        73.95509
201.67        61.65731
202.13        55.80277
202.58        56.95943
203.04        63.33372
203.50         71.9859
203.96        77.45329
204.42        78.12438
204.88        76.05504
205.34        73.39756
205.80        72.28079
206.26        73.35847
206.72        77.05338
207.18         84.4146
207.64        89.36922
208.10        82.00464
208.55         71.2622
209.01        65.28514
209.47        63.90588
209.93        65.24879
210.39        68.77207
210.85        72.45444
211.31        72.04591
211.77        66.52616
212.23        57.44324
212.69        49.10319
213.14        48.23089
213.60        55.63388
214.06        69.32814
214.52         83.9883
214.98        91.42096
215.44        89.81801
215.90         82.0537
216.36        72.24099
216.81        66.14304
217.27        65.25566
217.73        67.44489
218.19        69.98479
218.65        69.38575
219.11        64.39614
219.57        54.62984
220.02        41.46841
220.48        33.27705
220.94        34.85206
221.40        44.09121
221.86        52.91949
222.32        52.86213
222.77        45.05222
223.23        34.35765
223.69        25.64812
224.15        23.86284
224.61        28.31839
225.06        36.29272
225.52        44.29757
225.98        47.98027
226.44        46.49265
226.90        41.78439
227.36        35.90089
227.81        31.51178
228.27        29.70966
228.73         29.5315
229.19        30.58454
229.65        32.30462
230.10        34.22206
230.56         36.2595
231.02        38.25677
231.48        40.00774
231.93        41.45726
232.39        42.62944
232.85        43.31007
233.31        43.23178
233.77        42.38186
234.22        40.82283
234.68        39.02865
235.14        37.89195
235.60        37.77724
236.05        38.57917
236.51        39.79984
236.97        40.62461
237.43        40.92569
237.88        40.98682
238.34        41.32679
238.80         43.2087
239.26        47.02908
239.71        52.30198
240.17        57.81547
240.63        62.08675
241.08        64.64185
241.54        65.69529
242.00        65.90838
242.46        66.38979
242.91        68.03415
243.37        71.57211
243.83         83.0865
244.28        125.7902
244.74        183.7909
245.20        164.2779
245.66        140.1392
246.11        132.4928
246.57        134.3706
247.03        146.8216
247.48        178.1134
247.94        134.1155
248.40        93.58929
248.85        84.39917
249.31        83.18258
249.77        84.82701
250.22        88.50498
250.68        94.92999
251.14        103.8093
251.59        108.7094
252.05         103.925
252.51        93.00736
252.96         81.6695
253.42        75.20605
253.88        73.17153
254.33         73.6415
254.79        77.08655
255.25        83.34627
255.70        90.72536
256.16        98.40128
256.62        103.6585
257.07        103.8287
257.53         100.089
257.99        93.60773
258.44        86.77592
258.90        83.37896
259.35        82.52981
259.81        82.93551
260.27        82.47334
260.72        79.10226
261.18        73.69547
261.63        67.17047
262.09        61.27267
262.55        57.26471
263.00        55.06062
263.46        54.07932
263.91        53.34961
264.37         52.1897
264.83        50.36194
265.28        48.02916
265.74        45.69931
266.19        43.87711
266.65        42.83696
267.11         42.2873
267.56        41.80193
268.02        40.87039
268.47        39.35357
268.93         37.4352
269.38        35.40246
269.84        33.98573
270.30        33.38342
270.75         33.3922
271.21        33.61026
271.66        33.43132
272.12        32.69443
272.57        31.58908
273.03        30.43636
273.48        29.63157
273.94        29.29376
274.39        29.23436
274.85        29.23188
275.31        28.96026
275.76        28.34165
276.22         27.5238
276.67        26.67072
277.13        26.10608
277.58         25.8351
278.04        25.77307
278.49         25.7041
278.95        25.38915
279.40        24.76597
279.86        23.99049
280.31        23.18633
280.77        22.64435
281.22        22.38229
281.68        22.32482
282.13        22.35984
282.59         22.3647
283.04        22.29468
283.50        22.22475
283.95        22.13854
284.41         22.0263
284.86        21.89103
285.32        21.73865
285.77        21.64726
286.22        21.80066
286.68        22.18897
287.13        22.72153
287.59        23.21744
288.04         23.3986
288.50         23.2416
288.95        22.82648
289.41         22.3393
289.86        21.95498
290.32         21.7892
290.77        21.78137
291.22        21.93256
291.68        22.20127
292.13        22.58014
292.59        23.10107
293.04        23.77262
293.50        24.59671
293.95        25.55287
294.40        26.60594
294.86        27.72086
295.31        28.86331
295.77        30.03232
296.22        31.23818
296.68        32.48571
297.13        33.74835
297.58        35.03444
298.04           36.36
298.49        37.76315
298.95        39.36179
299.40        41.15942
299.85        43.11148
300.31        45.12844
300.76        47.05787
301.21        48.83174
301.67        50.53077
302.12        52.12253
302.58        53.67171
303.03         55.1884
303.48        56.68829
303.94        58.33802
304.39        60.32462
304.84         62.6695
305.30        65.29582
305.75        67.89687
306.20        70.02953
306.66        71.62197
307.11         72.7485
307.57        73.73389
308.02        74.94361
308.47        76.52585
308.93        78.37331
309.38        80.26565
309.83        81.91199
310.29        83.22707
310.74        84.27562
311.19        85.23048
311.65        86.34778
312.10        87.67165
312.55        89.13146
313.00        90.51388
313.46        91.48381
313.91        91.95312
314.36        92.04959
314.82        92.07211
315.27        92.41886
315.72        93.22195
316.18        94.36182
316.63        95.60876
317.08        96.53669
317.53        97.02177
317.99        97.17649
318.44        97.24879
318.89         97.6441
319.35        98.43089
319.80        99.50537
320.25        100.5519
320.70        101.0575
321.16        100.9085
321.61        100.2806
322.06        99.52103
322.51        99.17016
322.97         99.3418
323.42        99.92271
323.87        100.6448
324.32        101.0459
324.78         100.989
325.23        100.6737
325.68        100.2991
326.13         100.215
326.59        100.4934
327.04        101.0343
327.49        101.7086
327.94        102.3464
328.39        102.8681
328.85        103.3078
329.30        103.6871
329.75         103.859
330.20        103.8447
330.66        103.6762
331.11        103.5976
331.56        103.9243
332.01        104.7465
332.46        105.9642
332.92        107.3759
333.37        108.8075
333.82        110.0294
334.27        111.0695
334.72        111.8231
335.17        112.1529
335.63        112.0743
336.08        111.6927
336.53        111.2236
336.98        111.0746
337.43        111.3638
337.88        111.9871
338.34        112.8473
338.79        113.8607
339.24        114.9018
339.69        116.0214
340.14        116.9936
340.59        117.4285
341.05        117.2866
341.50        116.6721
341.95         116.002
342.40        115.9339
342.85        116.5994
343.30        117.8068
343.75        119.1988
344.20        120.1294
344.66        120.4095
345.11        120.2262
345.56        119.7984
346.01        119.4582
346.46        119.3292
346.91        119.3011
347.36        119.3674
347.81        119.5348
348.26        119.7846
348.72        120.1503
349.17        120.5322
349.62        120.7911
350.07        120.8834
350.52        120.8267
350.97        120.6923
351.42        120.6063
351.87        120.6011
352.32        120.6456
352.77        120.6721
353.22        120.5754
353.67        120.3357
354.13        120.0006
354.58        119.6286
355.03        119.3725
355.48        119.2486
355.93        119.1962
356.38         119.093
356.83         118.749
357.28        118.1256
357.73        117.2973
358.18        116.3686
358.63        115.5027
359.08        114.7594
359.53        114.1012
359.98         113.501
360.43        112.9102
360.88        112.3009
361.33        111.6808
361.78        111.0488
362.23        110.3999
362.68         109.738
363.13        109.0714
363.58        108.3718
364.03         107.596
364.48        106.7461
364.93        105.8372
365.38        104.9565
365.83        104.2457
366.28        103.7188
366.73        103.3127
367.18        102.9172
367.63        102.3541
368.08        101.5901
368.53        100.7147
368.98        99.77714
369.43        98.83967
369.88        97.94006
370.33        97.05471
370.78        96.28003
371.23        95.78085
371.68        95.57338
372.13        95.60657
372.58        95.69829
373.03        95.53414
373.48        95.03754
373.93        94.30699
374.38        93.49564
374.83        92.84176
375.28        92.40613
375.72        92.09428
376.17        91.86224
376.62        91.61939
377.07         91.3186
377.52        90.97964
377.97        90.57811
378.42         90.0725
378.87        89.48315
379.32        88.83521
379.77        88.15067
380.22        87.50743
380.67        86.92373
381.11        86.17235
381.56        85.67888
382.01        85.27123
382.46        85.07443
382.91        85.06574
383.36         85.0643
383.81        84.77358
384.26        84.14745
384.71        83.27482
385.15        82.40086
385.60        81.97202
386.05        82.00458
386.50        82.34317
386.95        82.69266
387.40        82.56048
387.85        81.87871
388.29        80.84734
388.74         79.8291
389.19        79.01779
389.64          78.458
390.09         78.0155
390.54        77.75443
390.98        77.79149
391.43        78.10099
391.88        78.62543
392.33        79.04977
392.78        78.88169
393.23        78.10921
393.67        76.95152
394.12        75.87641
394.57        75.20071
395.02        75.06834
395.47        75.54264
395.91        76.43549
396.36        77.06834
396.81        77.27705
397.26        77.29572
397.71        77.13674
398.15        76.69522
398.60        76.11704
399.05        75.43694
399.50        74.76887
399.95        74.08569
400.39        73.75116
400.84        73.44788
401.29        73.23718
401.74        73.22013
402.18        73.32205
402.63         73.1356
403.08        72.81208
403.53         72.8877
403.97        73.37859
404.42        73.98565
404.87        74.45324
405.32        74.42036
405.76         73.8033
406.21        72.90781
406.66        72.01278
407.11        71.29631
407.55        70.99156
408.00        71.46201
408.45        72.45815
408.90        73.04578
409.34        72.93581
409.79        72.32524
410.24        71.49813
410.68        70.97572
411.13        70.87108
411.58        70.88114
412.03        70.98214
412.47        71.26629
412.92        71.64187
413.37        72.10718
413.81        72.49567
414.26        72.59377
414.71        72.34808
415.15        71.80722
415.60        71.15925
416.05        70.73714
416.49         70.6375
416.94        70.79321
417.39        71.01386
417.83        70.95361
418.28        70.55611
418.73        69.95367
419.17        69.39977
419.62          69.295
420.07        69.67166
420.51        70.37699
420.96        71.14684
421.41        71.48673
421.85        71.24689
422.30        70.85208
422.74        70.39429
423.19        69.73716
423.64        69.10056
424.08        69.32576
424.53        70.23553
424.98        70.73466
425.42        70.68781
425.87        70.79806
426.31        71.08434
426.76        71.01122
427.21        70.74596
427.65         70.9526
428.10        71.56487
428.54        72.19393
428.99        72.79684
429.44        73.04503
429.88        72.98438
430.33        73.80385
430.77        74.84087
431.22        73.76308
431.66        71.11568
432.11        69.72767
432.56        69.91171
433.00        70.46259
433.45        71.33551
433.89        73.44196
434.34        75.15852
434.78        76.60907
435.23         71.8479
435.67        69.90525
436.12        72.15838
436.57        73.54479
437.01         74.3881
437.46        74.67316
437.90        74.51346
438.35        74.32449
438.79        74.47127
439.24        74.36092
439.68        74.13513
440.13        73.77986
440.57        73.61252
441.02        74.52471
441.46        76.11324
441.91         77.0756
442.35        77.10645
442.80        76.18591
443.24         74.8138
443.69        75.34287
444.13        77.35556
444.58          77.307
445.02        75.43961
445.47        75.11368
445.91        76.24728
446.36        76.58508
446.80        76.05946
447.24        75.84308
447.69        76.00591
448.13        76.18137
448.58         76.3787
449.02        76.63528
449.47        76.92144
449.91        77.20811
450.36        77.47111
450.80        77.68203
451.25        77.79653
451.69        77.71986
452.13        77.47184
452.58        77.09968
453.02        76.71194
453.47        76.52226
453.91        76.55391
454.36        76.74762
454.80        77.00313
455.24        77.06405
455.69        76.89108
456.13        76.67502
456.58        76.50137
457.02        76.07305
457.46        75.60484
457.91         75.7376
458.35         76.3049
458.79        76.50266
459.24        76.29395
459.68        76.07123
460.13        75.87309
460.57        75.54836
461.01        75.18048
461.46        74.67135
461.90        74.05675
462.34        74.28287
462.79        74.05575
463.23        74.28048
463.68        74.49947
464.12        74.96666
464.56        75.48831
465.01         75.4987
465.45        75.01439
465.89        74.87279
466.34        74.90518
466.78        74.02264
467.22        72.77222
467.67        71.70672
468.11        73.06128
468.55        73.65002
468.99        73.79208
469.44        73.42901
469.88        72.77733
470.32         72.7505
470.77        73.25122
471.21        73.28835
471.65        72.81265
472.10         72.5412
472.54        72.53487
472.98        72.55292
473.42        72.58476
473.87        72.80386
474.31        73.07098
474.75        72.96971
475.20        72.60342
475.64        72.51475
476.08        72.70673
476.52        72.65642
476.97        72.35204
477.41        72.20217
477.85        72.34995
478.29        71.95105
478.74        73.01026
479.18        72.90086
479.62        71.74656
480.06        72.22571
480.50        72.63342
480.95        73.03547
481.39         72.9746
481.83        71.99226
482.27        72.10405
482.72        72.04639
483.16        70.65784
483.60         71.0145
484.04        72.62159
484.48        72.95851
484.93        72.48952
485.37        74.55431
485.81        75.02606
486.25        73.62033
486.69        101.6727
487.14        81.87787
487.58        50.43177
488.02        61.91124
488.46        70.39983
488.90        69.96471
489.34        70.84515
489.79        70.33135
490.23        72.13264
490.67        73.11173
491.11         72.1355
491.55        72.07701
491.99        72.50383
492.43        72.29961
492.88        71.58759
493.32         71.5761
493.76        71.74664
494.20        71.97974
494.64        72.01225
495.08        72.13664
495.52        72.37268
495.96        72.18584
496.41        71.64893
496.85        72.15429
497.29        73.32551
497.73         72.1641
498.17        69.73072
498.61         69.8221
499.05        72.45193
499.49        73.04337
499.93        73.09371
500.37        72.72223
500.82        71.91771
501.26        71.98461
501.70        72.65257
502.14        73.02456
502.58        72.90779
503.02        72.79019
503.46        72.65934
503.90        72.21551
504.34        71.63505
504.78        71.33744
505.22        71.37606
505.66         71.6803
506.10        72.13622
506.54        72.27847
506.98        71.97649
507.42        72.08515
507.86        71.98339
508.30        71.17561
508.74         71.7648
509.18        71.85593
509.62        72.04484
510.06        72.15951
510.50        72.18493
510.94         72.1377
511.38        72.03278
511.82        71.94629
512.26        71.89623
512.70        71.86243
513.14        71.85001
513.58        71.87281
514.02        71.92472
514.46        71.99754
514.90        72.07663
515.34        72.12202
515.78        72.11388
516.22        72.11996
516.66        72.13659
517.10        72.00027
517.54        71.71703
517.98         71.8748
518.42        71.69205
518.86        71.79665
519.30        71.94581
519.74        72.18561
520.18        72.45097
520.62        72.62653
521.06         72.6905
521.50        72.66993
521.93        72.59064
522.37        72.49598
522.81        72.41444
523.25        72.33891
523.69        72.29356
524.13         72.3167
524.57        72.40939
525.01        72.55672
525.45         72.7236
525.89        72.85077
526.32        72.90944
526.76        72.91044
527.20        72.85214
527.64         72.7646
528.08        72.68103
528.52        72.51115
528.96        72.25373
529.40        72.18465
529.83        72.31645
530.27        71.69576
530.71        71.79605
531.15        71.70364
531.59        71.85365
532.03        72.08402
532.46         72.3587
532.90        72.62646
533.34        72.83542
533.78        72.99416
534.22        73.07668
534.66        73.05653
535.09        72.92861
535.53        72.73103
535.97        72.50452
536.41        72.33678
536.85        72.25755
537.28        72.25344
537.72        72.29254
538.16        72.33143
538.60        72.35234
539.04        72.30836
539.47        72.21512
539.91        72.29034
540.35        72.45944
540.79          72.412
541.22        72.16861
541.66         72.0573
542.10          72.084
542.54        72.05464
542.97        71.99417
543.41         72.0521
543.85        72.22225
544.29        72.48984
544.72        72.71188
545.16        72.69814
545.60        72.41161
546.04        71.90031
546.47        71.40444
546.91        71.32583
547.35        71.71313
547.79        72.46391
548.22         73.2212
548.66        73.38673
549.10         72.8829
549.53        72.00651
549.97          71.134
550.41        70.68729
550.84        70.79413
551.28         71.3421
551.72        72.08023
552.15        72.54471
552.59        72.60343
553.03        72.43023
553.46        72.12063
553.90        71.93837
554.34        71.92922
554.77        71.98651
555.21        72.06985
555.65        72.05109
556.08        72.43468
556.52        71.91652
556.96        72.31051
557.39        72.20708
557.83        72.13487
558.27        72.03234
558.70        71.97016
559.14        72.06492
559.57        72.29338
560.01        72.60921
560.45        72.88452
560.88        72.98466
561.32         72.8751
561.75        72.45596
562.19        71.93111
562.63        71.56158
563.06        71.44534
563.50        71.67166
563.93         72.0877
564.37        72.33006
564.80        72.31384
565.24        72.25452
565.68        72.17294
566.11        72.06828
566.55         72.0182
566.98        71.92123
567.42        71.82158
567.85         72.0535
568.29        72.59393
568.72        72.64497
569.16        72.38437
569.60        73.25979
570.03        73.59305
570.47        73.74691
570.90        73.65028
571.34        71.72673
571.77        73.01009
572.21        73.00579
572.64        72.37292
573.08        71.56445
573.51        68.06478
573.95        70.81242
574.38        75.57507
574.82        73.52831
