SpectraSmart Spectrum 2.9.0.0
--------- Device Information -----------
Spectrum Name :  反射率_0
Saving Time :  2024/04/26 01:15:55
Spectro-Module Model Name : SE2030-DUVN
Spectro-Module Serial Number : OS361AC55029948
Wavelength Start : 200
Wavelength End : 1025
Wavelength Unit : Wavelength(nm)
Spectrum Unit : Reflectance(%)
-----------Spectrum Setting ------------
Integration Time : 20ms
Average : 10
Boxcar : 0
Background removal :  enabled
linearity correction :  enabled
SC :  disabled
Intensity correction :  disabled
DWT denoise :  enabled
savitzky-golay :  disabled
FFT :  disabled
Running average :  disabled
Kalman :  disabled
High pass :  disabled
---------------BEGIN--------------------
Wavelength(nm)             Reflectance(%)
200.29               0
200.75        90.60007
201.21        84.80642
201.67        77.53722
202.13        72.47049
202.58        70.22588
203.04        70.30694
203.50        71.74899
203.96        72.91265
204.42        73.26323
204.88        73.19736
205.34        73.57825
205.80        75.67668
206.26        80.53595
206.72        90.68388
207.18        109.6649
207.64        125.0308
208.10        112.0979
208.55        88.24502
209.01        73.36464
209.47        68.01427
209.93        67.98217
210.39        71.28479
210.85        75.55551
211.31         75.9853
211.77        71.17998
212.23        63.06553
212.69        55.26803
213.14        53.35858
213.60         58.1401
214.06        68.00247
214.52        79.30058
214.98        86.47573
215.44        87.97843
215.90        85.46892
216.36        81.35016
216.81        78.87405
217.27         79.0588
217.73        80.70785
218.19        82.01223
218.65        80.61657
219.11        75.57936
219.57        66.15632
220.02        53.67289
220.48        46.07501
220.94        47.82425
221.40        57.02195
221.86        65.47157
222.32        64.53436
222.77        55.45156
223.23        43.27435
223.69        33.16783
224.15        30.36525
224.61        34.14003
225.06        41.68477
225.52        49.18222
225.98        51.80679
226.44        48.75393
226.90        42.20727
227.36        34.78873
227.81         29.9933
228.27        28.92621
228.73        30.16447
229.19        32.69501
229.65        35.03671
230.10        36.57894
230.56        37.74482
231.02        38.56674
231.48        38.99686
231.93        39.11369
232.39        38.90184
232.85        38.50779
233.31        38.26299
233.77        38.23816
234.22        38.33854
234.68        38.55684
235.14         38.7467
235.60        38.86875
236.05        39.06288
236.51        39.24435
236.97        39.22689
237.43        39.06498
237.88        38.85968
238.34        39.06967
238.80        40.82283
239.26        44.46263
239.71        49.64415
240.17        55.23705
240.63        59.78067
241.08        62.75275
241.54        64.24273
242.00        64.79128
242.46        65.40295
242.91        66.88908
243.37        69.81362
243.83        79.08688
244.28        113.4925
244.74        160.5915
245.20        145.7201
245.66        127.0395
246.11        122.3104
246.57        127.0417
247.03        145.8445
247.48        202.2558
247.94        176.8199
248.40        117.3822
248.85        98.72976
249.31        93.48508
249.77        93.45139
250.22        96.53425
250.68         102.831
251.14        112.0008
251.59        117.6654
252.05        113.6401
252.51        102.9751
252.96         91.5742
253.42        85.07726
253.88        82.88044
254.33        83.04449
254.79        84.88695
255.25        86.89159
255.70        88.33383
256.16        89.79671
256.62        90.41667
257.07        89.25786
257.53        86.84865
257.99        83.10075
258.44        79.01557
258.90         76.7857
259.35        75.58189
259.81        74.89084
260.27        73.20491
260.72        69.02299
261.18        63.19119
261.63        56.44425
262.09        50.42013
262.55        46.36503
263.00        44.20282
263.46        43.34349
263.91         42.7982
264.37        41.76838
264.83        40.04802
265.28        37.81557
265.74        35.65693
266.19        34.22673
266.65        33.72655
267.11        33.77262
267.56        33.80758
268.02        33.15643
268.47        31.70732
268.93        29.70057
269.38        27.52513
269.84        26.08864
270.30        25.63911
270.75        25.91909
271.21        26.44906
271.66        26.50932
272.12        25.90814
272.57        24.88491
273.03        23.79311
273.48        23.08282
273.94        22.88448
274.39        22.99009
274.85         23.1682
275.31        23.09516
275.76        22.68419
276.22        22.07125
276.67        21.40431
277.13         20.9666
277.58        20.76743
278.04        20.73392
278.49        20.67106
278.95        20.35475
279.40        19.73835
279.86        18.96334
280.31         18.1786
280.77        17.69888
281.22         17.5429
281.68         17.6195
282.13        17.77331
282.59        17.80526
283.04        17.67186
283.50        17.47336
283.95        17.25807
284.41        17.10592
284.86        17.04262
285.32        17.03943
285.77        17.12833
286.22        17.41756
286.68        17.87448
287.13        18.43086
287.59        18.93019
288.04         19.1393
288.50        19.03926
288.95        18.69769
289.41        18.27079
289.86        17.89956
290.32        17.69469
290.77        17.61869
291.22         17.7036
291.68        17.95341
292.13        18.37056
292.59         18.9641
293.04        19.71671
293.50        20.58961
293.95         21.5431
294.40        22.54252
294.86        23.55428
295.31        24.54917
295.77        25.52993
296.22        26.51324
296.68        27.49575
297.13        28.44213
297.58        29.37243
298.04        30.31348
298.49        31.35839
298.95        32.69677
299.40        34.34225
299.85        36.22971
300.31        38.19036
300.76        39.94949
301.21        41.41373
301.67        42.69214
302.12        43.84478
302.58        45.05866
303.03         46.3644
303.48        47.72295
303.94        49.20015
304.39        50.84291
304.84        52.64428
305.30        54.57974
305.75        56.44817
306.20        57.95954
306.66        59.08449
307.11        59.87136
307.57        60.55932
308.02        61.40238
308.47        62.51523
308.93        63.82164
309.38        65.18892
309.83        66.45314
310.29        67.54679
310.74        68.49237
311.19        69.34571
311.65        70.18772
312.10        71.03394
312.55        71.87146
313.00         72.6149
313.46        73.14001
313.91        73.41838
314.36        73.51225
314.82        73.61072
315.27        73.95507
315.72        74.62277
316.18        75.54176
316.63        76.53271
317.08        77.25806
317.53         77.6211
317.99          77.699
318.44        77.70246
318.89        77.98086
319.35         78.5947
319.80        79.46135
320.25        80.30563
320.70        80.67542
321.16        80.47495
321.61        79.85943
322.06        79.14913
322.51         78.8405
322.97        79.03474
323.42        79.61816
323.87        80.32561
324.32        80.70276
324.78        80.61245
325.23        80.23244
325.68        79.76437
326.13        79.55662
326.59        79.69237
327.04        80.08495
327.49        80.59875
327.94        81.04089
328.39        81.33864
328.85        81.53674
329.30        81.72201
329.75        81.89368
330.20        82.08504
330.66        82.27244
331.11        82.53651
331.56        82.94482
332.01        83.51978
332.46        84.22443
332.92        84.99817
333.37        85.88342
333.82        86.77399
334.27        87.65983
334.72        88.38779
335.17        88.72262
335.63        88.63509
336.08        88.23994
336.53        87.78648
336.98        87.71611
337.43        88.14056
337.88        88.93605
338.34        89.89569
338.79        90.75282
339.24        91.36336
339.69        91.82798
340.14         92.1423
340.59        92.30025
341.05        92.34194
341.50        92.24796
341.95         92.1681
342.40        92.35872
342.85         92.8605
343.30        93.60605
343.75        94.40769
344.20        94.91896
344.66        95.05054
345.11        94.89216
345.56        94.58469
346.01        94.34477
346.46         94.2517
346.91         94.2467
347.36        94.31463
347.81        94.43556
348.26        94.59583
348.72        94.82838
349.17        95.07702
349.62        95.29376
350.07        95.45133
350.52        95.53595
350.97        95.56508
351.42        95.57925
351.87        95.58794
352.32         95.5887
352.77        95.53619
353.22        95.35983
353.67         95.0596
354.13        94.67789
354.58        94.29094
355.03        94.07133
355.48        94.04019
355.93        94.13463
356.38         94.2189
356.83        94.07854
357.28        93.65979
357.73        93.03056
358.18        92.29161
358.63        91.60411
359.08        91.02592
359.53        90.52126
359.98        90.05103
360.43        89.55167
360.88         89.0013
361.33        88.41972
361.78        87.84713
362.23        87.34118
362.68        86.91459
363.13        86.55275
363.58        86.17707
364.03        85.66747
364.48        85.00335
364.93        84.21555
365.38        83.42386
365.83        82.82417
366.28        82.44948
366.73        82.23012
367.18        82.02356
367.63        81.59818
368.08        80.91258
368.53        80.07263
368.98        79.19386
369.43        78.44059
369.88        77.86486
370.33         77.4088
370.78        77.07072
371.23        76.85314
371.68        76.72923
372.13        76.69126
372.58        76.65409
373.03        76.46996
373.48        76.11125
373.93         75.6283
374.38        75.09629
374.83        74.63531
375.28        74.27956
375.72        73.97622
376.17        73.74653
376.62        73.59518
377.07        73.49691
377.52        73.43446
377.97        73.31945
378.42         73.0107
378.87        72.49648
379.32        71.84603
379.77        71.14352
380.22        70.50667
380.67        69.96465
381.11        69.47823
381.56        69.06245
382.01        68.74575
382.46        68.53139
382.91        68.43904
383.36        68.36294
383.81        68.12883
384.26        67.71419
384.71        67.15584
385.15        66.61916
385.60        66.42236
386.05        66.56155
386.50        66.91778
386.95         67.2442
387.40        67.13002
387.85        66.52478
388.29        65.60367
388.74        64.67852
389.19        63.93099
389.64        63.40638
390.09        62.99955
390.54         62.7667
390.98        62.80585
391.43        63.09564
391.88        63.57999
392.33        64.00412
392.78        63.96814
393.23        63.45075
393.67        62.62533
394.12        61.84289
394.57        61.30891
395.02        61.14592
395.47        61.45028
395.91        62.09673
396.36          62.558
396.81        62.71718
397.26        62.76496
397.71        62.70109
398.15        62.40894
398.60        61.99835
399.05        61.52041
399.50         61.0481
399.95        60.51106
400.39        60.21974
400.84         59.9626
401.29        59.82165
401.74         59.9134
402.18        60.16958
402.63        60.20524
403.08        60.10398
403.53        60.27271
403.97        60.71346
404.42        61.18432
404.87        61.47935
405.32        61.35491
405.76        60.77058
406.21        59.88853
406.66        58.99939
407.11        58.52688
407.55        58.58406
408.00        59.01627
408.45        59.62894
408.90        60.10507
409.34         60.2222
409.79        59.83244
410.24        59.17029
410.68        58.82304
411.13         58.8847
411.58        59.04877
412.03        59.27081
412.47        59.59062
412.92        59.91696
413.37        60.26731
413.81        60.52374
414.26        60.53701
414.71        60.27901
415.15        59.79239
415.60        59.24032
416.05        58.91111
416.49         58.8836
416.94        59.09718
417.39        59.38449
417.83         59.4388
418.28        59.20119
418.73        58.78022
419.17        58.36676
419.62         58.2664
420.07        58.50504
420.51        58.96261
420.96        59.46346
421.41        59.65721
421.85        59.43779
422.30        59.18645
422.74         58.9232
423.19        58.36936
423.64        57.73632
424.08        57.93786
424.53        58.84685
424.98        59.39484
425.42        59.45751
425.87        59.74879
426.31        60.24611
426.76         60.3068
427.21        60.09751
427.65        60.40754
428.10         61.1465
428.54           61.75
428.99        62.17656
429.44        62.26876
429.88        62.11826
430.33        62.78753
430.77        63.70345
431.22        62.81646
431.66        60.58766
432.11        59.40418
432.56        59.55655
433.00        60.16874
433.45        61.10837
433.89        62.83776
434.34        64.17857
434.78        65.12993
435.23        61.77341
435.67        60.80265
436.12        62.56644
436.57        63.55538
437.01        63.84262
437.46         63.9695
437.90        64.09747
438.35        63.88761
438.79        64.36348
439.24        64.40894
439.68        64.33871
440.13        64.18184
440.57        64.18564
441.02        64.90972
441.46         66.0745
441.91        66.94283
442.35        67.20457
442.80        66.50073
443.24         65.2594
443.69        65.68893
444.13        67.45806
444.58        67.47372
445.02        65.95011
445.47        65.80374
445.91        66.93256
446.36        67.32258
446.80        66.89843
447.24        66.69028
447.69        66.79479
448.13        66.95795
448.58        67.20184
449.02        67.52457
449.47        67.84451
449.91        68.14603
450.36        68.23833
450.80        68.26068
451.25        68.20177
451.69        68.09486
452.13        67.97966
452.58         67.8578
453.02        67.76051
453.47        67.77167
453.91         67.8798
454.36        68.06039
454.80        68.25687
455.24        68.27603
455.69        68.09729
456.13        67.93943
456.58          67.856
457.02        67.40537
457.46        66.85154
457.91        67.10482
458.35        67.94581
458.79        68.27933
459.24        68.07917
459.68        67.80188
460.13         67.4934
460.57         67.3343
461.01        67.48405
461.46        66.53671
461.90        66.33725
462.34        67.02713
462.79        66.33618
463.23        66.47233
463.68         66.6096
464.12        66.84038
464.56        67.07894
465.01        67.39906
465.45        67.55229
465.89        67.36729
466.34        66.85364
466.78        65.74106
467.22         64.5398
467.67        64.37725
468.11        65.43551
468.55        66.12283
468.99        66.21034
469.44        65.98341
469.88        65.62328
470.32         65.7253
470.77        66.20013
471.21        66.24644
471.65        65.82824
472.10        65.55785
472.54        65.50655
472.98        65.50718
473.42        65.56682
473.87        65.79751
474.31        66.06852
474.75        66.09155
475.20        65.86546
475.64         65.6822
476.08        65.67604
476.52        65.49565
476.97        65.09576
477.41        65.72887
477.85        66.03761
478.29        65.28811
478.74         65.9808
479.18        65.80928
479.62        65.25296
480.06        65.83473
480.50        66.06474
480.95        66.34496
481.39        66.27672
481.83        65.55429
482.27        65.64312
482.72        65.29328
483.16         64.5813
483.60        64.20989
484.04        65.98383
484.48        66.21582
484.93          66.014
485.37        67.31677
485.81        67.93494
486.25         66.9416
486.69        90.09486
487.14        72.70208
487.58        45.70384
488.02        56.20534
488.46        63.77351
488.90        63.20143
489.34         65.0507
489.79         64.3713
490.23        66.34051
490.67         67.0098
491.11        65.90743
491.55        65.83767
491.99         66.3892
492.43        66.22861
492.88        65.44247
493.32        65.36784
493.76        65.55435
494.20        65.83596
494.64        65.97122
495.08        66.19641
495.52        66.52005
495.96         66.5119
496.41        66.18784
496.85        66.67387
497.29        67.63543
497.73        66.43856
498.17        64.11451
498.61        64.19326
499.05        66.69631
499.49         67.3389
499.93        67.48438
500.37        67.30658
500.82         66.7402
501.26        66.86384
501.70        67.41112
502.14        67.59821
502.58        67.29498
503.02        67.03056
503.46        66.82303
503.90        66.37234
504.34        65.85423
504.78         65.6719
505.22        65.86085
505.66        66.36469
506.10        67.00438
506.54        67.22662
506.98         66.8828
507.42        66.92699
507.86        66.35817
508.30        65.85773
508.74        66.16541
509.18        66.39247
509.62        66.70898
510.06        66.89909
510.50        66.92341
510.94        66.83454
511.38        66.70114
511.82        66.64927
512.26         66.7139
512.70        66.83276
513.14        66.96576
513.58        67.10132
514.02        67.22273
514.46        67.16574
514.90        67.24345
515.34        67.19709
515.78        67.11136
516.22        67.05068
516.66        67.02775
517.10        66.86526
517.54        66.56501
517.98        66.83196
518.42        66.71036
518.86        66.85086
519.30        66.97601
519.74        67.23305
520.18        67.53655
520.62        67.68967
521.06         67.6792
521.50        67.48376
521.93        67.35378
522.37        67.22083
522.81        67.18033
523.25        67.20342
523.69        67.29004
524.13        67.43478
524.57        67.62212
525.01        67.85368
525.45        68.07876
525.89        68.21471
526.32        68.23347
526.76        68.14748
527.20        68.00735
527.64        67.91731
528.08        67.91755
528.52        67.92659
528.96         67.8678
529.40        67.81086
529.83        67.77962
530.27        67.07779
530.71        67.11349
531.15        66.94364
531.59        66.99098
532.03        67.17229
532.46        67.45203
532.90        67.73896
533.34        67.97552
533.78        68.18026
534.22         68.3111
534.66        68.32912
535.09        68.22714
535.53        68.01508
535.97        67.73641
536.41        67.62403
536.85        67.49237
537.28        67.50235
537.72        67.55294
538.16        67.59879
538.60         67.6195
539.04         67.5762
539.47        67.49396
539.91        67.58602
540.35        67.78181
540.79        67.78267
541.22        67.59184
541.66        67.49158
542.10        67.48526
542.54        67.40506
542.97        67.28506
543.41        67.28471
543.85        67.40365
544.29        67.61485
544.72        67.80381
545.16        67.82139
545.60         67.6382
546.04        67.29927
546.47        66.96546
546.91        66.93911
547.35        67.25785
547.79         67.7643
548.22        68.24141
548.66        68.50771
549.10        68.42116
549.53        67.77135
549.97        66.88024
550.41        66.45238
550.84        66.58792
551.28        67.01849
551.72        67.56916
552.15        67.87918
552.59        67.82348
553.03        68.07243
553.46        67.68267
553.90        67.64885
554.34        67.71182
554.77        67.76511
555.21        67.75565
555.65        67.84032
556.08        68.04974
556.52        67.51858
556.96        67.84811
557.39        67.73456
557.83        67.67748
558.27        67.70507
558.70        67.85815
559.14        67.84521
559.57        68.16989
560.01        68.34649
560.45        68.48034
560.88        68.59631
561.32        68.63548
561.75        68.33379
562.19         67.8435
562.63        67.40585
563.06        67.16235
563.50        67.37267
563.93        67.87359
564.37        68.12138
564.80        68.03197
565.24        67.93423
565.68        67.86951
566.11        67.80874
566.55        67.82092
566.98        67.81248
567.42        67.79628
567.85        68.00616
568.29        68.40175
568.72        68.31773
569.16        67.96565
569.60        68.44852
570.03         68.7903
570.47        68.81419
570.90        68.58833
571.34        66.86565
571.77        68.08585
572.21        67.89304
572.64        67.22335
573.08        66.71059
573.51        63.56299
573.95        66.05117
574.38        70.07961
574.82        68.14935
