SpectraSmart Spectrum 2.9.0.0
--------- Device Information -----------
Spectrum Name :  反射率_0
Saving Time :  2024/04/26 01:17:45
Spectro-Module Model Name : SE2030-DUVN
Spectro-Module Serial Number : OS361AC55029948
Wavelength Start : 200
Wavelength End : 1025
Wavelength Unit : Wavelength(nm)
Spectrum Unit : Reflectance(%)
-----------Spectrum Setting ------------
Integration Time : 20ms
Average : 10
Boxcar : 0
Background removal :  enabled
linearity correction :  enabled
SC :  disabled
Intensity correction :  disabled
DWT denoise :  enabled
savitzky-golay :  disabled
FFT :  disabled
Running average :  disabled
Kalman :  disabled
High pass :  disabled
---------------BEGIN--------------------
Wavelength(nm)             Reflectance(%)
200.29               0
200.75        97.60783
201.21         90.4822
201.67        81.61111
202.13        75.68255
202.58        73.41674
203.04        73.92831
203.50        75.72449
203.96        76.36586
204.42        75.36094
204.88         73.7101
205.34        72.59923
205.80        73.37418
206.26        76.85276
206.72        84.88386
207.18        100.7421
207.64        115.5559
208.10        107.9175
208.55        89.63631
209.01        77.42313
209.47        72.43414
209.93        71.47218
210.39        73.05329
210.85        75.06621
211.31        73.59161
211.77        67.82593
212.23        59.26847
212.69        52.03542
213.14        52.45171
213.60         61.1821
214.06        76.33969
214.52         92.2483
214.98        100.2615
215.44        98.57057
215.90        90.14341
216.36        79.77345
216.81        74.23483
217.27          74.976
217.73        79.31365
218.19        83.80183
218.65        84.06451
219.11        78.62586
219.57        67.17587
220.02        51.06138
220.48        39.38235
220.94        38.19073
221.40        45.73256
221.86        54.12527
222.32        54.66602
222.77        47.97226
223.23        38.64147
223.69        31.17539
224.15        30.12292
224.61        34.87273
225.06        42.99336
225.52        50.97405
225.98        54.41568
226.44        52.56684
226.90        47.32736
227.36        41.32005
227.81        38.08076
228.27        38.62452
228.73        41.51091
229.19        45.18636
229.65        47.38711
230.10        47.63625
230.56         46.9187
231.02         46.0568
231.48        45.92364
231.93        46.58557
232.39        47.61617
232.85        48.66758
233.31        49.32185
233.77        49.43237
234.22        49.18037
234.68        48.62746
235.14        47.82597
235.60        46.95341
236.05        46.12572
236.51        45.53449
236.97        45.39653
237.43        45.82203
237.88        46.91749
238.34        48.87777
238.80         51.9393
239.26        55.85862
239.71        60.46055
240.17        64.64583
240.63         67.2804
241.08         68.2049
241.54        67.55024
242.00        66.41324
242.46        66.50104
242.91        69.02419
243.37        75.93317
243.83        97.36617
244.28        163.3364
244.74         230.648
245.20        185.0375
245.66        146.8092
246.11        134.9086
246.57        136.5029
247.03        152.2415
247.48        197.6518
247.94        156.4495
248.40        103.0278
248.85        89.04006
249.31        86.05842
249.77        87.02527
250.22        90.53511
250.68        97.03426
251.14        106.4778
251.59        113.0331
252.05        110.6748
252.51         102.053
252.96        92.16138
253.42        86.16417
253.88        83.75462
254.33        83.12756
254.79        84.74792
255.25        88.58927
255.70        93.42668
256.16        98.77694
256.62        102.4368
257.07        102.1563
257.53        98.95202
257.99        93.72849
258.44        88.29519
258.90        85.78843
259.35         85.2808
259.81        85.68371
260.27        85.30448
260.72         82.5321
261.18        78.12061
261.63        72.70298
262.09        67.60303
262.55        63.56619
263.00        60.63766
263.46        58.64397
263.91        57.00442
264.37        55.45759
264.83        53.74342
265.28        51.82756
265.74        50.01873
266.19         48.4971
266.65        47.47618
267.11        46.79451
267.56        46.12326
268.02        45.07145
268.47         43.5137
268.93         41.5918
269.38        39.58183
269.84        38.20551
270.30        37.65462
270.75        37.73502
271.21        38.03669
271.66        37.93177
272.12        37.25425
272.57        36.18651
273.03        35.05435
273.48        34.25952
273.94        33.92463
274.39        33.85449
274.85        33.82602
275.31        33.50093
275.76        32.80583
276.22         31.9094
276.67         30.9823
277.13        30.36801
277.58        30.06874
278.04        29.99027
278.49        29.92063
278.95         29.6418
279.40        29.07527
279.86        28.36936
280.31        27.59114
280.77        26.96034
281.22        26.48782
281.68        26.13912
282.13        25.86805
282.59         25.6522
283.04        25.46561
283.50        25.36472
283.95        25.28397
284.41        25.14353
284.86        24.92701
285.32        24.65946
285.77        24.46507
286.22        24.59986
286.68        25.05869
287.13        25.71602
287.59        26.31598
288.04        26.46769
288.50         26.1362
288.95        25.44161
289.41        24.65839
289.86        24.08606
290.32         23.8668
290.77         23.8977
291.22        24.11055
291.68        24.35626
292.13        24.60456
292.59        24.92809
293.04        25.38733
293.50        26.06789
293.95        26.96509
294.40        28.00106
294.86        29.10663
295.31        30.19779
295.77        31.25297
296.22        32.30096
296.68        33.32957
297.13        34.28703
297.58        35.19038
298.04        36.06675
298.49         37.0178
298.95        38.25641
299.40         39.8026
299.85        41.58775
300.31        43.45051
300.76        45.12463
301.21        46.51741
301.67        47.74128
302.12        48.83697
302.58        49.96767
303.03         51.1619
303.48        52.40185
303.94        53.77499
304.39         55.3567
304.84        57.14999
305.30        59.11501
305.75         61.0527
306.20        62.68119
306.66        63.95842
307.11        64.91611
307.57        65.75434
308.02        66.66064
308.47        67.74904
308.93         68.9763
309.38        70.24854
309.83        71.46803
310.29        72.59113
310.74        73.61601
311.19        74.60593
311.65        75.65265
312.10        76.75608
312.55        77.89266
313.00        78.91512
313.46        79.59586
313.91        79.88488
314.36        79.87853
314.82        79.82768
315.27          80.069
315.72        80.71201
316.18        81.65584
316.63        82.71407
317.08        83.53251
317.53        83.99835
317.99        84.19569
318.44        84.30151
318.89        84.60887
319.35        85.17032
319.80        85.92212
320.25        86.63449
320.70        86.93793
321.16        86.76395
321.61        86.24666
322.06        85.67953
322.51        85.51701
322.97        85.84178
323.42        86.55068
323.87        87.37658
324.32        87.86055
324.78        87.85988
325.23        87.54836
325.68        87.12019
326.13        86.92062
326.59         87.0348
327.04        87.38534
327.49         87.8521
327.94        88.26899
328.39        88.57013
328.85        88.78964
329.30        89.00958
329.75         89.2057
330.20        89.40253
330.66        89.58484
331.11        89.82874
331.56        90.18811
332.01        90.69132
332.46        91.30971
332.92        92.00729
333.37         92.8913
333.82        93.86197
334.27        94.88029
334.72        95.77212
335.17        96.26207
335.63        96.29795
336.08        96.01589
336.53        95.61126
336.98        95.44683
337.43         95.6369
337.88        96.07828
338.34        96.70634
338.79         97.4964
339.24        98.35495
339.69        99.32494
340.14        100.2084
340.59        100.6524
341.05        100.6067
341.50        100.1571
341.95        99.65348
342.40        99.65105
342.85        100.2592
343.30        101.3158
343.75        102.5013
344.20        103.2428
344.66        103.3845
345.11        103.1015
345.56        102.6264
346.01        102.3086
346.46        102.2628
346.91        102.3709
347.36        102.5843
347.81        102.8407
348.26        103.1044
348.72        103.4285
349.17        103.7336
349.62        103.9262
350.07        103.9794
350.52        103.8936
350.97         103.748
351.42        103.6797
351.87        103.7182
352.32        103.8363
352.77        103.9305
353.22        103.8354
353.67        103.5244
354.13        103.0634
354.58        102.5747
355.03        102.3075
355.48        102.2989
355.93        102.4607
356.38        102.6066
356.83        102.4426
357.28        101.9059
357.73        101.1041
358.18        100.1982
358.63        99.43993
359.08        98.90821
359.53         98.5294
359.98        98.22752
360.43        97.88602
360.88        97.45219
361.33        96.94729
361.78        96.39618
362.23        95.83322
362.68        95.27605
363.13        94.73232
363.58         94.1395
364.03        93.40167
364.48        92.52275
364.93        91.53987
365.38        90.62594
365.83        90.05759
366.28         89.8661
366.73        89.93729
367.18        90.03848
367.63        89.78805
368.08        89.10193
368.53        88.13712
368.98        87.03836
369.43        86.02163
369.88        85.17234
370.33        84.41528
370.78         83.8278
371.23        83.54306
371.68        83.55289
372.13        83.82337
372.58        84.12407
373.03         84.0509
373.48         83.5179
373.93        82.65366
374.38        81.69404
374.83        81.01023
375.28        80.69653
375.72        80.62053
376.17        80.69094
376.62        80.73187
377.07        80.65884
377.52        80.50834
377.97        80.25562
378.42        79.85679
378.87        79.33006
379.32        78.71213
379.77        78.03994
380.22        77.36825
380.67        76.71695
381.11        76.07178
381.56        75.50967
382.01        75.15495
382.46        75.02914
382.91        75.11886
383.36        75.23428
383.81        75.06904
384.26        74.57133
384.71        73.82027
385.15        73.06517
385.60         72.7529
386.05        72.90681
386.50        73.37527
386.95        73.84402
387.40        73.78762
387.85        73.12991
388.29        72.08241
388.74        71.04318
389.19        70.28303
389.64        69.85497
390.09        69.61427
390.54        69.54634
390.98        69.63202
391.43        69.82481
391.88         70.1182
392.33        70.32312
392.78        70.13535
393.23        69.55967
393.67        68.72906
394.12        67.97977
394.57        67.49249
395.02        67.37292
395.47        67.70184
395.91        68.35783
396.36        68.83543
396.81        69.01539
397.26        69.06009
397.71        68.97658
398.15        68.64642
398.60        68.18416
399.05        67.70084
399.50        67.24146
399.95        66.54214
400.39        65.99369
400.84        65.69059
401.29        65.70863
401.74        65.77612
402.18        65.85438
402.63        65.97017
403.08        66.13722
403.53         66.3548
403.97        66.59992
404.42        66.81718
404.87        66.88727
405.32        66.64949
405.76        66.09433
406.21        65.33908
406.66        64.60217
407.11        64.22572
407.55        64.28666
408.00         64.6216
408.45         65.0695
408.90        65.39099
409.34        65.41547
409.79        65.02901
410.24        64.43614
410.68        64.12212
411.13        64.17004
411.58        64.33337
412.03        64.56684
412.47        64.88064
412.92          65.182
413.37        65.49718
413.81        65.72598
414.26        65.75331
414.71        65.55131
415.15        65.14346
415.60        64.67337
416.05        64.39683
416.49        64.38483
416.94        64.59563
417.39        64.85307
417.83        64.83418
418.28          64.493
418.73           63.95
419.17        63.45889
419.62        63.42258
420.07        63.87021
420.51        64.64355
420.96        65.47915
421.41        65.86031
421.85         65.6322
422.30        65.27477
422.74        64.85845
423.19        64.09498
423.64        63.26212
424.08        63.46009
424.53        64.52091
424.98        65.11026
425.42        65.07819
425.87        65.30264
426.31        65.77802
426.76        65.81381
427.21        65.57991
427.65        65.86311
428.10        66.60933
428.54        67.31186
428.99        67.92861
429.44        68.29921
429.88        68.39283
430.33        69.07155
430.77        69.76462
431.22        68.54263
431.66        66.01052
432.11          64.751
432.56        65.02676
433.00        65.89079
433.45        67.16302
433.89         68.8586
434.34         69.6777
434.78        71.09259
435.23        67.65405
435.67        65.78277
436.12        67.90143
436.57         68.7917
437.01        69.23981
437.46        69.41988
437.90        69.50881
438.35        69.40411
438.79        69.93109
439.24        70.02216
439.68        69.94083
440.13        69.66916
440.57        69.50397
441.02        70.28304
441.46        71.65417
441.91        72.39421
442.35        72.27654
442.80        71.46412
443.24        70.38145
443.69        70.88821
444.13        72.63593
444.58        72.79591
445.02        71.48838
445.47        71.25861
445.91        72.06565
446.36        72.30287
446.80        71.92984
447.24        71.75834
447.69        71.86498
448.13        72.04095
448.58        72.29704
449.02        72.64104
449.47        72.99535
449.91        73.24563
450.36         73.3627
450.80         73.3631
451.25        73.28871
451.69        73.17484
452.13        73.06551
452.58        72.95781
453.02        72.88605
453.47        72.94573
453.91        73.11884
454.36        73.38102
454.80        73.66432
455.24        73.68299
455.69        73.39114
456.13        73.17185
456.58        73.14487
457.02        72.28636
457.46        71.81421
457.91        72.17986
458.35        72.92852
458.79        73.25624
459.24        72.99096
459.68        72.63017
460.13        72.23402
460.57        71.97855
461.01        72.02356
461.46        71.02937
461.90        70.92932
462.34        71.38347
462.79        70.83335
463.23         71.1947
463.68        71.70818
464.12        72.08778
464.56         72.2208
465.01         72.2077
465.45        72.00254
465.89        72.01559
466.34        72.07474
466.78        71.07607
467.22         69.5592
467.67        69.01312
468.11        70.16189
468.55        70.80302
468.99        70.74017
469.44        70.37163
469.88        69.88052
470.32        69.98154
470.77        70.57212
471.21        70.72437
471.65        70.37132
472.10        70.18212
472.54        70.22162
472.98        70.23503
473.42        70.21092
473.87        70.42883
474.31        70.71842
474.75        70.40102
475.20        69.68488
475.64        69.59608
476.08        70.09764
476.52         70.1836
476.97        69.80901
477.41        69.74136
477.85        70.07944
478.29        69.64671
478.74        70.26785
479.18        70.37429
479.62        69.48133
480.06        70.13863
480.50        70.54373
480.95        70.90945
481.39        70.76605
481.83        70.14403
482.27        69.93223
482.72        69.78531
483.16        68.50462
483.60         68.4805
484.04          70.158
484.48        70.52466
484.93        70.25142
485.37        72.09949
485.81        72.30271
486.25        71.30704
486.69        97.60016
487.14        79.16445
487.58        48.91096
488.02        60.41758
488.46        68.57635
488.90        67.73838
489.34        68.79364
489.79        68.13434
490.23        70.16164
490.67        71.16529
491.11        70.19489
491.55        70.17599
491.99        70.67527
492.43        70.51462
492.88        69.79885
493.32        69.73091
493.76        69.83325
494.20          70.055
494.64         70.1606
495.08        70.37656
495.52        70.69292
495.96        70.66515
496.41        70.30572
496.85        70.69231
497.29        71.55729
497.73        70.45887
498.17        68.38509
498.61        68.61982
499.05        71.13792
499.49        71.60277
499.93        71.55389
500.37        71.22125
500.82        70.55491
501.26         70.6485
501.70        71.19769
502.14        71.34827
502.58        70.98735
503.02        70.75813
503.46         70.6749
503.90        70.35201
504.34        69.92748
504.78        69.78325
505.22        69.92933
505.66        70.35275
506.10         70.9295
506.54        71.03485
506.98        70.50314
507.42        70.92455
507.86         70.2062
508.30        69.67734
508.74        70.01469
509.18        70.16699
509.62        70.39878
510.06        70.53365
510.50        70.55521
510.94        70.48386
511.38        70.38338
511.82        70.37668
512.26        70.48739
512.70        70.67088
513.14        70.86603
513.58        70.98254
514.02        70.98897
514.46        70.90766
514.90         70.7937
515.34        70.71626
515.78        70.68587
516.22        70.74781
516.66        70.84732
517.10        70.72749
517.54        70.37308
517.98        70.43019
518.42        70.13091
518.86        70.21228
519.30        70.43281
519.74        70.81164
520.18        71.22601
520.62        71.47124
521.06        71.50539
521.50        71.38602
521.93        71.18796
522.37        71.03464
522.81        70.97631
523.25        70.97666
523.69         71.0305
524.13        71.13142
524.57        71.26641
525.01        71.43884
525.45        71.61408
525.89        71.73132
526.32        71.76418
526.76        71.71884
527.20        71.61625
527.64        71.51388
528.08        71.44738
528.52        71.35176
528.96        71.18684
529.40        71.08862
529.83        71.09588
530.27        70.45419
530.71        70.61307
531.15        70.53895
531.59        70.65948
532.03        70.89664
532.46        71.21457
532.90        71.51913
533.34        71.75328
533.78        71.93713
534.22        72.03501
534.66         72.0061
535.09        71.84454
535.53        71.58957
535.97         71.2995
536.41        71.09137
536.85        71.00129
537.28        71.00966
537.72        71.06467
538.16        71.08922
538.60        71.06075
539.04        70.94701
539.47        70.78872
539.91        70.83691
540.35         71.0241
540.79        71.02989
541.22        70.85456
541.66         70.7876
542.10        70.82829
542.54        70.80312
542.97        70.73778
543.41        70.78262
543.85        70.93324
544.29        71.16338
544.72        71.36654
545.16        71.40175
545.60         71.2371
546.04        70.93542
546.47        70.64706
546.91        70.59116
547.35           70.83
547.79        71.37227
548.22        71.95934
548.66        72.18025
549.10        71.90886
549.53        71.13176
549.97        70.20056
550.41        69.74696
550.84        69.88011
551.28         70.3635
551.72        70.99773
552.15        71.38512
552.59        71.39073
553.03        71.57401
553.46        71.20846
553.90        71.10715
554.34        71.08354
554.77        71.02309
555.21        70.90904
555.65        70.96842
556.08          71.242
556.52        70.79611
556.96        71.25625
557.39        71.21864
557.83        71.19481
558.27        71.14934
558.70        71.13577
559.14        71.24506
559.57        71.45458
560.01         71.6669
560.45        71.82832
560.88        72.02031
561.32        72.15556
561.75         71.8977
562.19        71.39995
562.63        70.93479
563.06        70.65489
563.50        70.83243
563.93        71.32824
564.37        71.55994
564.80        71.43137
565.24        71.39676
565.68         71.5071
566.11        71.14514
566.55        71.37789
566.98        71.28332
567.42        71.22717
567.85        71.53896
568.29         72.1501
568.72        72.27444
569.16        72.09923
569.60        72.46142
570.03        73.01769
570.47        72.94202
570.90        72.56508
571.34        70.80502
571.77         71.7929
572.21        71.87325
572.64        71.32796
573.08        70.41617
573.51         67.4588
573.95        70.18293
574.38        74.65497
574.82        72.81942
