SpectraSmart Spectrum 2.9.0.0
--------- Device Information -----------
Spectrum Name :  反射率_0
Saving Time :  2024/04/26 01:06:05
Spectro-Module Model Name : SE2030-DUVN
Spectro-Module Serial Number : OS361AC55029948
Wavelength Start : 200
Wavelength End : 1025
Wavelength Unit : Wavelength(nm)
Spectrum Unit : Reflectance(%)
-----------Spectrum Setting ------------
Integration Time : 20ms
Average : 10
Boxcar : 0
Background removal :  enabled
linearity correction :  enabled
SC :  disabled
Intensity correction :  disabled
DWT denoise :  enabled
savitzky-golay :  disabled
FFT :  disabled
Running average :  disabled
Kalman :  disabled
High pass :  disabled
---------------BEGIN--------------------
Wavelength(nm)             Reflectance(%)
200.29               0
200.75        94.67525
201.21        88.61546
201.67        81.03221
202.13        76.34362
202.58        75.14676
203.04          76.519
203.50        78.75677
203.96        79.09288
204.42        77.10905
204.88        74.12865
205.34        71.49922
205.80        70.38786
206.26        71.11044
206.72        74.30147
207.18        81.27464
207.64         87.4664
208.10        83.15717
208.55        74.35046
209.01        69.03649
209.47        67.97709
209.93        69.57819
210.39        73.24276
210.85        77.06195
211.31         76.9101
211.77        71.81184
212.23        63.45298
212.69        55.85025
213.14        55.23689
213.60         62.3812
214.06        75.35052
214.52        89.53737
214.98        97.88474
215.44        98.55479
215.90        93.84398
216.36        86.69506
216.81        81.17633
217.27        78.77444
217.73        78.21207
218.19        77.76551
218.65         75.0755
219.11        69.06415
219.57        58.98991
220.02        46.19316
220.48        38.67128
220.94           40.88
221.40        50.83915
221.86         60.0693
222.32        59.74184
222.77        51.10264
223.23        39.18873
223.69        29.37746
224.15         27.1237
224.61        31.73989
225.06        40.43349
225.52        49.17127
225.98        52.78999
226.44        50.42273
226.90         44.2734
227.36        37.36287
227.81        33.79293
228.27        34.63776
228.73        38.15313
229.19        42.49243
229.65        44.99072
230.10        45.08967
230.56        43.98603
231.02        42.57222
231.48        41.74371
231.93        41.64518
232.39        41.88223
232.85        42.26145
233.31        42.62105
233.77        42.85987
234.22        43.04432
234.68        43.18013
235.14         43.1465
235.60        42.94791
236.05        42.67858
236.51        42.32797
236.97        41.82886
237.43        41.22591
237.88        40.58283
238.34        40.31496
238.80        41.49729
239.26        44.50851
239.71        49.10949
240.17        54.17738
240.63        58.20612
241.08        60.68487
241.54        61.72818
242.00        61.97126
242.46        62.54381
242.91        64.32578
243.37         68.2053
243.83        80.08313
244.28        120.1425
244.74        168.3959
245.20        146.2004
245.66        123.8708
246.11        117.7839
246.57        121.7026
247.03        139.6517
247.48        193.9658
247.94        168.0452
248.40        110.2469
248.85        92.18079
249.31        87.20368
249.77        87.55977
250.22        91.21769
250.68        98.44407
251.14        108.6326
251.59        113.9355
252.05        107.5129
252.51        93.61448
252.96        79.83628
253.42        72.90553
253.88        72.03784
254.33        74.66058
254.79        79.52815
255.25        84.31163
255.70        87.72936
256.16        90.44688
256.62        91.51177
257.07         89.8611
257.53        86.35153
257.99         81.3189
258.44        76.09449
258.90        73.22446
259.35        71.96413
259.81        71.56927
260.27        70.57909
260.72        67.56564
261.18        63.16476
261.63        57.91199
262.09        53.10518
262.55        49.58242
263.00        47.31779
263.46        45.99856
263.91        44.90317
264.37        43.51266
264.83        41.64813
265.28        39.41172
265.74        37.30444
266.19        35.85521
266.65        35.25745
267.11        35.17741
267.56        35.15036
268.02         34.6115
268.47        33.44679
268.93         31.8628
269.38         30.1145
269.84        28.86822
270.30        28.30853
270.75        28.24459
271.21        28.38755
271.66        28.31022
272.12        27.87341
272.57        27.21513
273.03        26.50105
273.48        25.89276
273.94        25.47422
274.39        25.15615
274.85        24.87228
275.31        24.53055
275.76        24.09885
276.22         23.6279
276.67        23.17657
277.13        22.90791
277.58          22.787
278.04        22.77874
278.49        22.70946
278.95        22.38593
279.40        21.76942
279.86        20.99545
280.31        20.19061
280.77        19.64897
281.22        19.39115
281.68        19.33954
282.13        19.38892
282.59        19.41287
283.04        19.36776
283.50        19.32775
283.95        19.25997
284.41        19.12475
284.86        18.92664
285.32        18.67885
285.77        18.49713
286.22        18.61944
286.68        19.03848
287.13        19.64079
287.59        20.20143
288.04        20.38149
288.50        20.14466
288.95        19.60324
289.41        18.96385
289.86        18.43705
290.32        18.15038
290.77        18.03415
291.22        18.10016
291.68        18.32606
292.13        18.69752
292.59        19.22707
293.04        19.88299
293.50        20.60415
293.95        21.35054
294.40        22.09718
294.86        22.82944
295.31        23.54746
295.77        24.26603
296.22        25.00054
296.68        25.75254
297.13        26.49244
297.58        27.24176
298.04        28.02715
298.49        28.93272
298.95        30.12944
299.40        31.62319
299.85        33.34763
300.31        35.13657
300.76        36.72559
301.21        38.02579
301.67        39.14402
302.12        40.14207
302.58        41.19932
303.03        42.35394
303.48        43.57813
303.94         44.9437
304.39        46.50858
304.84        48.26933
305.30        50.19498
305.75        52.10076
306.20        53.71723
306.66        55.00684
307.11        56.00581
307.57        56.90651
308.02        57.90254
308.47          59.099
308.93        60.44134
309.38        61.84122
309.83        63.20222
310.29        64.47262
310.74        65.65252
311.19        66.77007
311.65         67.8666
312.10        68.94428
312.55        69.99893
313.00        70.94654
313.46        71.66248
313.91        72.11475
314.36          72.358
314.82        72.57925
315.27        73.02386
315.72         73.7738
316.18         74.7621
316.63        75.81615
317.08        76.60567
317.53        77.03839
317.99        77.19388
318.44         77.2841
318.89        77.65874
319.35        78.37912
319.80         79.3625
320.25         80.3326
320.70        80.83316
321.16        80.76314
321.61        80.27427
322.06        79.68233
322.51        79.48144
322.97        79.77314
323.42        80.44373
323.87        81.23199
324.32        81.68871
324.78        81.67828
325.23        81.38069
325.68        80.99131
326.13        80.84846
326.59        81.03457
327.04        81.46504
327.49         82.0207
327.94        82.53732
328.39        82.94502
328.85        83.27679
329.30        83.59087
329.75        83.83297
330.20        84.02488
330.66        84.16528
331.11        84.36279
331.56        84.72892
332.01        85.30468
332.46        86.04099
332.92        86.88688
333.37         87.9028
333.82        88.97439
334.27        90.08321
334.72        91.02547
335.17        91.48084
335.63        91.39651
336.08        90.90723
336.53        90.31389
336.98        90.14477
337.43        90.54497
337.88         91.3821
338.34        92.42198
338.79        93.35177
339.24        94.01144
339.69        94.50658
340.14        94.87711
340.59        95.18627
341.05        95.47346
341.50        95.68503
341.95        95.86426
342.40        96.11948
342.85        96.47794
343.30        96.92448
343.75        97.40541
344.20        97.80608
344.66        98.09608
345.11        98.28416
345.56        98.38567
346.01         98.4267
346.46        98.43228
346.91        98.40118
347.36        98.36972
347.81        98.39734
348.26        98.50249
348.72        98.69523
349.17        98.91647
349.62        99.11632
350.07        99.27136
350.52        99.38368
350.97        99.47907
351.42        99.60342
351.87        99.75919
352.32         99.9249
352.77        100.0398
353.22        100.0142
353.67        99.83347
354.13        99.53954
354.58        99.18564
355.03        98.91293
355.48         98.7477
355.93        98.64808
356.38        98.53046
356.83        98.26051
357.28        97.80825
357.73        97.22475
358.18         96.5805
358.63        95.98285
359.08         95.4696
359.53        95.01529
359.98        94.58604
360.43        94.12932
360.88        93.62183
361.33        93.06772
361.78         92.4987
362.23         91.9649
362.68        91.47884
363.13        91.03777
363.58         90.5663
364.03         89.9435
364.48        89.16134
364.93        88.26519
365.38        87.39796
365.83        86.79167
366.28        86.48071
366.73        86.36722
367.18        86.29816
367.63         86.0234
368.08        85.48044
368.53        84.77887
368.98        83.97011
369.43        83.12357
369.88         82.2884
370.33        81.43644
370.78        80.69511
371.23        80.28358
371.68        80.22736
372.13        80.46297
372.58        80.76312
373.03        80.73084
373.48        80.26962
373.93        79.50784
374.38        78.64108
374.83        77.97259
375.28         77.5873
375.72        77.37524
376.17         77.2856
376.62        77.21299
377.07        77.09563
377.52        76.94735
377.97        76.73669
378.42        76.40564
378.87        75.95865
379.32        75.43713
379.77        74.84529
380.22        74.18948
380.67        73.48513
381.11        72.72768
381.56        72.04404
382.01        71.64449
382.46        71.56957
382.91        71.78178
383.36        72.03259
383.81        71.91958
384.26        71.36987
384.71        70.49517
385.15        69.60222
385.60        69.21822
386.05        69.38403
386.50        69.91859
386.95        70.46825
387.40         70.4398
387.85        69.74411
388.29        68.63383
388.74        67.52535
389.19        66.71855
389.64        66.27535
390.09        66.03706
390.54        66.00153
390.98        66.17097
391.43        66.48208
391.88        66.91018
392.33        67.22255
392.78        67.01889
393.23         66.2985
393.67          65.333
394.12        64.47586
394.57        63.73407
395.02        63.32952
395.47        63.79701
395.91        64.94118
396.36        65.68876
396.81        65.84563
397.26        65.87685
397.71        65.83065
398.15         65.5094
398.60        65.03262
399.05         64.5782
399.50         64.1598
399.95        63.35441
400.39         62.5996
400.84        62.30537
401.29         62.5086
401.74        62.60114
402.18        62.52201
402.63        62.49912
403.08        62.59304
403.53        62.79134
403.97        63.07758
404.42         63.3865
404.87        63.58657
405.32        63.46908
405.76        63.00197
406.21        62.38641
406.66        61.78685
407.11        61.30935
407.55        61.12109
408.00        61.42205
408.45        62.05089
408.90         62.5589
409.34        62.65697
409.79        62.03782
410.24        61.03746
410.68        60.58791
411.13        60.79867
411.58        61.16668
412.03        61.55761
412.47        61.94641
412.92         62.2037
413.37        62.36734
413.81        62.40283
414.26        62.29801
414.71        62.05343
415.15        61.66239
415.60        61.24198
416.05        61.00449
416.49        61.00455
416.94         61.2189
417.39        61.47308
417.83        61.44372
418.28        61.08644
418.73        60.51593
419.17        59.99306
419.62        59.93168
420.07        60.36483
420.51        61.13541
420.96        61.97164
421.41        62.34148
421.85        62.09231
422.30        61.70338
422.74        61.26341
423.19        60.51814
423.64        59.73644
424.08        59.96785
424.53        61.04172
424.98        61.62618
425.42        61.55996
425.87        61.77526
426.31        62.23996
426.76        62.08008
427.21        61.53333
427.65        61.74881
428.10        62.65871
428.54        63.39112
428.99        63.88614
429.44        64.22691
429.88        64.38443
430.33        65.05268
430.77        65.70101
431.22        64.56676
431.66        62.21559
432.11        61.05786
432.56        61.31461
433.00        62.13184
433.45        63.39396
433.89        64.98164
434.34        65.51648
434.78        67.46406
435.23        63.53779
435.67        61.55319
436.12           63.84
436.57        64.92604
437.01        65.59238
437.46        65.96924
437.90        66.24717
438.35        65.48017
438.79        66.13815
439.24        66.01319
439.68        65.86034
440.13        65.68687
440.57        65.70222
441.02         66.3862
441.46        67.44899
441.91        68.15953
442.35        68.28754
442.80        67.70013
443.24        66.74486
443.69        67.24246
444.13        68.85817
444.58        68.82612
445.02         67.3727
445.47        67.23103
445.91        68.31554
446.36         68.7153
446.80        68.36098
447.24        68.26213
447.69        68.48177
448.13         68.6941
448.58        68.90593
449.02        69.15598
449.47        69.40924
449.91        69.62182
450.36        69.77813
450.80        69.86983
451.25        69.88567
451.69        69.78067
452.13         69.5817
452.58        69.31463
453.02        69.06127
453.47        68.98689
453.91        69.09769
454.36        69.34379
454.80        69.61967
455.24        69.66051
455.69        69.42885
456.13        69.14373
456.58         68.9106
457.02        68.42274
457.46        67.92966
457.91        68.18111
458.35        68.96047
458.79         69.2961
459.24        69.14656
459.68        68.91388
460.13        68.68865
460.57        68.54187
461.01        68.58656
461.46         67.9565
461.90        68.09308
462.34        68.07489
462.79        67.64045
463.23         67.7206
463.68        68.03912
464.12        68.34956
464.56        68.53797
465.01        68.52489
465.45         68.2553
465.89        68.29138
466.34        68.43607
466.78        67.47397
467.22        65.95599
467.67        65.43809
468.11         66.6525
468.55        67.51275
468.99        67.82701
469.44         67.6154
469.88        67.04748
470.32        66.93593
470.77        67.25117
471.21        67.17889
471.65        66.70133
472.10        66.44326
472.54         66.4538
472.98        66.47698
473.42        66.49197
473.87        66.75216
474.31         67.0903
474.75        66.88966
475.20        66.31386
475.64         66.2544
476.08        66.68381
476.52        66.77557
476.97        66.48564
477.41        66.64907
477.85        66.56006
478.29        66.80042
478.74        66.94925
479.18        67.19515
479.62        65.76617
480.06        66.20075
480.50          66.574
480.95         66.9855
481.39        66.95911
481.83        66.16318
482.27        66.30147
482.72        65.80223
483.16        64.59592
483.60         64.8104
484.04        66.25677
484.48        66.86873
484.93        66.98468
485.37        68.25888
485.81        68.74493
486.25        67.17459
486.69        91.44046
487.14        73.93418
487.58        46.00618
488.02        57.04409
488.46        64.54533
488.90        63.97416
489.34        65.29253
489.79        65.15635
490.23        66.78788
490.67        67.39722
491.11          66.001
491.55        65.82736
491.99        66.45918
492.43        66.31432
492.88        65.48868
493.32        65.45118
493.76        65.73134
494.20        66.04546
494.64        66.13573
495.08        66.29642
495.52        66.55936
495.96        66.46593
496.41         66.0803
496.85        66.66862
497.29        67.84063
497.73        66.75638
498.17        64.43562
498.61        64.45569
499.05        66.88074
499.49        67.60395
499.93        67.88282
500.37        67.48586
500.82        66.49454
501.26        66.07224
501.70        66.97201
502.14        67.28193
502.58        67.10665
503.02         67.0084
503.46        66.98029
503.90        66.69122
504.34        66.27165
504.78        66.10521
505.22        66.23946
505.66        66.55246
506.10         66.9103
506.54        67.11864
506.98        67.04862
507.42        66.82984
507.86        66.18468
508.30        65.98914
508.74        66.19904
509.18        66.57407
509.62        66.96062
510.06        67.17292
510.50        67.14856
510.94        66.95329
511.38        66.69239
511.82        66.52428
512.26        66.49929
512.70         66.5676
513.14        66.68542
513.58        66.78625
514.02        66.83922
514.46        66.86304
514.90        66.87592
515.34        66.88393
515.78        66.87908
516.22        66.92323
516.66        66.99052
517.10        66.85492
517.54        66.51291
517.98        66.67155
518.42         66.4202
518.86        66.52414
519.30        66.70052
519.74        66.99726
520.18        67.32247
520.62        67.51643
521.06         67.5511
521.50        67.46984
521.93        67.32317
522.37        67.19566
522.81        67.12592
523.25        67.08936
523.69        67.10017
524.13        67.18126
524.57         67.3258
525.01        67.52656
525.45        67.73148
525.89        67.85238
526.32        67.85879
526.76        67.77034
527.20        67.62592
527.64        67.50919
528.08          67.461
528.52        67.40739
528.96        67.30193
529.40        67.26051
529.83        67.31269
530.27        66.74737
530.71        66.92766
531.15        66.85898
531.59        66.94663
532.03        67.12138
532.46        67.36854
532.90        67.63311
533.34         67.8681
533.78        68.08059
534.22        68.21904
534.66        68.21752
535.09        68.06216
535.53        67.79912
535.97        67.48922
536.41        67.25073
536.85        67.12564
537.28        67.09932
537.72        67.12776
538.16        67.14606
538.60        67.13479
539.04        67.05691
539.47        66.95786
539.91        67.08595
540.35        67.37108
540.79        67.49949
541.22        67.43377
541.66        67.39278
542.10        67.36744
542.54        67.21282
542.97        66.99684
543.41        66.93131
543.85        67.03361
544.29        67.26234
544.72        67.49062
545.16        67.54929
545.60        67.39339
546.04        67.06847
546.47        66.73549
546.91        66.67097
547.35        66.90891
547.79        67.37434
548.22        67.82988
548.66        67.89648
549.10        67.52099
549.53        66.87437
549.97        66.23333
550.41        65.92133
550.84        66.02294
551.28        66.44282
551.72        66.99699
552.15        67.33218
552.59        67.34954
553.03         67.2602
553.46        67.01257
553.90        66.85423
554.34        66.83919
554.77        66.89343
555.21        66.74598
555.65        66.98044
556.08        67.46878
556.52        67.03663
556.96        67.25517
557.39        67.09326
557.83        67.06904
558.27        67.02827
558.70        67.02425
559.14        67.14788
559.57        67.36873
560.01        67.66733
560.45        67.93201
560.88        68.01484
561.32        67.88633
561.75        67.50461
562.19        67.03347
562.63         66.6021
563.06        66.34132
563.50        66.48489
563.93        66.89239
564.37        67.16818
564.80        67.18951
565.24        67.05034
565.68        66.82283
566.11        66.70911
566.55        66.78479
566.98        66.83706
567.42        66.86794
567.85         67.0936
568.29        67.46584
568.72         67.4148
569.16        67.14047
569.60        67.41318
570.03        67.95352
570.47        67.84457
570.90        67.32439
571.34        66.13377
571.77        66.99448
572.21        66.84138
572.64        66.49902
573.08         65.8168
573.51        62.73825
573.95        65.17156
574.38        69.25033
574.82        67.37084
