SpectraSmart Spectrum 2.9.0.0
--------- Device Information -----------
Spectrum Name :  反射率_0
Saving Time :  2024/04/26 01:48:31
Spectro-Module Model Name : SE2030-DUVN
Spectro-Module Serial Number : OS361AC55029948
Wavelength Start : 200
Wavelength End : 1025
Wavelength Unit : Wavelength(nm)
Spectrum Unit : Reflectance(%)
-----------Spectrum Setting ------------
Integration Time : 20ms
Average : 10
Boxcar : 0
Background removal :  enabled
linearity correction :  enabled
SC :  disabled
Intensity correction :  disabled
DWT denoise :  enabled
savitzky-golay :  disabled
FFT :  disabled
Running average :  disabled
Kalman :  disabled
High pass :  disabled
---------------BEGIN--------------------
Wavelength(nm)             Reflectance(%)
200.29               0
200.75        94.89301
201.21        87.41879
201.67        77.94978
202.13        71.33673
202.58        68.35398
203.04        68.00603
203.50        69.21043
203.96        70.20489
204.42        70.36604
204.88        70.28033
205.34        70.44523
205.80        71.45998
206.26        73.93908
206.72        79.29929
207.18        89.60131
207.64        99.04649
208.10        93.99359
208.55        81.81335
209.01        74.42612
209.47        73.37527
209.93        76.38025
210.39        82.43679
210.85        88.79668
211.31        89.27027
211.77         82.1432
212.23        69.94854
212.69        57.82608
213.14        53.60651
213.60        58.58747
214.06        70.57724
214.52        84.66219
214.98        93.18575
215.44        94.03624
215.90        89.57027
216.36        82.91472
216.81        78.34216
217.27        77.22901
217.73        78.15595
218.19        78.88065
218.65        76.42306
219.11        69.63324
219.57        57.72635
220.02        42.85446
220.48        35.62509
220.94        41.52992
221.40        57.08522
221.86        71.11449
222.32        72.41351
222.77        62.60937
223.23        48.18199
223.69        35.61323
224.15        31.39344
224.61        34.87616
225.06        42.78985
225.52        50.90498
225.98        53.83735
226.44        50.67473
226.90        43.83137
227.36        36.25259
227.81         31.8489
228.27         31.7574
228.73        34.33722
229.19         38.1181
229.65        40.98555
230.10        42.26872
230.56        42.70202
231.02        42.75703
231.48         42.8965
231.93        43.21646
232.39         43.5076
232.85        43.62459
233.31        43.45401
233.77        42.97769
234.22         42.2831
234.68        41.58659
235.14        41.19164
235.60        41.25587
236.05         41.7803
236.51        42.58092
236.97        43.36886
237.43        44.17771
237.88        45.21956
238.34        46.85209
238.80        49.79813
239.26        54.08789
239.71        59.36896
240.17        64.55177
240.63         68.4899
241.08        70.86868
241.54        71.73501
242.00        71.89274
242.46        72.72265
242.91          75.409
243.37        81.67104
243.83        100.2184
244.28        156.5815
244.74        212.8311
245.20        173.0607
245.66        140.8755
246.11        132.0805
246.57        136.4512
247.03         158.157
247.48        223.7442
247.94        189.1175
248.40         118.531
248.85        97.20941
249.31         91.1852
249.77        90.76033
250.22        93.50692
250.68        99.38721
251.14         108.463
251.59         115.563
252.05         114.956
252.51        108.8254
252.96        101.1984
253.42        96.77033
253.88        95.30296
254.33        94.93466
254.79        96.41872
255.25        100.1062
255.70         104.864
256.16        110.3167
256.62        113.8575
257.07        112.8245
257.53        108.4012
257.99        101.6176
258.44        94.93331
258.90        92.26675
259.35        92.37978
259.81         93.6923
260.27        93.75727
260.72        90.24683
261.18        84.21017
261.63        76.78575
262.09        69.88787
262.55        64.90165
263.00         61.8455
263.46        60.17313
263.91        58.97393
264.37        57.68238
264.83        55.98731
265.28        53.95362
265.74        51.96585
266.19        50.30311
266.65         49.2084
267.11        48.47237
267.56        47.70809
268.02        46.46194
268.47        44.60024
268.93        42.29402
269.38        39.89062
269.84        38.24895
270.30        37.60436
270.75        37.71647
271.21        38.10103
271.66        38.01201
272.12        37.25049
272.57        36.04284
273.03        34.73919
273.48        33.77559
273.94        33.29734
274.39        33.10115
274.85        32.98732
275.31        32.65902
275.76        32.03801
276.22        31.26533
276.67        30.47813
277.13        29.96698
277.58        29.71794
278.04        29.65504
278.49        29.55885
278.95        29.19969
279.40        28.51468
279.86        27.66609
280.31        26.77466
280.77         26.1392
281.22        25.77866
281.68        25.62198
282.13        25.57032
282.59        25.52574
283.04        25.44097
283.50         25.3914
283.95        25.32628
284.41        25.18777
284.86        24.97397
285.32        24.71238
285.77        24.52848
286.22        24.68219
286.68        25.17227
287.13        25.87043
287.59        26.54488
288.04        26.83809
288.50        26.70778
288.95        26.25386
289.41        25.69062
289.86         25.2275
290.32        24.99977
290.77        24.94224
291.22        25.05376
291.68        25.28752
292.13        25.63919
292.59        26.15098
293.04        26.85352
293.50        27.78053
293.95        28.90957
294.40        30.18606
294.86         31.5365
295.31        32.86967
295.77        34.16824
296.22        35.45242
296.68        36.74672
297.13        38.05923
297.58        39.41008
298.04        40.80967
298.49        42.28456
298.95        43.93723
299.40        45.77066
299.85        47.75121
300.31        49.80841
300.76        51.81598
301.21        53.70205
301.67        55.52552
302.12        57.22384
302.58        58.83058
303.03        60.34121
303.48        61.78638
303.94        63.32941
304.39        65.14948
304.84        67.27827
305.30        69.64533
305.75        71.98437
306.20        73.91758
306.66        75.38922
307.11        76.46114
307.57        77.40897
308.02        78.51279
308.47        79.90765
308.93        81.50942
309.38        83.15682
309.83        84.65706
310.29        85.93998
310.74        87.02943
311.19        88.02569
311.65        89.07444
312.10        90.19389
312.55         91.3508
313.00        92.39088
313.46        93.07912
313.91        93.36263
314.36        93.34351
314.82        93.28957
315.27        93.54658
315.72        94.23148
316.18        95.24528
316.63        96.37407
317.08        97.21468
317.53        97.65009
317.99        97.77895
318.44        97.83884
318.89        98.22379
319.35        98.99408
319.80        100.0457
320.25        101.0632
320.70        101.5331
321.16        101.3458
321.61        100.6859
322.06        99.89394
322.51        99.49939
322.97        99.61691
323.42        100.1303
323.87        100.8095
324.32         101.257
324.78        101.3392
325.23        101.2299
325.68        101.0445
326.13        100.9975
326.59        101.1327
327.04        101.3944
327.49        101.7407
327.94        102.1504
328.39        102.5937
328.85        103.0663
329.30        103.5497
329.75        103.8211
330.20        103.8679
330.66        103.7445
331.11        103.6891
331.56        104.0058
332.01        104.7838
332.46        105.9124
332.92        107.2094
333.37        108.5462
333.82        109.7113
334.27        110.7351
334.72        111.4875
335.17        111.7833
335.63         111.626
336.08        111.1293
336.53        110.5606
336.98        110.4057
337.43        110.7973
337.88        111.6181
338.34        112.6804
338.79        113.7507
339.24        114.6746
339.69        115.5386
340.14        116.2569
340.59        116.6874
341.05        116.8273
341.50        116.6684
341.95         116.447
342.40        116.5593
342.85        117.0855
343.30        117.9394
343.75        118.8469
344.20        119.3143
344.66        119.2361
345.11        118.7545
345.56        118.1648
346.01        117.9101
346.46        118.0964
346.91        118.5759
347.36        119.1413
347.81        119.4763
348.26        119.4994
348.72        119.3337
349.17        119.0855
349.62        118.9738
350.07        119.0498
350.52        119.2145
350.97        119.3876
351.42        119.4577
351.87        119.3933
352.32        119.2574
352.77         119.042
353.22         118.727
353.67        118.3322
354.13        117.8682
354.58         117.418
355.03        117.1827
355.48        117.1732
355.93        117.3137
356.38        117.4106
356.83        117.1548
357.28        116.4794
357.73        115.4897
358.18        114.3474
358.63        113.3121
359.08        112.4736
359.53        111.7687
359.98        111.1451
360.43        110.5145
360.88        109.8372
361.33          109.14
361.78        108.4353
362.23        107.7346
362.68        107.0482
363.13        106.3792
363.58        105.6883
364.03        104.9184
364.48        104.0666
364.93        103.1459
365.38        102.2592
365.83        101.5746
366.28        101.1062
366.73         100.781
367.18        100.4488
367.63        99.86826
368.08        98.99812
368.53        97.95485
368.98        96.84306
369.43        95.80834
369.88        94.91071
370.33         94.1058
370.78        93.45345
371.23        93.05602
371.68        92.90692
372.13        92.96808
372.58        93.08055
373.03        92.96687
373.48        92.55991
373.93         91.9464
374.38        91.24208
374.83        90.63496
375.28        90.17627
375.72        89.77778
376.17        89.45751
376.62        89.22482
377.07        89.04577
377.52        88.90966
377.97        88.68352
378.42        88.15169
378.87        87.30894
379.32        86.26507
379.77        85.17744
380.22        84.29824
380.67        83.68101
381.11        83.18254
381.56        82.75492
382.01        82.64967
382.46        82.31982
382.91        82.22904
383.36        82.11138
383.81        81.80114
384.26        81.27853
384.71        80.57672
385.15        79.90584
385.60        79.65501
386.05        79.82272
386.50         80.2756
386.95        80.69573
387.40        80.54928
387.85        79.77398
388.29        78.59251
388.74        77.43011
389.19        76.56597
389.64        76.05691
390.09         75.7534
390.54        75.65896
390.98         75.7799
391.43        76.05786
391.88        76.46864
392.33         76.7746
392.78        76.55984
393.23        75.81849
393.67        74.84039
394.12        73.99593
394.57          73.229
395.02        72.78814
395.47        73.34235
395.91        74.64017
396.36        75.36569
396.81        75.30287
397.26        75.04293
397.71         74.7121
398.15        74.17247
398.60        73.57913
399.05        73.10962
399.50         72.7355
399.95        71.90587
400.39        71.10517
400.84        70.82869
401.29        71.10911
401.74        71.24773
402.18        71.15868
402.63        71.04004
403.08        71.01152
403.53        71.20881
403.97        71.62336
404.42         72.1046
404.87         72.4641
405.32        72.38187
405.76        71.78965
406.21        71.04987
406.66        70.33159
407.11        69.47881
407.55        68.79337
408.00        69.08352
408.45        70.14218
408.90         70.7773
409.34        70.66992
409.79        70.07506
410.24        69.29853
410.68        68.91987
411.13        69.04472
411.58        69.30334
412.03        69.60992
412.47        69.98844
412.92        70.32279
413.37        70.62695
413.81        70.80877
414.26        70.77502
414.71        70.50642
415.15         70.0259
415.60        69.48145
416.05        69.13654
416.49        69.06723
416.94        69.22858
417.39        69.45699
417.83        69.44977
418.28        69.15316
418.73        68.66805
419.17        68.21555
419.62        68.15639
420.07        68.51959
420.51        69.17302
420.96        69.86266
421.41        70.13883
421.85        69.87788
422.30        69.41444
422.74        68.87234
423.19        68.35774
423.64        67.98247
424.08        68.10761
424.53        68.63943
424.98        69.00382
425.42        69.10896
425.87        69.54579
426.31        70.16924
426.76        69.91943
427.21        69.13453
427.65        69.44391
428.10        70.69644
428.54        71.85349
428.99        72.04484
429.44        72.29999
429.88        72.39986
430.33        73.03631
430.77        73.64709
431.22        72.38911
431.66        69.86425
432.11        68.58797
432.56         68.8062
433.00        69.73535
433.45        71.22177
433.89        72.91488
434.34         73.3269
434.78        75.42191
435.23        71.10524
435.67        69.04801
436.12        71.79612
436.57        72.93655
437.01        73.41305
437.46        73.63004
437.90        73.80708
438.35        73.36211
438.79        73.78827
439.24        73.62079
439.68        73.34342
440.13        72.83109
440.57        72.50124
441.02        73.42597
441.46        75.13897
441.91        76.21454
442.35        76.34966
442.80        75.04594
443.24        73.94978
443.69         74.5284
444.13        76.64509
444.58        76.93589
445.02        75.02949
445.47         74.7711
445.91         75.9091
446.36        76.21838
446.80        75.62941
447.24        75.33923
447.69        75.45391
448.13        75.45425
448.58        75.70042
449.02        75.94707
449.47        76.24818
449.91        76.53537
450.36        76.78104
450.80        76.96737
451.25         77.0611
451.69        76.99541
452.13        76.79156
452.58        76.47771
453.02        76.16165
453.47        76.05399
453.91        76.17529
454.36        76.48244
454.80        76.84908
455.24        76.92538
455.69        76.71043
456.13        76.39388
456.58        76.17357
457.02        75.67431
457.46        75.60439
457.91         75.9077
458.35        76.52808
458.79        76.79385
459.24        76.67982
459.68        76.38938
460.13         75.9987
460.57        75.71864
461.01        75.69197
461.46        74.81022
461.90         74.8034
462.34        74.92173
462.79        74.51109
463.23         74.7139
463.68        75.09419
464.12        75.53406
464.56        75.84898
465.01        75.79339
465.45        75.40178
465.89        75.31597
466.34        75.33943
466.78        74.55432
467.22        73.53098
467.67         72.1628
468.11        73.79279
468.55        74.41117
468.99        74.64259
469.44        74.29921
469.88         73.6052
470.32        73.53796
470.77         73.9978
471.21        73.98751
471.65        73.46137
472.10        73.14223
472.54        73.12384
472.98        73.18533
473.42         73.3131
473.87        73.74582
474.31        74.25887
474.75        74.13125
475.20        73.50378
475.64        73.36631
476.08        73.80211
476.52        73.73656
476.97        73.06403
477.41        73.44787
477.85        74.21741
478.29        72.67568
478.74        73.78523
479.18        74.09549
479.62          72.672
480.06        73.23901
480.50        73.46255
480.95        73.97378
481.39        74.33211
481.83        72.64108
482.27        73.10023
482.72         73.0451
483.16        71.58062
483.60        71.67583
484.04        73.42107
484.48        73.92162
484.93        73.85509
485.37        75.32646
485.81        75.78372
486.25        74.86181
486.69        101.0053
487.14        81.94475
487.58        50.71366
488.02        62.39626
488.46        71.02281
488.90        70.35762
489.34        72.21461
489.79         71.0689
490.23        73.51656
490.67        74.43536
491.11        73.43043
491.55         73.3634
491.99         73.8041
492.43        73.58281
492.88        72.80212
493.32        72.74975
493.76        72.90213
494.20        73.11905
494.64         73.1264
495.08        73.25874
495.52         73.5412
495.96        73.31181
496.41        72.68291
496.85        73.38104
497.29        74.92416
497.73        73.70463
498.17        70.89033
498.61        70.94794
499.05        73.90051
499.49        74.67085
499.93         74.7058
500.37        74.23607
500.82        73.28403
501.26        73.20351
501.70        73.76822
502.14        74.19572
502.58          74.181
503.02        74.12159
503.46        74.02632
503.90         73.6246
504.34        73.11359
504.78        72.88279
505.22        72.98901
505.66        73.34429
506.10        73.81818
506.54        73.98357
506.98        73.72012
507.42         73.6398
507.86        73.56593
508.30        72.65854
508.74        73.18319
509.18        73.21693
509.62        73.36664
510.06        73.45454
510.50        73.46207
510.94        73.40952
511.38        73.32018
511.82        73.28329
512.26        73.31481
512.70        73.38783
513.14        73.47604
513.58        73.54397
514.02        73.57447
514.46        73.57071
514.90        73.55857
515.34        73.56432
515.78        73.58308
516.22        73.66191
516.66         73.7552
517.10        73.63824
517.54        73.30276
517.98        73.33274
518.42        73.03475
518.86        73.07331
519.30        73.23324
519.74        73.53201
520.18        73.87992
520.62        74.12325
521.06        74.22604
521.50        74.23111
521.93         74.1612
522.37        74.05441
522.81         73.9427
523.25        73.81564
523.69        73.72652
524.13        73.75906
524.57         73.9221
525.01        74.19426
525.45        74.49187
525.89        74.67394
526.32        74.69423
526.76        74.58469
527.20         74.4118
527.64        74.30553
528.08        74.31274
528.52        74.33031
528.96        74.27149
529.40        74.21213
529.83        74.17581
530.27        73.40487
530.71        73.42953
531.15        73.19878
531.59        73.17759
532.03        73.28596
532.46        73.51364
532.90        73.80605
533.34        74.10973
533.78        74.42812
534.22        74.69272
534.66         74.8121
535.09         74.7607
535.53        74.58537
535.97        74.34084
536.41        74.14402
536.85        74.03626
537.28          73.999
537.72        73.99825
538.16        73.98856
538.60        73.95692
539.04        73.86385
539.47        73.73933
539.91        73.82318
540.35        74.03757
540.79         74.0528
541.22        73.87183
541.66        73.80125
542.10        73.84123
542.54        73.80796
542.97        73.72312
543.41        73.73872
543.85         73.8512
544.29        74.03365
544.72         74.1879
545.16         74.1955
545.60        74.02971
546.04        73.72443
546.47        73.41742
546.91        73.37888
547.35        73.64151
547.79        74.05644
548.22        74.42556
548.66        74.62292
549.10        74.50734
549.53        73.80495
549.97        72.85899
550.41        72.45633
550.84          72.702
551.28        73.25585
551.72        73.90395
552.15        74.30769
552.59        74.34311
553.03        74.40468
553.46        74.04954
553.90        73.90582
554.34         73.8766
554.77        73.78129
555.21        73.61544
555.65        73.75077
556.08        74.16747
556.52        73.61841
556.96        73.84946
557.39        73.72398
557.83        73.78982
558.27        73.83127
558.70        73.87921
559.14        74.05596
559.57        74.32087
560.01        74.58331
560.45        74.77328
560.88        74.90353
561.32        74.90907
561.75        74.56818
562.19        74.03972
562.63        73.49383
563.06        73.10636
563.50        73.26857
563.93        73.81256
564.37        74.08285
564.80        73.98589
565.24        73.91991
565.68        73.91495
566.11        73.87912
566.55         73.8783
566.98        73.87492
567.42         73.8957
567.85        74.06632
568.29        74.36777
568.72        74.40662
569.16        74.41315
569.60        74.78175
570.03        75.10348
570.47        75.40076
570.90        75.18461
571.34        72.99015
571.77        73.96991
572.21        74.24721
572.64         73.5072
573.08        72.65514
573.51        69.57753
573.95        72.20029
574.38         76.5041
574.82        74.62579
