SpectraSmart Spectrum 2.9.0.0
--------- Device Information -----------
Spectrum Name :  反射率_0
Saving Time :  2024/04/26 02:08:21
Spectro-Module Model Name : SE2030-DUVN
Spectro-Module Serial Number : OS361AC55029948
Wavelength Start : 200
Wavelength End : 1025
Wavelength Unit : Wavelength(nm)
Spectrum Unit : Reflectance(%)
-----------Spectrum Setting ------------
Integration Time : 20ms
Average : 10
Boxcar : 0
Background removal :  enabled
linearity correction :  enabled
SC :  disabled
Intensity correction :  disabled
DWT denoise :  enabled
savitzky-golay :  disabled
FFT :  disabled
Running average :  disabled
Kalman :  disabled
High pass :  disabled
---------------BEGIN--------------------
Wavelength(nm)             Reflectance(%)
200.29               0
200.75        93.22486
201.21        82.54704
201.67          70.981
202.13        64.15239
202.58        62.70402
203.04        65.31322
203.50        70.18676
203.96        74.07671
204.42        75.68052
204.88        75.85486
205.34        75.77209
205.80        76.86413
206.26        80.02356
206.72        86.91705
207.18        99.30135
207.64        106.7594
208.10        93.69644
208.55        75.13832
209.01         65.3164
209.47        64.23215
209.93        68.55479
210.39        77.14686
210.85        86.65557
211.31        89.23229
211.77        82.45046
212.23        69.35693
212.69        56.07491
213.14         52.0288
213.60        58.89122
214.06        73.79378
214.52        91.07986
214.98        102.0137
215.44        104.1186
215.90        100.2067
216.36        93.42592
216.81        88.03436
217.27        85.64633
217.73         84.8779
218.19        84.03261
218.65        80.79976
219.11        74.12374
219.57         63.3152
220.02        49.93846
220.48        42.57284
220.94         45.8885
221.40        57.36219
221.86        68.11092
222.32        69.00271
222.77        61.18199
223.23        49.91174
223.69        40.15395
224.15        36.93817
224.61        39.74154
225.06        45.93806
225.52        52.38073
225.98        55.21835
226.44        53.69928
226.90        49.58628
227.36         44.6515
227.81        41.16167
228.27        40.03854
228.73        40.31571
229.19        41.58087
229.65        43.26765
230.10        44.92459
230.56        46.57333
231.02        48.00882
231.48        48.96446
231.93        49.43666
232.39        49.53951
232.85         49.2963
233.31        48.81632
233.77        48.16478
234.22        47.31452
234.68        46.50024
235.14        46.11606
235.60        46.31751
236.05         47.0993
236.51        48.14276
236.97        48.94017
237.43        49.44714
237.88        49.84914
238.34        50.54514
238.80        52.58382
239.26        56.22313
239.71        61.12428
240.17        66.03477
240.63        69.43205
241.08        70.94648
241.54        70.87154
242.00        70.18635
242.46        70.40234
242.91           72.68
243.37        78.53587
243.83        97.11868
244.28        158.4504
244.74        229.5101
245.20        193.1649
245.66        158.6235
246.11        149.3357
246.57        155.2857
247.03        181.5961
247.48         259.935
247.94        217.6185
248.40        133.2255
248.85        107.8701
249.31        100.6553
249.77         99.7758
250.22        102.3038
250.68        108.0911
251.14        117.0366
251.59        123.6586
252.05        122.1048
252.51        114.8161
252.96         106.222
253.42        101.2336
253.88        99.49933
254.33        99.12336
254.79        100.5873
255.25        103.8803
255.70        107.9051
256.16        112.4541
256.62        115.2676
257.07        114.0249
257.53        109.8201
257.99        103.4972
258.44        97.16487
258.90        94.35992
259.35        93.97039
259.81        94.73402
260.27        94.47216
260.72        91.09981
261.18        85.59129
261.63         78.8616
262.09        72.67974
262.55        68.26591
263.00        65.55923
263.46        64.05289
263.91         62.8644
264.37        61.47843
264.83        59.59999
265.28        57.32932
265.74        55.00864
266.19        52.86383
266.65        51.22823
267.11        49.96735
267.56        48.85769
268.02         47.6315
268.47        46.13793
268.93        44.47571
269.38        42.81412
269.84         41.6702
270.30        41.16209
270.75        41.13773
271.21        41.25925
271.66        41.01816
272.12        40.28235
272.57        39.19171
273.03        38.03251
273.48         37.1478
273.94        36.65535
274.39        36.39032
274.85        36.17559
275.31        35.72924
275.76        34.98354
276.22        34.08103
276.67        33.15366
277.13        32.49494
277.58        32.09736
278.04        31.89854
278.49        31.69905
278.95        31.30155
279.40        30.63634
279.86        29.84673
280.31        29.02188
280.77         28.4198
281.22        28.04479
281.68        27.84301
282.13        27.71849
282.59         27.5831
283.04        27.39781
283.50        27.24348
283.95        27.08695
284.41        26.90229
284.86        26.68846
285.32        26.45739
285.77        26.31738
286.22        26.50407
286.68        27.00412
287.13        27.69332
287.59        28.32653
288.04        28.52282
288.50        28.24943
288.95        27.62289
289.41        26.89429
289.86        26.32542
290.32        26.06095
290.77        26.01106
291.22        26.15791
291.68        26.42764
292.13        26.79925
292.59        27.32043
293.04        27.99261
293.50        28.80752
293.95        29.73917
294.40        30.74254
294.86        31.79824
295.31        32.89945
295.77        34.04553
296.22        35.23706
296.68        36.43805
297.13         37.5572
297.58        38.59592
298.04        39.59851
298.49        40.66177
298.95        41.99212
299.40         43.6123
299.85        45.45089
300.31        47.37033
300.76        49.14471
301.21        50.67972
301.67        52.06696
302.12        53.30358
302.58        54.49834
303.03        55.66575
303.48        56.81297
303.94        58.05301
304.39         59.4953
304.84        61.16236
305.30        63.01236
305.75        64.85178
306.20        66.40899
306.66        67.64476
307.11         68.5869
307.57        69.43015
308.02        70.34618
308.47        71.44014
308.93        72.66318
309.38        73.91515
309.83        75.09265
310.29        76.15603
310.74        77.11586
311.19        78.03073
311.65        78.98385
312.10         79.9807
312.55         80.9994
313.00        81.94351
313.46        82.66822
313.91         83.1255
314.36        83.37342
314.82         83.5688
315.27        83.90282
315.72        84.45976
316.18        85.18939
316.63         85.9815
317.08         86.6107
317.53        87.00923
317.99         87.2225
318.44        87.40845
318.89        87.82932
319.35        88.51426
319.80        89.40877
320.25        90.24707
320.70        90.59437
321.16        90.37037
321.61        89.72704
322.06        89.00006
322.51        88.71519
322.97        88.97785
323.42        89.67091
323.87        90.52238
324.32        91.06057
324.78        91.13139
325.23        90.91268
325.68        90.57938
326.13        90.44527
326.59        90.58503
327.04        90.92464
327.49        91.35744
327.94        91.74547
328.39        92.03685
328.85        92.26728
329.30        92.51537
329.75        92.74219
330.20        92.96992
330.66        93.18239
331.11         93.4837
331.56        93.97227
332.01        94.67749
332.46        95.55132
332.92         96.4875
333.37        97.47684
333.82         98.3843
334.27        99.21189
334.72        99.85719
335.17        100.1737
335.63        100.1574
336.08        99.90797
336.53        99.61507
336.98        99.62865
337.43        100.0397
337.88        100.7493
338.34        101.6164
338.79        102.4905
339.24        103.2514
339.69        103.9678
340.14        104.5421
340.59        104.8112
341.05         104.776
341.50        104.4607
341.95        104.1277
342.40        104.1956
342.85        104.7441
343.30         105.671
343.75        106.6802
344.20        107.2424
344.66        107.2274
345.11        106.7754
345.56        106.1803
346.01        105.8884
346.46        106.0101
346.91        106.4035
347.36        106.8612
347.81        107.0659
348.26        106.9466
348.72        106.6377
349.17        106.2814
349.62        106.1519
350.07        106.3108
350.52        106.6414
350.97         107.011
351.42        107.2299
351.87        107.2415
352.32        107.1156
352.77        106.8818
353.22        106.5847
353.67        106.2556
354.13        105.8869
354.58        105.5065
355.03        105.2241
355.48         105.047
355.93        104.9477
356.38        104.8266
356.83        104.5174
357.28        103.9847
357.73         103.283
358.18        102.5021
358.63        101.7865
359.08        101.1832
359.53        100.6551
359.98        100.1579
360.43        99.62115
360.88        99.01521
361.33         98.3526
361.78        97.66281
362.23        96.99211
362.68        96.35696
363.13        95.75647
363.58        95.13034
364.03        94.38161
364.48        93.50433
364.93        92.53524
365.38        91.60108
365.83        90.90494
366.28        90.47762
366.73        90.23903
367.18        90.04549
367.63        89.66224
368.08        89.03709
368.53        88.27165
368.98         87.4405
369.43        86.64915
369.88        85.94297
370.33         85.2782
370.78        84.72092
371.23        84.38896
371.68         84.2828
372.13        84.36478
372.58        84.47137
373.03        84.31837
373.48         83.8443
373.93        83.14557
374.38        82.36946
374.83        81.74616
375.28        81.33406
375.72        81.03742
376.17        80.83464
376.62        80.66415
377.07        80.48132
377.52        80.30273
377.97        80.04653
378.42        79.57906
378.87        78.90493
379.32        78.09103
379.77        77.26188
380.22        76.59733
380.67        76.12347
381.11        75.77235
381.56        75.49427
382.01        75.20755
382.46        74.89232
382.91        74.61427
383.36        74.30777
383.81        73.86834
384.26        73.30408
384.71        72.62595
385.15         72.0332
385.60        71.89767
386.05        72.20831
386.50        72.83911
386.95        73.43245
387.40        73.38383
387.85        72.61495
388.29        71.36994
388.74        70.13014
389.19        69.27485
389.64        68.87706
390.09        68.77067
390.54        68.88139
390.98        69.08129
391.43        69.27692
391.88        69.48294
392.33        69.58225
392.78        69.30611
393.23        68.66402
393.67        67.97383
394.12        67.44213
394.57        66.62933
395.02        65.84419
395.47        66.22453
395.91        67.58236
396.36        68.34618
396.81        68.31008
397.26        68.24908
397.71        68.21616
398.15        67.86369
398.60        67.31702
399.05        66.82166
399.50        66.38076
399.95        65.53202
400.39        64.74758
400.84        64.43152
401.29        64.63319
401.74        64.88565
402.18        65.02784
402.63        64.86601
403.08        64.54381
403.53        64.56584
403.97        64.95435
404.42        65.35865
404.87        65.59078
405.32        65.49487
405.76        65.02615
406.21        64.33018
406.66        63.60716
407.11        63.14481
407.55        63.06705
408.00        63.24436
408.45        63.56486
408.90        64.03654
409.34         64.3618
409.79        63.82909
410.24        62.75349
410.68        62.28654
411.13        62.53223
411.58        62.86504
412.03        63.17317
412.47        63.53269
412.92        63.82632
413.37        64.06243
413.81        64.17107
414.26        64.08547
414.71        63.79507
415.15        63.31585
415.60        62.79366
416.05        62.48466
416.49        62.45535
416.94        62.66459
417.39        62.92551
417.83        62.89244
418.28        62.51415
418.73        61.92177
419.17        61.36538
419.62        61.23914
420.07        61.57624
420.51        62.22349
420.96          62.955
421.41        63.30146
421.85        63.11401
422.30        62.88921
422.74        62.64047
423.19        61.90205
423.64        60.97959
424.08        61.20393
424.53        62.38939
424.98        62.95417
425.42        62.72792
425.87        62.76694
426.31        63.09098
426.76        62.88775
427.21        62.38475
427.65        62.61191
428.10        63.46256
428.54        64.14027
428.99        64.57632
429.44         64.7283
429.88        64.65991
430.33        65.34498
430.77        66.20377
431.22        65.21549
431.66         62.8673
432.11        61.59026
432.56        61.67656
433.00        62.26655
433.45        63.30853
433.89        65.10925
434.34        66.26064
434.78        67.60888
435.23        64.10508
435.67        61.69743
436.12        64.06432
436.57        65.08312
437.01        65.74336
437.46        66.05874
437.90        66.21101
438.35        65.44574
438.79        66.01302
439.24        65.90987
439.68         65.7853
440.13        65.36443
440.57        64.99685
441.02        65.72241
441.46        67.15984
441.91         68.0485
442.35        68.07581
442.80        67.10465
443.24        65.66557
443.69        66.23032
444.13        68.37495
444.58        68.49406
445.02        66.77098
445.47        66.45102
445.91        67.48122
446.36        67.78548
446.80        67.31033
447.24        67.10363
447.69        67.25219
448.13        67.47105
448.58        67.76743
449.02        68.16233
449.47        68.55426
449.91        68.79614
450.36        68.85256
450.80        68.74553
451.25        68.54912
451.69        68.35339
452.13        68.21633
452.58        68.12508
453.02        68.07864
453.47        68.11341
453.91        68.19675
454.36        68.31029
454.80        68.42733
455.24         68.3713
455.69        68.12487
456.13         68.0034
456.58        67.99743
457.02        67.34035
457.46        66.39103
457.91        66.64214
458.35        67.69353
458.79        68.13943
459.24        67.90408
459.68        67.66267
460.13         67.4128
460.57        67.30394
461.01        67.52023
461.46        66.14516
461.90        65.88069
462.34         66.6273
462.79        65.92596
463.23        66.11832
463.68        66.43093
464.12        66.78594
464.56        67.08982
465.01         67.0772
465.45        66.72735
465.89        66.60883
466.34        66.59023
466.78        65.66122
467.22        64.34148
467.67        63.79889
468.11        65.06113
468.55         65.7824
468.99         65.9184
469.44        65.60903
469.88        65.03562
470.32        64.89685
470.77        65.16442
471.21        65.10335
471.65        64.69761
472.10        64.54024
472.54        64.63983
472.98        64.70762
473.42        64.71855
473.87          64.865
474.31        65.04641
474.75         64.9202
475.20        64.57813
475.64        64.48849
476.08         64.6551
476.52        64.62003
476.97        64.35725
477.41        64.42241
477.85        64.41752
478.29        64.35802
478.74        64.30254
479.18        64.54175
479.62        63.83152
480.06        64.46561
480.50        64.68509
480.95        64.86451
481.39         64.6376
481.83        64.14754
482.27        64.05125
482.72        64.18299
483.16        63.04633
483.60        63.39933
484.04          64.758
484.48        64.87171
484.93         64.2375
485.37        65.96435
485.81        66.56012
486.25        65.25591
486.69        88.49468
487.14        71.69585
487.58        44.67321
488.02        54.96698
488.46        62.72494
488.90        61.94266
489.34        63.16343
489.79        62.42567
490.23        64.31339
490.67         65.0153
491.11        63.89017
491.55            63.9
491.99         64.6004
492.43        64.53519
492.88        63.76343
493.32        63.61531
493.76          63.682
494.20        63.84611
494.64        63.89471
495.08        64.07822
495.52        64.38483
495.96        64.30971
496.41        63.89334
496.85        64.35516
497.29        65.38434
497.73        64.35078
498.17        62.21114
498.61        62.39864
499.05        64.89381
499.49        65.39042
499.93        65.25697
500.37        64.93238
500.82        64.37299
501.26         64.3615
501.70        64.69963
502.14        64.99289
502.58        65.05026
503.02        64.95879
503.46        64.69109
503.90        64.21874
504.34        63.71581
504.78        63.36102
505.22        63.27685
505.66        63.74258
506.10        64.55319
506.54        64.87806
506.98        64.56108
507.42        64.49623
507.86        64.04559
508.30        63.64701
508.74        63.84963
509.18        64.02217
509.62         64.2632
510.06        64.38805
510.50        64.36257
510.94        64.23656
511.38         64.0817
511.82        64.02003
512.26        64.08017
512.70        64.21401
513.14        64.37367
513.58        64.48972
514.02        64.53143
514.46        64.51652
514.90        64.46629
515.34        64.39435
515.78        64.29945
516.22        64.25246
516.66        64.24802
517.10        64.07417
517.54        63.73133
517.98        63.97395
518.42         63.7834
518.86        63.93332
519.30        64.10688
519.74        64.37267
520.18        64.65436
520.62         64.8186
521.06        64.84627
521.50         64.7674
521.93        64.63304
522.37        64.53003
522.81        64.49229
523.25        64.49625
523.69        64.53501
524.13        64.59765
524.57        64.67455
525.01        64.76996
525.45        64.86551
525.89        64.92856
526.32        64.94221
526.76        64.90942
527.20        64.83875
527.64         64.7642
528.08        64.71228
528.52        64.62656
528.96        64.47909
529.40        64.40712
529.83        64.44613
530.27        63.90397
530.71         64.0789
531.15        64.00962
531.59        64.08106
532.03        64.23311
532.46        64.45134
532.90        64.68074
533.34        64.87975
533.78        65.05883
534.22         65.1767
534.66         65.1828
535.09        65.06411
535.53        64.85583
535.97        64.61055
536.41        64.43336
536.85        64.35678
537.28        64.36548
537.72        64.40439
538.16        64.39153
538.60        64.31061
539.04        64.14123
539.47        63.95035
539.91        64.00742
540.35        64.25829
540.79        64.39938
541.22          64.393
541.66        64.44305
542.10        64.53044
542.54        64.50471
542.97        64.41853
543.41        64.45885
543.85        64.63142
544.29        64.89667
544.72        65.11555
545.16        65.10215
545.60        64.82217
546.04        64.33911
546.47        63.85233
546.91        63.70432
547.35        63.94425
547.79        64.45207
548.22        64.97707
548.66        65.16413
549.10        64.91779
549.53        64.30556
549.97        63.59949
550.41        63.21384
550.84        63.24505
551.28        63.53862
551.72         63.9514
552.15        64.24972
552.59        64.35138
553.03        64.36707
553.46        64.28331
553.90        64.23677
554.34        64.23615
554.77        64.24454
555.21        64.09583
555.65        64.17683
556.08        64.44465
556.52        63.98657
556.96        64.28833
557.39         64.1198
557.83        64.00031
558.27        64.03543
558.70        64.22001
559.14        64.39339
559.57        64.51481
560.01        64.62798
560.45         64.7056
560.88        64.82993
561.32        64.92821
561.75        64.61749
562.19         64.0733
562.63        63.69529
563.06        63.56057
563.50        63.71257
563.93         64.0582
564.37        63.96839
564.80        64.10911
565.24        63.99299
565.68        63.88229
566.11        63.82828
566.55        63.89375
566.98        63.98443
567.42        64.07661
567.85        64.24966
568.29        64.50343
568.72        64.47625
569.16        64.35816
569.60        64.80937
570.03        65.09245
570.47        65.12283
570.90         65.1123
571.34         63.2633
571.77        64.23365
572.21        64.50385
572.64         64.2014
573.08        62.74528
573.51        60.22151
573.95        62.59742
574.38        66.72983
574.82        65.16803
