SpectraSmart Spectrum 2.9.0.0
--------- Device Information -----------
Spectrum Name :  反射率_0
Saving Time :  2024/04/26 01:20:03
Spectro-Module Model Name : SE2030-DUVN
Spectro-Module Serial Number : OS361AC55029948
Wavelength Start : 200
Wavelength End : 1025
Wavelength Unit : Wavelength(nm)
Spectrum Unit : Reflectance(%)
-----------Spectrum Setting ------------
Integration Time : 20ms
Average : 10
Boxcar : 0
Background removal :  enabled
linearity correction :  enabled
SC :  disabled
Intensity correction :  disabled
DWT denoise :  enabled
savitzky-golay :  disabled
FFT :  disabled
Running average :  disabled
Kalman :  disabled
High pass :  disabled
---------------BEGIN--------------------
Wavelength(nm)             Reflectance(%)
200.29               0
200.75        97.83556
201.21         92.3633
201.67        84.91837
202.13         80.1005
202.58        78.71696
203.04        79.86736
203.50        82.01514
203.96        82.73455
204.42        81.57297
204.88        79.54795
205.34         78.1665
205.80        79.11851
206.26        83.42697
206.72        93.66454
207.18        113.7264
207.64        130.8732
208.10        118.5706
208.55        94.06448
209.01        78.93242
209.47         74.4425
209.93        76.21529
210.39        82.10902
210.85        89.05797
211.31        90.42521
211.77        84.25906
212.23         73.3536
212.69        62.64198
213.14        59.65171
213.60        65.59506
214.06        77.98749
214.52        92.44097
214.98        102.2549
215.44        105.2952
215.90         103.629
216.36        99.04253
216.81        93.87527
217.27        89.66076
217.73         85.9325
218.19        82.21143
218.65        77.63555
219.11        71.47106
219.57        62.86472
220.02        52.98235
220.48        48.32692
220.94        52.03351
221.40         62.1991
221.86        71.18908
222.32        71.26894
222.77          63.688
223.23        53.11208
223.69        44.23158
224.15        41.89747
224.61        45.54854
225.06        52.66077
225.52        60.06277
225.98        63.77973
226.44        62.99289
226.90        59.40535
227.36        54.82569
227.81        51.60643
228.27        50.68593
228.73        51.08962
229.19        52.25641
229.65        53.42235
230.10        54.23201
230.56        54.93913
231.02        55.62488
231.48        56.34643
231.93         57.0773
232.39        57.79402
232.85        58.29479
233.31        58.35208
233.77        57.94876
234.22        57.18081
234.68        56.35796
235.14        56.04695
235.60         56.4529
236.05        57.43898
236.51        58.72026
236.97        59.89583
237.43        60.92442
237.88        62.03458
238.34        63.31742
238.80          65.135
239.26        67.43951
239.71        70.09885
240.17         72.3915
240.63        73.82217
241.08        74.43133
241.54        74.38657
242.00         74.3444
242.46        75.31386
242.91        78.46774
243.37        85.95222
243.83        109.0227
244.28        184.4027
244.74        270.6117
245.20        223.6707
245.66        180.4982
246.11         169.078
246.57        176.6367
247.03        210.0802
247.48        306.9426
247.94        243.9191
248.40        136.7952
248.85        105.6172
249.31        96.82271
249.77        95.68472
250.22        98.58416
250.68        105.6392
251.14        116.4755
251.59         123.707
252.05        120.2266
252.51        109.3682
252.96        98.33549
253.42         94.4785
253.88        97.12306
254.33        103.1992
254.79        110.8301
255.25         116.729
255.70        119.7631
256.16        121.6996
256.62        122.0805
257.07        120.2558
257.53        117.2154
257.99        112.8052
258.44        108.3351
258.90        106.5805
259.35        106.2878
259.81        106.6713
260.27        105.7895
260.72        101.7311
261.18        95.60867
261.63        88.28946
262.09        81.54295
262.55        76.54588
263.00        73.27042
263.46        71.27446
263.91        69.75416
264.37        68.33495
264.83        66.65551
265.28        64.72561
265.74        62.71144
266.19        60.54126
266.65        58.55709
267.11        56.76474
267.56        55.10537
268.02        53.50784
268.47         51.8206
268.93        50.07997
269.38        48.39264
269.84        47.17776
270.30        46.52645
270.75        46.32274
271.21        46.27322
271.66        45.92184
272.12        45.14983
272.57        44.07447
273.03        42.93432
273.48        42.00049
273.94        41.38128
274.39        40.92365
274.85        40.52305
275.31        39.99668
275.76        39.28389
276.22        38.49578
276.67        37.66404
277.13        36.94638
277.58        36.32312
278.04         35.8051
278.49        35.29548
278.95        34.75116
279.40        34.11547
279.86        33.46759
280.31        32.82159
280.77        32.33272
281.22        31.97056
281.68         31.7274
282.13        31.50755
282.59        31.23334
283.04        30.87382
283.50        30.50335
283.95        30.14052
284.41        29.84824
284.86        29.63399
285.32        29.49361
285.77        29.44459
286.22         29.5839
286.68        29.88464
287.13         30.2732
287.59        30.61769
288.04        30.70322
288.50        30.52059
288.95        30.10975
289.41        29.62279
289.86         29.1721
290.32        28.86879
290.77        28.67636
291.22        28.61927
291.68        28.68471
292.13        28.87852
292.59        29.23008
293.04        29.76065
293.50        30.49906
293.95        31.41815
294.40        32.46264
294.86        33.57167
295.31        34.66628
295.77         35.7306
296.22        36.78884
296.68        37.82951
297.13        38.80627
297.58        39.73998
298.04        40.66183
298.49        41.68426
298.95        43.03585
299.40        44.74031
299.85        46.73038
300.31        48.82481
300.76        50.72226
301.21        52.31725
301.67        53.72247
302.12        55.00369
302.58        56.37796
303.03        57.87213
303.48        59.45393
303.94        61.15632
304.39         62.9649
304.84        64.87691
305.30        66.89147
305.75        68.88078
306.20         70.6757
306.66        72.26106
307.11        73.62531
307.57        74.91437
308.02        76.22387
308.47        77.64894
308.93         79.1706
309.38        80.72578
309.83        82.26873
310.29        83.76627
310.74        85.19299
311.19        86.57443
311.65        87.94949
312.10         89.3098
312.55        90.65267
313.00        91.87863
313.46        92.83762
313.91        93.48279
314.36         93.8675
314.82        94.18774
315.27        94.69055
315.72        95.47626
316.18        96.48716
316.63        97.55869
317.08        98.36675
317.53        98.82406
317.99        99.00591
318.44        99.15121
318.89        99.65369
319.35        100.5673
319.80        101.7988
320.25        102.9901
320.70        103.5502
321.16        103.3539
321.61        102.5999
322.06        101.7029
322.51        101.3135
322.97        101.5702
323.42        102.3267
323.87        103.2642
324.32        103.8306
324.78        103.8521
325.23        103.5507
325.68        103.1411
326.13        103.0011
326.59        103.2167
327.04        103.6837
327.49        104.2739
327.94        104.8229
328.39         105.258
328.85        105.6189
329.30          105.95
329.75        106.1312
330.20        106.1846
330.66        106.1275
331.11        106.1645
331.56        106.5487
332.01         107.351
332.46        108.4808
332.92        109.7608
333.37        111.0721
333.82        112.2093
334.27        113.1997
334.72        113.9233
335.17        114.2138
335.63        114.0807
336.08        113.6363
336.53        113.1367
336.98        113.0519
337.43        113.4992
337.88        114.3441
338.34        115.4016
338.79        116.4473
339.24        117.3254
339.69        118.1339
340.14        118.7359
340.59        118.9056
341.05        118.6586
341.50        118.0439
341.95        117.4446
342.40        117.4608
342.85        118.1993
343.30        119.5024
343.75        120.9533
344.20        121.8043
344.66        121.8581
345.11        121.3188
345.56        120.5554
346.01        120.1329
346.46        120.2047
346.91        120.5905
347.36        121.0774
347.81        121.3478
348.26        121.3155
348.72        121.1091
349.17        120.8505
349.62        120.7674
350.07        120.9102
350.52        121.1853
350.97        121.4482
351.42        121.4946
351.87        121.2837
352.32        120.8939
352.77        120.4466
353.22        120.1293
353.67         119.989
354.13        119.9705
354.58        119.9582
355.03         119.839
355.48        119.5642
355.93        119.1618
356.38        118.6588
356.83        118.0966
357.28        117.4935
357.73        116.8458
358.18        116.1357
358.63        115.3366
359.08        114.4679
359.53        113.5692
359.98        112.7098
360.43        111.9873
360.88        111.4068
361.33        110.9097
361.78        110.4446
362.23        109.9313
362.68        109.3395
363.13        108.7084
363.58        107.9834
364.03        107.0765
364.48        106.0003
364.93        104.7884
365.38        103.6193
365.83        102.7866
366.28        102.3355
366.73        102.1587
367.18        102.0547
367.63        101.6864
368.08        100.9722
368.53         100.049
368.98        99.01091
369.43        97.99367
369.88        97.06082
370.33        96.15793
370.78        95.38559
371.23         94.9217
371.68        94.77689
372.13        94.90182
372.58        95.07852
373.03        94.92467
373.48        94.35387
373.93        93.49248
374.38         92.5379
374.83         91.7965
375.28         91.3503
375.72        91.08475
376.17        90.94699
376.62        90.83109
377.07        90.67068
377.52        90.47758
377.97        90.20071
378.42        89.75394
378.87        89.14307
379.32        88.42453
379.77        87.63759
380.22        86.83566
380.67        86.04293
381.11        85.24405
381.56        84.53715
382.01         84.0854
382.46         83.9179
382.91        84.00903
383.36        84.14053
383.81        83.95937
384.26        83.39971
384.71        82.55263
385.15        81.68163
385.60         81.2627
386.05         81.3223
386.50        81.70214
386.95        82.08379
387.40        81.93851
387.85        81.19829
388.29        80.07932
388.74        78.99821
389.19        78.22025
389.64        77.79323
390.09        77.55946
390.54        77.50672
390.98        77.62113
391.43        77.84678
391.88        78.17262
392.33        78.38316
392.78        78.09531
393.23        77.31351
393.67        76.27377
394.12        75.39114
394.57         74.5546
395.02        74.52464
395.47        74.78742
395.91        75.41033
396.36        75.91433
396.81        76.16838
397.26         76.2748
397.71        76.24162
398.15        75.94274
398.60        75.48839
399.05         75.1051
399.50        74.76044
399.95        73.82426
400.39        72.85577
400.84        72.47405
401.29        72.74839
401.74        73.03278
402.18        73.15636
402.63        73.00908
403.08        72.74712
403.53        72.86119
403.97        73.36521
404.42        73.89382
404.87        74.22457
405.32        74.12987
405.76        73.54657
406.21         72.7179
406.66        71.88155
407.11         71.1981
407.55        70.87835
408.00        71.21669
408.45        72.00452
408.90        72.52225
409.34        72.47857
409.79        71.83836
410.24         70.9113
410.68        70.41231
411.13        70.45316
411.58        70.63343
412.03        70.87508
412.47        71.21606
412.92        71.54327
413.37        71.87125
413.81        72.10162
414.26        72.12869
414.71        71.92251
415.15        71.49918
415.60        70.99525
416.05        70.65797
416.49        70.55978
416.94        70.66501
417.39        70.81071
417.83        70.69295
418.28        70.27554
418.73        69.67906
419.17        69.15016
419.62        69.08241
420.07        69.49315
420.51         70.2225
420.96        71.01244
421.41        71.33655
421.85        71.04277
422.30        70.68011
422.74        70.27956
423.19        69.39436
423.64        68.34096
424.08        68.47014
424.53         69.6399
424.98        70.28282
425.42        70.21658
425.87        70.61149
426.31        71.35375
426.76        71.10797
427.21        70.21739
427.65         70.4773
428.10        71.72396
428.54        72.55898
428.99        72.80461
429.44        72.68924
429.88        72.39543
430.33        73.34084
430.77         74.7047
431.22        73.65623
431.66        70.75183
432.11        68.92449
432.56        68.62669
433.00        69.37747
433.45        71.08749
433.89        72.99614
434.34        73.72556
434.78         75.3089
435.23        71.91702
435.67         68.7731
436.12        71.81003
436.57        72.82127
437.01         73.5175
437.46        73.80946
437.90        73.90157
438.35        73.26598
438.79         73.8021
439.24         73.6607
439.68        73.42892
440.13        73.09052
440.57        72.97741
441.02        73.81338
441.46        75.23361
441.91        76.36466
442.35        76.75903
442.80        75.74064
443.24        73.91674
443.69        74.35754
444.13        76.64748
444.58        76.69595
445.02        74.72881
445.47        74.40084
445.91        75.63055
446.36        76.01954
446.80        75.48585
447.24        75.28518
447.69        75.48579
448.13         75.5869
448.58        75.66328
449.02        76.05437
449.47        76.63767
449.91        76.96071
450.36        76.97226
450.80        76.87818
451.25        76.73032
451.69        76.49745
452.13        76.23781
452.58         75.9736
453.02        75.76907
453.47        75.77263
453.91        75.97044
454.36        76.29704
454.80        76.64168
455.24        76.72001
455.69        76.45505
456.13        76.13541
456.58        75.88135
457.02        75.12018
457.46        74.19743
457.91        74.82365
458.35        75.78327
458.79        76.30949
459.24        76.05481
459.68        75.74732
460.13        75.47374
460.57        75.21017
461.01        75.10645
461.46        74.36766
461.90         74.0676
462.34        74.39831
462.79         73.9896
463.23        74.03288
463.68        74.05422
464.12        74.45544
464.56        75.05619
465.01        75.28892
465.45        75.00478
465.89        74.83473
466.34        74.69985
466.78        73.56648
467.22        71.98657
467.67        71.75095
468.11        72.80527
468.55        73.62636
468.99        73.81295
469.44        73.49554
469.88         72.8659
470.32        72.73073
470.77        73.06557
471.21        73.02512
471.65         72.5885
472.10        72.41414
472.54        72.51405
472.98        72.57255
473.42        72.56792
473.87        72.71131
474.31        72.88214
474.75        72.71459
475.20        72.33838
475.64        72.14279
476.08        72.43037
476.52        72.46841
476.97        72.31086
477.41        72.40387
477.85        72.78836
478.29        72.46574
478.74        73.01209
479.18        72.97999
479.62        71.56107
480.06        72.04483
480.50        72.52904
480.95        73.03236
481.39        72.98775
481.83        72.40954
482.27        72.62856
482.72        71.89648
483.16        70.90963
483.60        70.94632
484.04        72.18629
484.48        72.73246
484.93        72.93089
485.37        74.60049
485.81        75.12228
486.25        73.27062
486.69        100.5743
487.14        81.43977
487.58        50.49321
488.02         61.6513
488.46        69.97797
488.90         69.8357
489.34        71.22521
489.79        70.42675
490.23        72.78181
490.67        73.57316
491.11         72.3058
491.55        72.19907
491.99        72.81798
492.43        72.62493
492.88        71.71622
493.32        71.58751
493.76        71.75134
494.20        72.00541
494.64        72.08871
495.08          72.326
495.52        72.70043
495.96        72.58836
496.41        72.04889
496.85        72.55072
497.29        73.73508
497.73         72.5071
498.17         69.9631
498.61        70.14217
499.05        73.01148
499.49        73.50889
499.93        73.20728
500.37        72.87346
500.82        72.41629
501.26        72.44463
501.70        72.73229
502.14        72.99281
502.58        73.06724
503.02        73.06088
503.46        72.94848
503.90        72.68359
504.34        72.36847
504.78        72.07885
505.22        71.91451
505.66        72.17043
506.10        72.70591
506.54        72.86731
506.98        72.55157
507.42         72.5183
507.86        72.06746
508.30        72.01141
508.74        72.14581
509.18        72.44153
509.62        72.76875
510.06        72.93946
510.50        72.91103
510.94        72.73523
511.38        72.52109
511.82        72.43576
512.26        72.52116
512.70        72.72252
513.14           72.95
513.58        73.06265
514.02        73.01807
514.46        72.85783
514.90        72.66589
515.34        72.55582
515.78        72.54799
516.22        72.66644
516.66        72.83319
517.10        72.76557
517.54        72.43837
517.98        72.47016
518.42        72.16113
518.86        72.22126
519.30        72.43079
519.74         72.7905
520.18        73.19066
520.62        73.44985
521.06        73.52457
521.50        73.46952
521.93        73.31449
522.37        73.10902
522.81        72.89575
523.25        72.66631
523.69        72.48962
524.13        72.47121
524.57        72.62231
525.01        72.91576
525.45        73.24963
525.89        73.45121
526.32        73.46513
526.76         73.3312
527.20        73.12802
527.64        73.00491
528.08        73.01637
528.52        73.05791
528.96        73.03777
529.40        73.02077
529.83        73.02788
530.27        72.31352
530.71        72.39526
531.15        72.25535
531.59        72.34789
532.03        72.57862
532.46        72.90927
532.90        73.24099
533.34        73.51144
533.78        73.74519
534.22        73.89204
534.66         73.8877
535.09        73.72194
535.53          73.437
535.97        73.11134
536.41        72.89645
536.85        72.83548
537.28        72.90052
537.72        73.01176
538.16        73.04758
538.60        72.97713
539.04         72.7815
539.47        72.53934
539.91        72.56165
540.35        72.79086
540.79        72.88544
541.22         72.8048
541.66        72.78252
542.10        72.80416
542.54         72.7076
542.97        72.56742
543.41        72.61421
543.85        72.85412
544.29        73.22987
544.72        73.57076
545.16        73.63884
545.60        73.38416
546.04        72.90536
546.47        72.41335
546.91        72.22869
547.35        72.43891
547.79          73.008
548.22        73.64922
548.66        73.92747
549.10        73.69372
549.53        72.91868
549.97        71.96391
550.41        71.49675
550.84        71.63398
551.28        72.11087
551.72        72.73763
552.15        73.10155
552.59        73.06335
553.03        73.14072
553.46        73.07329
553.90        72.50231
554.34        72.83569
554.77        72.78754
555.21        72.76848
555.65        72.71256
556.08        73.10361
556.52        72.48514
556.96        72.71025
557.39        72.55048
557.83        72.54981
558.27        72.57463
558.70        72.65228
559.14        72.83014
559.57        73.06072
560.01        73.35737
560.45        73.61388
560.88        73.63228
561.32        73.42822
561.75        73.10569
562.19         72.8026
562.63        72.45341
563.06        72.17414
563.50        72.34544
563.93        72.81334
564.37        73.02589
564.80        72.89577
565.24        72.73694
565.68        72.59229
566.11         72.4429
566.55         72.3959
566.98        72.40133
567.42        72.46659
567.85        72.85424
568.29        73.49063
568.72        73.49292
569.16        73.07045
569.60         73.8763
570.03        74.08755
570.47        74.16995
570.90        74.05025
571.34         71.9721
571.77        72.95854
572.21         73.3382
572.64        72.75015
573.08        71.61573
573.51         68.1315
573.95        70.86378
574.38        75.84185
574.82        73.64165
