SpectraSmart Spectrum 2.9.0.0
--------- Device Information -----------
Spectrum Name :  反射率_0
Saving Time :  2024/04/26 01:38:48
Spectro-Module Model Name : SE2030-DUVN
Spectro-Module Serial Number : OS361AC55029948
Wavelength Start : 200
Wavelength End : 1025
Wavelength Unit : Wavelength(nm)
Spectrum Unit : Reflectance(%)
-----------Spectrum Setting ------------
Integration Time : 20ms
Average : 10
Boxcar : 0
Background removal :  enabled
linearity correction :  enabled
SC :  disabled
Intensity correction :  disabled
DWT denoise :  enabled
savitzky-golay :  disabled
FFT :  disabled
Running average :  disabled
Kalman :  disabled
High pass :  disabled
---------------BEGIN--------------------
Wavelength(nm)             Reflectance(%)
200.29               0
200.75        108.2396
201.21        97.31841
201.67        84.57597
202.13        77.06168
202.58        75.71567
203.04        78.94391
203.50        83.94879
203.96        86.01354
204.42        84.17158
204.88         80.3456
205.34        77.04163
205.80        76.87041
206.26        80.91759
206.72        91.50108
207.18        112.2576
207.64        128.1611
208.10        111.8478
208.55         84.6256
209.01        68.35041
209.47        63.17778
209.93        64.36678
210.39        69.77962
210.85         76.5409
211.31        78.53382
211.77        73.82993
212.23        64.75896
212.69        56.01981
213.14        54.87252
213.60        62.38004
214.06        76.14451
214.52        91.17184
214.98        99.93839
215.44         100.505
215.90        95.44656
216.36        87.97537
216.81        82.45945
217.27         80.4499
217.73         80.5433
218.19        80.86738
218.65        78.95795
219.11        73.77238
219.57        64.63857
220.02        53.08592
220.48        47.14485
220.94        50.88078
221.40        61.92437
221.86        71.31895
222.32        69.96635
222.77        59.57935
223.23        45.82318
223.69        34.54538
224.15        31.67534
224.61        36.44727
225.06        45.69574
225.52        55.31834
225.98        60.05117
226.44        58.84262
226.90        53.85551
227.36        47.68106
227.81        43.79227
228.27        43.30793
228.73         44.8383
229.19        47.17537
229.65        48.62054
230.10        48.77374
230.56         48.3921
231.02        48.05589
231.48         48.3508
231.93        49.27849
232.39        50.51461
232.85        51.67792
233.31        52.29433
233.77        52.22056
234.22        51.61169
234.68        50.65297
235.14        49.68408
235.60        48.93422
236.05        48.40657
236.51        48.07104
236.97        47.79729
237.43        47.56464
237.88        47.50047
238.34        47.78811
238.80        48.93009
239.26        51.02901
239.71        53.97522
240.17        56.98805
240.63        59.27378
241.08        60.68983
241.54        61.35675
242.00        61.84282
242.46        63.17921
242.91         66.5116
243.37        73.93224
243.83        96.34748
244.28        169.6777
244.74        254.9407
245.20        210.6502
245.66        168.6579
246.11         156.874
246.57        162.7059
247.03        191.1029
247.48        274.5237
247.94        221.3525
248.40        129.2927
248.85        102.6174
249.31        95.27596
249.77        94.59464
250.22        97.51938
250.68        104.0914
251.14         113.984
251.59        120.5381
252.05        117.0716
252.51        106.4537
252.96        94.85119
253.42        88.38879
253.88        86.45161
254.33        86.85318
254.79        88.71117
255.25        90.28249
255.70        90.91899
256.16        91.48222
256.62        91.24967
257.07         89.3673
257.53        86.41021
257.99        82.30229
258.44        78.07792
258.90        75.95492
259.35        75.04972
259.81          74.745
260.27        73.48502
260.72        69.73906
261.18        64.32057
261.63         57.9386
262.09        52.17532
262.55        48.20333
263.00        45.96312
263.46        44.92852
263.91        44.18223
264.37        43.00399
264.83        41.19172
265.28          38.912
265.74        36.71152
266.19        35.18721
266.65         34.5525
267.11         34.4522
267.56        34.39354
268.02        33.77748
268.47        32.48915
268.93        30.74528
269.38        28.85288
269.84        27.56753
270.30        27.09566
270.75        27.22311
271.21        27.57295
271.66        27.58657
272.12        27.09949
272.57        26.28391
273.03        25.40567
273.48        24.78189
273.94        24.51705
274.39        24.46435
274.85        24.43856
275.31        24.17509
275.76        23.61884
276.22         22.8929
276.67        22.17102
277.13        21.77856
277.58        21.71223
278.04         21.8711
278.49        22.00443
278.95        21.81252
279.40         21.2317
279.86        20.43198
280.31        19.57552
280.77        19.00433
281.22        18.75356
281.68        18.72868
282.13        18.80199
282.59         18.8172
283.04        18.72873
283.50        18.62187
283.95        18.49751
284.41        18.36383
284.86        18.22905
285.32        18.08511
285.77        18.00203
286.22        18.14754
286.68        18.50659
287.13        18.99871
287.59        19.43915
288.04        19.55173
288.50        19.31184
288.95        18.80067
289.41        18.21698
289.86        17.76198
290.32        17.55032
290.77        17.52054
291.22        17.63985
291.68        17.81638
292.13        18.03586
292.59        18.33684
293.04        18.77496
293.50         19.4278
293.95        20.28354
294.40        21.27355
294.86        22.29275
295.31        23.20106
295.77        23.97532
296.22        24.66735
296.68        25.34425
297.13        26.08261
297.58        26.93417
298.04        27.89746
298.49        28.99754
298.95        30.31533
299.40        31.84701
299.85        33.56708
300.31        35.38733
300.76        37.16079
301.21        38.80935
301.67        40.37594
302.12        41.83953
302.58        43.26889
303.03        44.67058
303.48        46.05479
303.94        47.51469
304.39        49.13747
304.84        50.94451
305.30        52.90487
305.75        54.86172
306.20        56.59228
306.66         58.0633
307.11        59.28904
307.57        60.43818
308.02        61.66087
308.47        63.04725
308.93        64.55331
309.38        66.06998
309.83        67.47385
310.29        68.71655
310.74        69.80518
311.19        70.81842
311.65         71.8773
312.10        72.99662
312.55        74.14957
313.00        75.20113
313.46        75.93857
313.91        76.31058
314.36        76.40917
314.82         76.4607
315.27         76.7646
315.72        77.42436
316.18         78.3549
316.63        79.38905
317.08        80.20584
317.53        80.70496
317.99        80.95945
318.44        81.14789
318.89        81.56663
319.35        82.26226
319.80        83.16522
320.25        84.02176
320.70        84.41893
321.16        84.27765
321.61        83.74649
322.06        83.13714
322.51        82.93617
322.97        83.23787
323.42         83.9248
323.87        84.74498
324.32        85.26196
324.78        85.33395
325.23        85.13611
325.68        84.80884
326.13        84.60751
326.59        84.60156
327.04        84.73045
327.49        84.96764
327.94         85.3052
328.39        85.71542
328.85        86.19659
329.30        86.70715
329.75        87.01019
330.20        87.07578
330.66        86.95231
331.11        86.85653
331.56        87.07031
332.01        87.68244
332.46        88.60227
332.92        89.67467
333.37        90.78172
333.82        91.74895
334.27        92.60199
334.72        93.27051
335.17        93.65696
335.63        93.76729
336.08        93.67696
336.53        93.51332
336.98         93.5359
337.43          93.826
337.88        94.31691
338.34        94.97661
338.79        95.82655
339.24        96.78771
339.69        97.87942
340.14        98.87945
340.59        99.39989
341.05         99.3765
341.50         98.9069
341.95         98.3591
342.40        98.31183
342.85        98.88311
343.30        99.90855
343.75        101.0573
344.20        101.7398
344.66        101.7987
345.11        101.4147
345.56         100.852
346.01        100.5019
346.46        100.4881
346.91        100.6916
347.36        101.0109
347.81        101.3002
348.26        101.5107
348.72        101.7105
349.17        101.9175
349.62         102.196
350.07        102.5416
350.52        102.9005
350.97        103.1896
351.42        103.3062
351.87         103.231
352.32        102.9985
352.77        102.6867
353.22        102.4176
353.67        102.2303
354.13        102.1159
354.58        101.9915
355.03        101.7794
355.48         101.458
355.93        101.0512
356.38        100.6251
356.83        100.2785
357.28        100.0267
357.73        99.83768
358.18        99.61266
358.63         99.1993
359.08         98.5779
359.53        97.80781
359.98        97.01378
360.43        96.38914
360.88         95.9669
361.33        95.66814
361.78        95.39376
362.23        94.98503
362.68        94.40273
363.13        93.72363
363.58        92.97006
364.03         92.1675
364.48         91.3494
364.93        90.50668
365.38        89.73792
365.83        89.20833
366.28         88.9257
366.73        88.81847
367.18        88.73045
367.63        88.40255
368.08        87.77651
368.53        86.95713
368.98        86.02567
369.43        85.10249
369.88        84.24469
370.33        83.41393
370.78        82.69872
371.23        82.24897
371.68        82.07743
372.13        82.14706
372.58        82.27792
373.03        82.15239
373.48        81.69678
373.93        81.01051
374.38         80.2562
374.83        79.68958
375.28        79.37218
375.72        79.19827
376.17         79.1126
376.62        79.00367
377.07        78.81284
377.52        78.56184
377.97        78.21895
378.42        77.73076
378.87        77.11536
379.32        76.42081
379.77         75.6951
380.22         75.0018
380.67        74.35938
381.11        73.74773
381.56        73.22081
382.01        72.86885
382.46        72.70354
382.91        72.71413
383.36         72.7415
383.81        72.53076
384.26        72.03912
384.71         71.3323
385.15        70.61375
385.60        70.25775
386.05        70.27969
386.50        70.55435
386.95        70.83208
387.40        70.69727
387.85          70.098
388.29        69.20414
388.74        68.33894
389.19        67.69193
389.64        67.29797
390.09        67.03056
390.54        66.91006
390.98        66.97716
391.43        67.19943
391.88        67.54861
392.33        67.78727
392.78        67.55711
393.23        66.86336
393.67        65.83533
394.12         64.8723
394.57        64.32862
395.02        64.28114
395.47        64.59214
395.91        65.13217
396.36        65.56856
396.81        65.78085
397.26        65.82206
397.71        65.70718
398.15        65.36363
398.60        64.89652
399.05        64.45918
399.50        64.07213
399.95         63.2999
400.39        62.58472
400.84        62.38782
401.29        62.71874
401.74        62.84318
402.18        62.70435
402.63        62.66066
403.08        62.78576
403.53        62.99102
403.97        63.26446
404.42        63.59249
404.87        63.82352
405.32        63.70024
405.76         63.1904
406.21        62.47897
406.66        61.76474
407.11        61.29662
407.55        61.20603
408.00        61.45337
408.45        61.90856
408.90        62.40563
409.34        62.66821
409.79        62.20906
410.24        61.30644
410.68        60.89247
411.13        61.06738
411.58        61.32578
412.03        61.58496
412.47        61.92119
412.92        62.23444
413.37         62.5312
413.81        62.74035
414.26        62.79164
414.71        62.66651
415.15        62.37743
415.60        62.04002
416.05         61.8641
416.49        61.90624
416.94        62.13418
417.39        62.39381
417.83        62.39979
418.28        62.11251
418.73        61.63794
419.17        61.19879
419.62        61.15091
420.07        61.52182
420.51         62.1782
420.96        62.89713
421.41        63.22984
421.85         63.0442
422.30        62.78254
422.74        62.48995
423.19        61.87635
423.64        61.18385
424.08        61.43131
424.53        62.47818
424.98        63.06919
425.42         63.0549
425.87        63.38539
426.31        63.98205
426.76         63.7779
427.21        63.06607
427.65        63.32615
428.10         64.4802
428.54        65.36593
428.99        65.90664
429.44         66.3092
429.88         66.5395
430.33        67.30331
430.77        68.02605
431.22        66.77654
431.66        64.18037
432.11        62.94225
432.56        63.33849
433.00        64.21698
433.45        65.41873
433.89        67.43805
434.34        68.81319
434.78        70.27878
435.23        65.90855
435.67         64.4469
436.12        66.89755
436.57        68.09052
437.01        68.39721
437.46         68.6124
437.90        68.91959
438.35        68.84689
438.79        69.37291
439.24        69.43546
439.68        69.35699
440.13        69.04093
440.57        68.83307
441.02         69.7382
441.46        71.35104
441.91        72.21054
442.35        72.06726
442.80        71.20245
443.24         70.0997
443.69        70.70238
444.13        72.56203
444.58        72.96719
445.02        71.11872
445.47        70.93089
445.91        72.03695
446.36        72.37914
446.80          71.893
447.24        71.66607
447.69        71.80476
448.13        72.01111
448.58        72.30093
449.02        72.69777
449.47        73.11597
449.91        73.43084
450.36         73.6055
450.80        73.65112
451.25        73.59999
451.69        73.47787
452.13        73.32878
452.58        73.15385
453.02        73.00274
453.47        72.99589
453.91        73.12556
454.36         73.3635
454.80        73.63306
455.24        73.66061
455.69        73.40855
456.13        73.18644
456.58        73.11363
457.02        72.42581
457.46        72.10094
457.91        72.37942
458.35        73.14725
458.79        73.51128
459.24        73.38156
459.68        73.21625
460.13        73.08537
460.57        72.89639
461.01        72.74406
461.46        72.48498
461.90        72.05367
462.34        72.43951
462.79        71.97232
463.23        71.92664
463.68        72.46738
464.12        72.72478
464.56        72.84396
465.01        73.01796
465.45         73.0775
465.89        72.93181
466.34        72.47307
466.78        71.29278
467.22        70.05214
467.67        69.11535
468.11        70.80745
468.55        71.64548
468.99        71.67426
469.44        71.41327
469.88        70.97661
470.32        70.99827
470.77        71.39092
471.21        71.36998
471.65        70.90656
472.10        70.63416
472.54        70.62735
472.98        70.65813
473.42        70.71015
473.87        71.03072
474.31        71.42893
474.75        71.24274
475.20        70.64516
475.64        70.55219
476.08        70.94518
476.52        70.98875
476.97        70.64495
477.41        70.52788
477.85        70.77432
478.29        70.50227
478.74        71.15278
479.18        71.54366
479.62        69.98553
480.06        70.51811
480.50        70.99477
480.95        71.48499
481.39        71.49799
481.83        70.54024
482.27        70.92165
482.72        70.43639
483.16         69.3204
483.60        69.60232
484.04        71.16425
484.48        71.57734
484.93        71.29018
485.37        73.18114
485.81         73.6886
486.25        72.40251
486.69        99.52906
487.14        80.29091
487.58        49.46358
488.02        60.92405
488.46        69.04844
488.90        68.22309
489.34        69.84541
489.79         68.8742
490.23        71.16929
490.67         72.0299
491.11        70.93131
491.55        70.80699
491.99        71.24829
492.43        71.04403
492.88        70.29971
493.32        70.30249
493.76        70.53765
494.20        70.83688
494.64        70.94077
495.08        71.14434
495.52        71.44318
495.96        71.33717
496.41        70.88409
496.85        71.28238
497.29        72.24203
497.73         71.2276
498.17         69.1838
498.61        69.30866
499.05        71.63215
499.49        72.05763
499.93        72.13302
500.37        71.90315
500.82        71.27871
501.26         71.2929
501.70        71.69621
502.14        72.01148
502.58        71.88994
503.02        71.76978
503.46        71.58998
503.90        71.17082
504.34        70.68404
504.78        70.48959
505.22         70.6342
505.66        71.04538
506.10         71.5517
506.54         71.7401
506.98        71.50031
507.42        71.42375
507.86        70.83349
508.30        70.63901
508.74        70.65822
509.18         70.8308
509.62        71.06393
510.06        71.22906
510.50        71.28837
510.94        71.28297
511.38        71.24831
511.82        71.22841
512.26        71.24007
512.70        71.26183
513.14        71.28412
513.58        71.30312
514.02        71.31078
514.46        71.30418
514.90        71.29527
515.34        71.28429
515.78        71.26172
516.22        71.29197
516.66        71.34357
517.10        71.19981
517.54        70.85704
517.98         70.9377
518.42        70.67407
518.86        70.77074
519.30        70.98575
519.74        71.35407
520.18        71.76511
520.62        72.01089
521.06        72.06149
521.50        72.01189
521.93        71.90992
522.37         71.7945
522.81        71.70374
523.25        71.64082
523.69        71.62093
524.13        71.65542
524.57        71.74282
525.01        71.88678
525.45         72.0465
525.89        72.14988
526.32        72.16981
526.76        72.11736
527.20        72.02805
527.64        71.98074
528.08        72.00986
528.52        72.03593
528.96        71.98988
529.40        71.96761
529.83        71.99803
530.27         71.3287
530.71        71.44641
531.15        71.33652
531.59        71.44131
532.03        71.67171
532.46        71.98582
532.90        72.27835
533.34        72.48689
533.78         72.6433
534.22        72.71236
534.66        72.63546
535.09        72.40788
535.53        72.13543
535.97        71.78374
536.41        71.56388
536.85        71.48705
537.28        71.53052
537.72        71.64648
538.16        71.76591
538.60        71.85769
539.04        71.87392
539.47        71.82775
539.91        71.93496
540.35        72.12013
540.79        72.07193
541.22        71.80662
541.66        71.64617
542.10        71.60211
542.54        71.49172
542.97        71.35693
543.41        71.37131
543.85        71.53423
544.29        71.82073
544.72        72.08548
545.16        72.13309
545.60        71.92284
546.04         71.5037
546.47        71.08875
546.91        71.05896
547.35        71.46099
547.79        72.13602
548.22         72.7784
548.66        73.01413
549.10        72.70927
549.53        71.82603
549.97        70.76401
550.41          70.243
550.84        70.39294
551.28        70.95871
551.72         71.7158
552.15        72.16946
552.59        72.15462
553.03        72.29733
553.46        72.10725
553.90        71.67828
554.34        71.90844
554.77        71.97089
555.21        71.87497
555.65        71.95575
556.08        72.17339
556.52        71.62465
556.96        71.97546
557.39        71.81909
557.83        71.71326
558.27        71.71113
558.70        71.82536
559.14         71.9975
559.57        72.18462
560.01        72.33438
560.45        72.42666
560.88        72.62592
561.32        72.82574
561.75        72.55645
562.19        71.96648
562.63        71.43615
563.06        71.14108
563.50        71.26337
563.93        71.67232
564.37         72.0179
564.80        72.13418
565.24         71.9896
565.68        71.68439
566.11        71.56703
566.55        71.72075
566.98        71.87992
567.42        72.01734
567.85        72.26197
568.29        72.60647
568.72         72.6599
569.16        72.62708
569.60        73.09352
570.03        73.59389
570.47        73.60073
570.90        73.34792
571.34        71.54449
571.77        72.91818
572.21        72.53612
572.64        71.83884
573.08        71.48887
573.51        68.17616
573.95        70.94088
574.38        75.29659
574.82        73.48824
