SpectraSmart Spectrum 2.9.0.0
--------- Device Information -----------
Spectrum Name :  反射率_0
Saving Time :  2024/04/26 01:32:32
Spectro-Module Model Name : SE2030-DUVN
Spectro-Module Serial Number : OS361AC55029948
Wavelength Start : 200
Wavelength End : 1025
Wavelength Unit : Wavelength(nm)
Spectrum Unit : Reflectance(%)
-----------Spectrum Setting ------------
Integration Time : 20ms
Average : 10
Boxcar : 0
Background removal :  enabled
linearity correction :  enabled
SC :  disabled
Intensity correction :  disabled
DWT denoise :  enabled
savitzky-golay :  disabled
FFT :  disabled
Running average :  disabled
Kalman :  disabled
High pass :  disabled
---------------BEGIN--------------------
Wavelength(nm)             Reflectance(%)
200.29               0
200.75        94.88364
201.21        85.81801
201.67        75.78563
202.13        70.09632
202.58         69.3659
203.04        72.48633
203.50        77.28708
203.96        79.95988
204.42        79.50057
204.88        77.23849
205.34          75.065
205.80        75.00274
206.26        77.86196
206.72        85.26048
207.18        99.06822
207.64        106.7789
208.10        90.83006
208.55        69.72672
209.01        58.35837
209.47        55.87846
209.93        58.65458
210.39        65.38096
210.85        73.47282
211.31        76.97224
211.77        73.73359
212.23         65.7264
212.69        57.47307
213.14        56.08486
213.60        62.60152
214.06        74.82876
214.52        87.73611
214.98        93.71902
215.44        91.20187
215.90        83.07079
216.36        73.39358
216.81         67.7719
217.27         67.5497
217.73        70.51807
218.19          73.875
218.65        74.08588
219.11        69.99308
219.57         61.4234
220.02         49.6662
220.48        42.42369
220.94        44.07697
221.40        52.51829
221.86        60.68319
222.32        61.25611
222.77        55.00801
223.23        46.14929
223.69        38.68311
224.15        36.65508
224.61        39.56344
225.06        45.29948
225.52        50.93933
225.98        52.91965
226.44        50.64413
226.90        45.76752
227.36        40.27231
227.81        36.75356
228.27        36.11913
228.73        37.29521
229.19        39.48808
229.65        41.53288
230.10        42.93457
230.56        43.99049
231.02         44.8117
231.48        45.48946
231.93        46.06343
232.39        46.49641
232.85        46.71579
233.31        46.69582
233.77          46.445
234.22        45.97682
234.68        45.50152
235.14        45.34146
235.60        45.61101
236.05        46.28231
236.51        47.07489
236.97        47.54224
237.43        47.64635
237.88        47.56104
238.34        47.65265
238.80        48.95088
239.26        51.79419
239.71        55.88788
240.17        60.22976
240.63        63.63349
241.08        65.72611
241.54        66.65624
242.00        66.94311
242.46         67.4516
242.91        68.96166
243.37        72.15102
243.83         82.4956
244.28        121.0483
244.74        173.6819
245.20         156.103
245.66        134.6199
246.11        128.8345
246.57          133.08
247.03        151.1428
247.48        201.0549
247.94        160.9241
248.40        103.9271
248.85        88.17356
249.31        84.27961
249.77        84.63367
250.22        87.53361
250.68        93.33961
251.14         101.993
251.59        108.0264
252.05        106.0497
252.51        98.65565
252.96         90.5608
253.42        86.84872
253.88        87.18848
254.33        89.48784
254.79        93.78979
255.25        99.46504
255.70        105.0629
256.16        110.4293
256.62        113.5526
257.07        112.3371
257.53        107.9887
257.99        101.4657
258.44        94.69551
258.90        91.02775
259.35        89.56981
259.81        89.23808
260.27         88.3058
260.72        85.09923
261.18        80.36284
261.63        74.72755
262.09         69.4699
262.55        65.28148
263.00        62.19564
263.46        60.02727
263.91        58.26211
264.37        56.72448
264.83        55.12976
265.28        53.41372
265.74         51.7363
266.19        50.05387
266.65        48.60741
267.11        47.36129
267.56        46.19532
268.02        44.94762
268.47        43.49229
268.93        41.88584
269.38        40.24441
269.84        39.00333
270.30         38.2748
270.75        37.96409
271.21        37.81818
271.66        37.44331
272.12        36.73308
272.57        35.79412
273.03        34.86178
273.48        34.20314
273.94        33.90464
274.39        33.82034
274.85        33.77093
275.31         33.4797
275.76        32.87816
276.22        32.08997
276.67         31.2581
277.13        30.69304
277.58         30.3905
278.04        30.28605
278.49        30.15789
278.95        29.76964
279.40        29.05694
279.86        28.18023
280.31        27.27682
280.77        26.67134
281.22        26.37711
281.68        26.30958
282.13        26.32576
282.59        26.26682
283.04        26.08227
283.50        25.87578
283.95        25.64489
284.41        25.40897
284.86        25.17952
285.32         24.9497
285.77        24.81876
286.22        25.00593
286.68        25.49612
287.13        26.18372
287.59        26.81776
288.04        27.00822
288.50        26.72404
288.95        26.08046
289.41         25.3591
289.86        24.87378
290.32        24.76287
290.77        24.90845
291.22        25.22991
291.68        25.55989
292.13        25.86194
292.59        26.22052
293.04        26.68777
293.50        27.33495
293.95        28.16926
294.40        29.13083
294.86        30.19373
295.31        31.34005
295.77        32.55671
296.22        33.84021
296.68        35.14592
297.13        36.36555
297.58        37.48769
298.04        38.55436
298.49        39.63695
298.95        40.90749
299.40        42.39434
299.85        44.04714
300.31         45.7886
300.76        47.48685
301.21        49.07024
301.67        50.60221
302.12        52.03069
302.58        53.38731
303.03        54.66352
303.48        55.87975
303.94        57.16962
304.39        58.67709
304.84        60.42893
305.30        62.36756
305.75        64.27238
306.20        65.83218
306.66        67.00874
307.11         67.8581
307.57        68.61459
308.02        69.50558
308.47        70.64918
308.93        71.97599
309.38        73.36765
309.83        74.69179
310.29        75.88757
310.74        76.96082
311.19        77.95663
311.65        78.93985
312.10        79.91419
312.55        80.86738
313.00        81.70402
313.46        82.28615
313.91        82.58195
314.36        82.65838
314.82        82.71702
315.27        83.01131
315.72        83.63312
316.18        84.51736
316.63        85.49392
317.08        86.23399
317.53        86.64459
317.99        86.79964
318.44        86.91477
318.89        87.34866
319.35        88.15224
319.80        89.23304
320.25        90.27912
320.70        90.77885
321.16        90.62173
321.61         89.9818
322.06        89.20809
322.51        88.84749
322.97        89.01669
323.42         89.5912
323.87         90.3149
324.32        90.74409
324.78        90.74029
325.23        90.49417
325.68         90.1627
326.13        90.02267
326.59         90.1405
327.04        90.44106
327.49         90.8662
327.94        91.36083
328.39         91.8792
328.85        92.42644
329.30        92.97003
329.75        93.28309
330.20          93.347
330.66        93.20795
331.11        93.10539
331.56        93.35672
332.01        94.05538
332.46        95.09708
332.92        96.29893
333.37        97.50212
333.82        98.50908
334.27        99.36533
334.72        99.98854
335.17        100.2653
335.63        100.2151
336.08        99.92406
336.53        99.59953
336.98        99.62907
337.43        100.1124
337.88        100.9443
338.34        101.9786
338.79        103.0493
339.24        104.0217
339.69        104.9627
340.14        105.7391
340.59        106.1269
341.05        106.1185
341.50        105.7626
341.95        105.3709
342.40        105.4406
342.85         106.073
343.30        107.1409
343.75        108.3434
344.20        109.1326
344.66        109.3572
345.11        109.1628
345.56        108.7907
346.01        108.6092
346.46        108.7272
346.91        109.0274
347.36        109.3929
347.81        109.6542
348.26        109.7669
348.72        109.8159
349.17        109.8517
349.62        109.9905
350.07        110.2488
350.52        110.5636
350.97         110.855
351.42        111.0176
351.87        111.0239
352.32        110.9098
352.77        110.7167
353.22        110.5099
353.67        110.3161
354.13        110.1355
354.58        109.9345
355.03        109.7201
355.48        109.4879
355.93        109.2407
356.38        108.9772
356.83         108.691
357.28         108.374
357.73        108.0201
358.18        107.6135
358.63        107.1324
359.08        106.5799
359.53        105.9744
359.98         105.337
360.43         104.698
360.88        104.0659
361.33        103.4282
361.78        102.8018
362.23        102.2136
362.68        101.6695
363.13        101.1753
363.58        100.6741
364.03        100.0701
364.48        99.34934
364.93        98.53674
365.38        97.72747
365.83        97.08108
366.28        96.61963
366.73        96.27491
367.18        95.94138
367.63        95.44898
368.08        94.76658
368.53        93.98463
368.98         93.1496
369.43        92.31896
369.88        91.52769
370.33        90.74943
370.78        90.08125
371.23        89.68884
371.68        89.58753
372.13        89.72901
372.58        89.91824
373.03        89.81837
373.48        89.35431
373.93        88.63654
374.38        87.85431
374.83        87.30093
375.28        87.04794
375.72        86.98182
376.17        87.02276
376.62        87.01923
377.07        86.89832
377.52        86.68636
377.97        86.36958
378.42        85.92486
378.87         85.3726
379.32        84.74641
379.77        84.06454
380.22        83.34997
380.67        82.61613
381.11        81.85915
381.56        81.17068
382.01        80.70082
382.46        80.48277
382.91        80.49909
383.36        80.55669
383.81        80.34347
384.26        79.80502
384.71        79.02181
385.15        78.24319
385.60        77.92017
386.05        78.07076
386.50        78.53914
386.95        79.00093
387.40        78.91551
387.85         78.2096
388.29        77.10516
388.74        76.01996
389.19        75.22903
389.64        74.78963
390.09        74.55396
390.54         74.5119
390.98        74.64896
391.43        74.89767
391.88        75.23845
392.33        75.47849
392.78        75.20512
393.23        74.41048
393.67        73.50475
394.12        72.81948
394.57         71.7247
395.02        71.25266
395.47        71.61101
395.91        72.82828
396.36        73.56149
396.81        73.61196
397.26        73.58167
397.71        73.52762
398.15        73.18958
398.60        72.69238
399.05         72.2847
399.50        71.93221
399.95        71.02956
400.39        70.11012
400.84        69.75717
401.29        70.02428
401.74        70.28608
402.18         70.3687
402.63        70.14293
403.08        69.78745
403.53        69.84027
403.97        70.33157
404.42        70.89449
404.87         71.2867
405.32        71.26219
405.76        70.74603
406.21        69.92295
406.66        69.07527
407.11        68.52887
407.55        68.43566
408.00        68.87362
408.45        69.60372
408.90        69.92989
409.34        69.66826
409.79        69.08203
410.24        68.41689
410.68        68.00356
411.13        67.93809
411.58        68.04969
412.03        68.30186
412.47        68.68031
412.92        69.07772
413.37        69.52054
413.81        69.85765
414.26         69.9002
414.71        69.60838
415.15        69.02564
415.60        68.34886
416.05        67.92532
416.49         67.8525
416.94        68.06127
417.39        68.34634
417.83        68.33528
418.28        67.96073
418.73        67.35633
419.17        66.78449
419.62        66.65971
420.07        67.02062
420.51        67.71368
420.96        68.46739
421.41        68.77957
421.85        68.50837
422.30        68.07029
422.74        67.57914
423.19        66.96663
423.64        66.42695
424.08         66.6823
424.53        67.57661
424.98         68.0962
425.42        68.09883
425.87        68.37554
426.31        68.87355
426.76        68.63677
427.21        67.98585
427.65        68.39155
428.10         69.6593
428.54        70.63802
428.99        70.83933
429.44        70.84844
429.88        70.65345
430.33        71.25153
430.77          72.041
431.22        70.83453
431.66        68.21961
432.11        66.94202
432.56        67.25963
433.00        68.14217
433.45        69.39877
433.89        71.14104
434.34        71.98112
434.78        73.54018
435.23        69.30944
435.67        67.84407
436.12        69.65825
436.57        70.88469
437.01        71.64645
437.46        71.99757
437.90        72.13931
438.35        71.17048
438.79        71.82492
439.24        71.63625
439.68        71.45082
440.13         71.0061
440.57        70.72065
441.02        71.91513
441.46        74.00845
441.91        75.01222
442.35        74.63917
442.80        73.32392
443.24         71.7147
443.69        72.25877
444.13        74.47236
444.58        74.80602
445.02        72.84499
445.47        72.51828
445.91        73.60399
446.36        73.92625
446.80        73.42276
447.24        73.18463
447.69         73.3077
448.13        73.50432
448.58        73.78723
449.02        74.16959
449.47        74.56179
449.91        74.83923
450.36         74.9668
450.80        74.95628
451.25        74.84886
451.69        74.68654
452.13        74.51358
452.58        74.32039
453.02        74.15376
453.47        74.13028
453.91        74.24604
454.36        74.48216
454.80        74.73755
455.24        74.74342
455.69        74.47352
456.13        74.11293
456.58        73.84773
457.02        73.35634
457.46        73.35434
457.91        73.57451
458.35         74.0218
458.79        74.21632
459.24        74.12839
459.68        73.93188
460.13        73.66931
460.57        73.32434
461.01        72.98848
461.46        72.39114
461.90        71.98221
462.34        72.05391
462.79        72.03999
463.23         72.3995
463.68        72.80543
464.12        73.12044
464.56        73.24107
465.01        73.27321
465.45        73.10074
465.89        72.80569
466.34        72.30125
466.78        71.43702
467.22        69.80714
467.67        69.54507
468.11        71.08527
468.55        71.93373
468.99        71.94292
469.44        71.56242
469.88        71.00697
470.32        70.83903
470.77         71.0279
471.21        70.87389
471.65         70.3726
472.10        70.13721
472.54        70.20921
472.98        70.31847
473.42        70.43587
473.87        70.77911
474.31        71.17165
474.75        71.08362
475.20         70.6263
475.64        70.44776
476.08        70.59762
476.52        70.52917
476.97        70.23676
477.41        70.25261
477.85        70.58652
478.29        70.14246
478.74        70.48768
479.18        70.37175
479.62        69.58196
480.06        70.19028
480.50        70.47845
480.95        70.90018
481.39        71.00782
481.83        70.11412
482.27        70.09754
482.72        69.87328
483.16        68.76414
483.60        68.37815
484.04         70.1923
484.48        70.55252
484.93        70.46528
485.37        71.69648
485.81        72.72241
486.25        71.13828
486.69        97.75111
487.14          79.266
487.58        49.05894
488.02        59.91494
488.46         68.0284
488.90        67.38304
489.34        68.98888
489.79        68.11799
490.23        70.14558
490.67        70.92973
491.11        69.89706
491.55        69.86333
491.99        70.38068
492.43        70.16658
492.88        69.31988
493.32        69.17379
493.76        69.25623
494.20        69.45658
494.64        69.54514
495.08         69.7214
495.52        70.00066
495.96        70.09543
496.41         69.9556
496.85        70.35201
497.29         71.0358
497.73        69.85482
498.17        67.79219
498.61        67.97267
499.05        70.36108
499.49        70.63407
499.93        70.38234
500.37        70.09599
500.82        69.69989
501.26         69.8911
501.70        70.36732
502.14        70.68697
502.58        70.71625
503.02        70.29885
503.46        70.37397
503.90        69.78861
504.34        69.24122
504.78        68.91666
505.22        68.96023
505.66        69.24788
506.10        69.63422
506.54        69.81904
506.98        69.70592
507.42        69.52557
507.86        69.43544
508.30        68.94944
508.74        69.26702
509.18         69.3983
509.62        69.59376
510.06        69.68463
510.50        69.64225
510.94        69.50848
511.38         69.3485
511.82        69.28708
512.26        69.35154
512.70        69.50213
513.14        69.67892
513.58        69.78828
514.02        69.79824
514.46        69.73283
514.90        69.64246
515.34        69.58967
515.78        69.58166
516.22        69.66158
516.66        69.78269
517.10        69.69662
517.54        69.38805
517.98        69.51781
518.42        69.26559
518.86        69.34931
519.30        69.51635
519.74        69.80251
520.18        70.11994
520.62        70.31969
521.06        70.37164
521.50        70.31271
521.93         70.1879
522.37        70.07126
522.81        69.99729
523.25         69.9473
523.69        69.92491
524.13        69.93686
524.57        69.97921
525.01        70.05197
525.45        70.13818
525.89         70.2058
526.32        70.23534
526.76        70.23035
527.20        70.18613
527.64        70.11719
528.08        70.04737
528.52        69.91862
528.96        69.72015
529.40        69.63227
529.83        69.69856
530.27        69.16157
530.71        69.40041
531.15        69.33413
531.59        69.37475
532.03        69.47436
532.46        69.64727
532.90        69.88308
533.34         70.1459
533.78        70.42153
534.22        70.64634
534.66        70.73708
535.09        70.67019
535.53        70.50046
535.97        70.26469
536.41        70.04497
536.85        69.87906
537.28        69.75629
537.72        69.68507
538.16        69.68276
538.60        69.73447
539.04        69.80473
539.47        69.87103
539.91        69.99354
540.35        70.06467
540.79        70.17258
541.22        69.73021
541.66        69.60786
542.10        69.63686
542.54        69.62994
542.97        69.59267
543.41        69.65614
543.85        69.81226
544.29         70.0441
544.72        70.22509
545.16        70.18571
545.60        69.89574
546.04        69.40266
546.47        68.91692
546.91        68.80267
547.35        69.10612
547.79        69.70956
548.22        70.32076
548.66        70.50165
549.10        70.15828
549.53        69.42217
549.97        68.61309
550.41        68.18215
550.84        68.24255
551.28         68.6358
551.72         69.1824
552.15        69.57548
552.59        69.71088
553.03        69.69912
553.46        69.59834
553.90        69.48299
554.34        69.48531
554.77         69.4453
555.21        69.38923
555.65         69.3353
556.08        69.64217
556.52         69.1514
556.96        69.56031
557.39         69.4687
557.83        69.39687
558.27        69.41213
558.70        69.50735
559.14        69.55456
559.57        69.54928
560.01        69.60047
560.45        69.69852
560.88        69.86599
561.32        70.01927
561.75         69.8489
562.19        69.46724
562.63        69.07554
563.06         68.8091
563.50        68.95016
563.93        69.36627
564.37        69.53429
564.80        69.38614
565.24         69.2924
565.68        69.27385
566.11         69.1263
566.55        69.11851
566.98        69.01784
567.42        68.96424
567.85        69.21483
568.29        69.79881
568.72        69.97592
569.16        69.93516
569.60         70.3522
570.03        70.86434
570.47         70.8054
570.90        70.54774
571.34        68.72482
571.77        69.59949
572.21        70.10179
572.64        69.51167
573.08        68.42655
573.51         65.5919
573.95        68.06905
574.38        72.32569
574.82        70.13859
