SpectraSmart Spectrum 2.9.0.0
--------- Device Information -----------
Spectrum Name :  反射率_0
Saving Time :  2024/04/26 01:29:13
Spectro-Module Model Name : SE2030-DUVN
Spectro-Module Serial Number : OS361AC55029948
Wavelength Start : 200
Wavelength End : 1025
Wavelength Unit : Wavelength(nm)
Spectrum Unit : Reflectance(%)
-----------Spectrum Setting ------------
Integration Time : 20ms
Average : 10
Boxcar : 0
Background removal :  enabled
linearity correction :  enabled
SC :  disabled
Intensity correction :  disabled
DWT denoise :  enabled
savitzky-golay :  disabled
FFT :  disabled
Running average :  disabled
Kalman :  disabled
High pass :  disabled
---------------BEGIN--------------------
Wavelength(nm)             Reflectance(%)
200.29               0
200.75        84.13913
201.21        77.30087
201.67         69.2662
202.13        64.22665
202.58        62.75755
203.04        63.99459
203.50        66.57317
203.96        68.18264
204.42        68.18345
204.88        67.40571
205.34        66.88702
205.80        67.88175
206.26        71.19242
206.72        78.48756
207.18        92.58187
207.64        105.1939
208.10        97.52801
208.55        80.89343
209.01        69.93703
209.47        65.50697
209.93        64.64613
210.39        65.94469
210.85        67.58345
211.31        66.16852
211.77         61.0259
212.23        53.61688
212.69        47.12142
213.14         46.4422
213.60        52.10103
214.06        62.65057
214.52        74.38396
214.98        81.64242
215.44        82.86547
215.90        79.69971
216.36        74.59309
216.81         70.9375
217.27        69.88474
217.73        70.36125
218.19         70.6062
218.65        68.19205
219.11        62.12953
219.57        51.68649
220.02        38.35037
220.48        30.83516
220.94        33.83767
221.40        44.88698
221.86        55.30642
222.32        56.11311
222.77        48.44494
223.23        37.44305
223.69        27.96067
224.15        24.86245
224.61        27.65872
225.06        33.83009
225.52        40.30118
225.98        43.38097
226.44        42.31504
226.90        38.73936
227.36        34.39795
227.81        31.53836
228.27        31.02306
228.73        31.90669
229.19        33.55969
229.65        35.10035
230.10        36.18339
230.56        37.04037
231.02        37.83861
231.48        38.73331
231.93        39.71161
232.39        40.64528
232.85        41.34571
233.31        41.58672
233.77        41.30729
234.22        40.57558
234.68        39.55305
235.14         38.5145
235.60        37.68201
236.05        37.14052
236.51         36.8571
236.97        36.67322
237.43        36.58643
237.88        36.70165
238.34         37.3418
238.80         39.1885
239.26        42.31976
239.71        46.43681
240.17        50.44493
240.63        53.04219
241.08        53.92958
241.54        53.35906
242.00        52.02532
242.46        50.84346
242.91        50.07226
243.37        49.04148
243.83        49.06644
244.28        63.09055
244.74         104.389
245.20         114.588
245.66        107.4827
246.11        103.5405
246.57        101.7818
247.03        98.34859
247.48        80.27018
247.94        55.76178
248.40        66.55542
248.85        73.84342
249.31        77.83636
249.77        80.19643
250.22        82.14579
250.68        84.57623
251.14        87.19907
251.59        87.16994
252.05        82.86587
252.51         76.2066
252.96        69.99835
253.42        66.90678
253.88        66.27834
254.33        67.13114
254.79        69.46564
255.25        72.59159
255.70        75.69701
256.16        78.74121
256.62        80.43235
257.07        79.46898
257.53         76.5626
257.99        72.11648
258.44        67.54655
258.90        65.37991
259.35        64.81582
259.81        64.99573
260.27        64.32056
260.72        61.23586
261.18        56.46867
261.63        50.76743
262.09        45.61931
262.55        42.11765
263.00        40.23029
263.46        39.46386
263.91        38.98809
264.37        38.15016
264.83        36.77143
265.28        34.97552
265.74        33.28141
266.19        32.23032
266.65        31.97299
267.11        32.17065
267.56        32.30527
268.02        31.74499
268.47         30.4048
268.93        28.51997
269.38        26.48301
269.84        25.20076
270.30        24.91585
270.75        25.37012
271.21        26.08426
271.66        26.34278
272.12        25.94193
272.57        25.09602
273.03         24.1375
273.48        23.49108
273.94        23.28146
274.39         23.3192
274.85        23.36696
275.31        23.08931
275.76        22.42234
276.22        21.52849
276.67        20.62302
277.13        20.08241
277.58        19.92422
278.04        20.03229
278.49        20.15266
278.95        19.97294
279.40        19.42817
279.86         18.6928
280.31        17.91999
280.77        17.43391
281.22        17.26073
281.68        17.29035
282.13        17.41262
282.59        17.49773
283.04        17.49842
283.50        17.49075
283.95        17.42509
284.41        17.22996
284.86        16.91613
285.32        16.51711
285.77        16.18982
286.22        16.22875
286.68        16.64001
287.13        17.29534
287.59        17.94673
288.04        18.22305
288.50        18.07104
288.95        17.60859
289.41        17.03793
289.86        16.56876
290.32        16.32532
290.77        16.23465
291.22        16.30643
291.68         16.5194
292.13        16.86125
292.59        17.34498
293.04        17.94537
293.50         18.6086
293.95         19.2995
294.40        19.99567
294.86         20.6739
295.31        21.32213
295.77        21.94906
296.22        22.56485
296.68        23.19068
297.13        23.82889
297.58        24.50615
298.04        25.24647
298.49        26.08242
298.95        27.10199
299.40        28.30338
299.85        29.64537
300.31        31.05682
300.76        32.42791
301.21        33.69244
301.67        34.89423
302.12        35.97773
302.58        36.94203
303.03        37.79043
303.48        38.54988
303.94        39.37854
304.39        40.47151
304.84         41.8624
305.30        43.48238
305.75            45.1
306.20        46.37038
306.66        47.24426
307.11        47.80239
307.57        48.28355
308.02        48.95383
308.47        49.92037
308.93        51.09191
309.38        52.33528
309.83        53.48323
310.29        54.46453
310.74         55.3074
311.19        56.05891
311.65         56.7897
312.10        57.51446
312.55        58.21478
313.00        58.82135
313.46        59.23548
313.91        59.43563
314.36        59.48307
314.82        59.53033
315.27        59.77077
315.72        60.27103
316.18        60.97561
316.63        61.76188
317.08        62.38871
317.53        62.78032
317.99        62.98538
318.44        63.13827
318.89        63.46572
319.35        64.00134
319.80        64.68842
320.25        65.33102
320.70        65.61203
321.16        65.46779
321.61        65.00928
322.06         64.4722
322.51        64.22158
322.97        64.33287
323.42        64.73106
323.87        65.22757
324.32        65.49554
324.78         65.4393
325.23        65.19207
325.68        64.89928
326.13        64.81269
326.59         64.9896
327.04        65.36726
327.49        65.84896
327.94        66.30034
328.39        66.66531
328.85        66.96713
329.30        67.25445
329.75        67.49241
330.20        67.69458
330.66        67.84509
331.11        68.02956
331.56        68.32914
332.01         68.7719
332.46        69.32587
332.92        69.93086
333.37        70.59596
333.82        71.23625
334.27        71.86044
334.72        72.37768
335.17        72.64857
335.63         72.6608
336.08        72.48706
336.53        72.29969
336.98        72.40905
337.43        72.89032
337.88        73.65847
338.34        74.54302
338.79        75.33287
339.24        75.91426
339.69        76.36194
340.14        76.70457
340.59        76.99092
341.05        77.25218
341.50        77.45314
341.95        77.65561
342.40        77.98248
342.85        78.45942
343.30        79.06701
343.75        79.70612
344.20        80.18573
344.66        80.45388
345.11        80.53747
345.56        80.52721
346.01        80.56599
346.46        80.69788
346.91        80.88755
347.36        81.07915
347.81        81.18758
348.26        81.20495
348.72        81.19278
349.17        81.19527
349.62        81.33345
350.07         81.6283
350.52        82.03001
350.97        82.46619
351.42        82.83371
351.87        83.10011
352.32        83.28967
352.77        83.41969
353.22         83.5218
353.67        83.60559
354.13        83.66407
354.58        83.67596
355.03         83.6658
355.48          83.632
355.93        83.57296
356.38        83.46738
356.83        83.27705
357.28        82.99945
357.73        82.65568
358.18        82.27502
358.63        81.90173
359.08        81.55502
359.53        81.22958
359.98        80.92358
360.43        80.63044
360.88        80.34047
361.33        80.04814
361.78        79.74699
362.23        79.42781
362.68        79.08865
363.13        78.73649
363.58        78.35639
364.03        77.92414
364.48         77.4436
364.93        76.92712
365.38        76.42223
365.83        76.00653
366.28        75.68781
366.73        75.42757
367.18        75.17922
367.63        74.86703
368.08        74.47367
368.53         74.0435
368.98        73.56612
369.43        73.01797
369.88        72.41158
370.33        71.74998
370.78        71.14188
371.23        70.77187
371.68        70.67117
372.13         70.7853
372.58        70.95341
373.03        70.89719
373.48         70.5499
373.93        70.00734
374.38        69.40868
374.83        68.96534
375.28         68.7356
375.72        68.63763
376.17        68.63479
376.62        68.64218
377.07        68.61027
377.52        68.54301
377.97        68.42103
378.42        68.21121
378.87        67.91429
379.32        67.55547
379.77        67.12405
380.22        66.60298
380.67        66.00559
381.11        65.34613
381.56        64.73463
382.01        64.35452
382.46        64.24768
382.91        64.37615
383.36        64.56664
383.81        64.53587
384.26        64.22169
384.71        63.69652
385.15        63.13712
385.60        62.87201
386.05        62.91675
386.50        63.15381
386.95        63.37422
387.40        63.23543
387.85        62.69963
388.29        61.91778
388.74        61.15934
389.19          60.568
389.64        60.17363
390.09        59.87283
390.54        59.71201
390.98        59.77304
391.43        60.03654
391.88         60.4609
392.33        60.79631
392.78        60.66714
393.23        60.07086
393.67        59.14271
394.12        58.27474
394.57        57.83629
395.02        57.90394
395.47        58.32976
395.91        58.97663
396.36        59.50684
396.81         59.7966
397.26        59.90433
397.71        59.82995
398.15        59.53075
398.60        59.12322
399.05        58.63354
399.50        58.14256
399.95        57.62391
400.39         57.3645
400.84        57.10358
401.29        56.93445
401.74         57.0492
402.18        57.38114
402.63        57.49842
403.08        57.44328
403.53        57.59541
403.97        57.94574
404.42        58.24442
404.87        58.38066
405.32         58.2444
405.76        57.81216
406.21         57.2883
406.66        56.80172
407.11        56.32159
407.55        56.06219
408.00        56.34763
408.45        57.05484
408.90        57.59147
409.34        57.70984
409.79        57.33838
410.24        56.70907
410.68        56.41734
411.13        56.55194
411.58        56.77148
412.03        57.01503
412.47        57.33253
412.92        57.63803
413.37        57.93615
413.81        58.16434
414.26        58.26676
414.71        58.22149
415.15        58.03344
415.60        57.78347
416.05        57.62642
416.49        57.60947
416.94        57.71934
417.39        57.84401
417.83        57.77459
418.28        57.49227
418.73        57.07646
419.17        56.72659
419.62        56.75934
420.07        57.19739
420.51        57.92635
420.96         58.7085
421.41        59.09944
421.85        58.96819
422.30         58.6554
422.74        58.27855
423.19        57.83353
423.64        57.49159
424.08        57.83727
424.53        58.71125
424.98         59.2384
425.42        59.29047
425.87        59.48164
426.31        59.85173
426.76        59.71967
427.21        59.65472
427.65        60.02684
428.10        60.85838
428.54        61.62474
428.99        62.27505
429.44        62.60247
429.88         62.6341
430.33        63.41988
430.77        64.35337
431.22         63.2694
431.66        60.78321
432.11        59.60722
432.56        59.96933
433.00        60.98486
433.45        62.51159
433.89        64.09259
434.34        64.36517
434.78        66.77223
435.23        62.96993
435.67        61.17765
436.12        63.89059
436.57        64.91669
437.01        65.27594
437.46        65.50876
437.90        65.85009
438.35        65.45332
438.79        66.05029
439.24         66.0583
439.68        66.00555
440.13         65.8793
440.57        65.94991
441.02        66.75961
441.46        68.02687
441.91        69.12614
442.35        69.63618
442.80        68.91168
443.24        67.45221
443.69        67.79848
444.13         69.6531
444.58        69.79346
445.02        68.37329
445.47        68.20643
445.91        69.22158
446.36        69.60287
446.80        69.28454
447.24        69.16365
447.69        69.31771
448.13        69.52035
448.58        69.78821
449.02        70.12337
449.47        70.47906
449.91        70.79842
450.36        71.05658
450.80        71.24847
451.25        71.36195
451.69        71.34902
452.13        71.23755
452.58        71.05253
453.02        70.87672
453.47        70.88538
453.91        71.08527
454.36        71.41008
454.80        71.75597
455.24        71.88026
455.69        71.72402
456.13        71.46924
456.58        71.23663
457.02        70.71473
457.46        70.20574
457.91        70.61581
458.35        71.67349
458.79         72.1488
459.24        71.97237
459.68        71.72797
460.13        71.50026
460.57        71.27425
461.01        71.17805
461.46        70.66134
461.90        70.22294
462.34        70.87353
462.79         70.4848
463.23        70.76306
463.68        70.98595
464.12        71.41014
464.56        71.86407
465.01        71.90149
465.45         71.5045
465.89        71.34045
466.34        71.29048
466.78        70.40386
467.22        69.18156
467.67        68.47056
468.11        69.64308
468.55        70.30009
468.99        70.52699
469.44        70.30184
469.88        69.82313
470.32        69.94925
470.77        70.56406
471.21        70.66972
471.65         70.2066
472.10        69.87487
472.54        69.77434
472.98         69.7253
473.42        69.73924
473.87        70.02071
474.31        70.38705
474.75         70.2765
475.20        69.81102
475.64        69.70245
476.08         69.9819
476.52        70.05223
476.97        69.89481
477.41         70.0259
477.85        70.42427
478.29        70.24352
478.74        70.34971
479.18        70.48785
479.62        69.59172
480.06        70.24671
480.50         70.5421
480.95        71.02531
481.39         71.2165
481.83        70.23231
482.27        70.39896
482.72        70.01074
483.16        68.59912
483.60        68.82771
484.04        70.29974
484.48        70.99413
484.93        71.28455
485.37        72.39311
485.81        72.82152
486.25        71.79259
486.69        97.49467
487.14        79.14457
487.58        49.10382
488.02        59.94821
488.46        68.66538
488.90        68.22431
489.34         69.7571
489.79        68.42962
490.23        70.62997
490.67        71.40953
491.11        70.46412
491.55        70.59152
491.99        71.29144
492.43        71.20319
492.88        70.37912
493.32        70.15252
493.76        70.10724
494.20        70.23622
494.64        70.32219
495.08        70.63245
495.52        71.09517
495.96        71.02373
496.41        70.47087
496.85        70.87634
497.29        71.94566
497.73        70.86407
498.17        68.64725
498.61        68.88278
499.05        71.56204
499.49         72.1489
499.93        72.15642
500.37         71.9178
500.82        71.37256
501.26        71.41746
501.70        71.80386
502.14        72.11184
502.58        72.19866
503.02         71.7983
503.46        71.81811
503.90        71.34659
504.34         70.8226
504.78        70.56883
505.22        70.64233
505.66        70.96728
506.10        71.39593
506.54        71.54259
506.98        71.29742
507.42        71.19794
507.86        70.98509
508.30        70.43076
508.74          70.881
509.18        71.15024
509.62        71.52338
510.06        71.67644
510.50        71.60113
510.94         71.5234
511.38        71.49144
511.82        71.45786
512.26        71.44683
512.70        71.52206
513.14        71.64323
513.58        71.70293
514.02        71.67818
514.46        71.59818
514.90        71.51343
515.34        71.48338
515.78        71.51154
516.22        71.63857
516.66        71.79613
517.10        71.71336
517.54        71.37074
517.98        71.39774
518.42        71.06799
518.86        71.12228
519.30        71.33418
519.74        71.71386
520.18         72.1368
520.62        72.39402
521.06        72.44139
521.50        72.34177
521.93        72.16205
522.37        72.01151
522.81         71.9391
523.25        71.91028
523.69        71.93916
524.13        72.05042
524.57        72.23457
525.01        72.48479
525.45        72.73768
525.89        72.88525
526.32        72.89177
526.76         72.7804
527.20        72.60184
527.64        72.46123
528.08        72.40597
528.52        72.35266
528.96         72.2428
529.40        72.18712
529.83        72.21481
530.27        71.56911
530.71        71.72217
531.15        71.62213
531.59        71.70789
532.03        71.90291
532.46        72.18382
532.90        72.47779
533.34        72.73232
533.78        72.95984
534.22        73.11626
534.66        73.14733
535.09        73.04028
535.53        72.83694
535.97         72.5874
536.41         72.3959
536.85        72.29715
537.28        72.27952
537.72        72.30783
538.16        72.31963
538.60        72.29542
539.04        72.24866
539.47        72.11318
539.91         72.1995
540.35         72.4063
540.79        72.41824
541.22        72.23779
541.66        72.16536
542.10        72.20355
542.54        72.16965
542.97        72.09887
543.41        72.15947
543.85        72.34642
544.29        72.62802
544.72        72.87273
545.16        72.90051
545.60        72.67257
546.04        72.26608
546.47        71.86461
546.91        71.73184
547.35        71.94288
547.79        72.51986
548.22        73.17716
548.66        73.40249
549.10        73.08704
549.53        72.35788
549.97        71.55494
550.41        71.17864
550.84        71.34177
551.28        71.85583
551.72        72.48804
552.15        72.86404
552.59        72.86911
553.03        72.64362
553.46        72.33121
553.90        72.16389
554.34        72.18987
554.77        72.46258
555.21        72.50011
555.65        72.70102
556.08        72.95286
556.52        72.36691
556.96        72.66634
557.39        72.51936
557.83        72.47559
558.27        72.45415
558.70        72.49752
559.14        72.66089
559.57        72.90522
560.01        73.20712
560.45        73.46446
560.88        73.56527
561.32        73.48894
561.75        73.15585
562.19        72.72959
562.63        72.37455
563.06        72.18378
563.50        72.30796
563.93        72.62639
564.37        72.80084
564.80        72.76382
565.24        72.72944
565.68        72.70087
566.11        72.65578
566.55         72.6609
566.98        72.58466
567.42        72.47764
567.85        72.75532
568.29        73.36374
568.72        73.34109
569.16        72.86267
569.60        73.61301
570.03        73.89048
570.47        73.87328
570.90        73.46609
571.34        71.89262
571.77        72.88861
572.21        73.01556
572.64        72.44374
573.08        71.75535
573.51        68.56311
573.95        71.26376
574.38        75.74703
574.82        73.53974
