SpectraSmart Spectrum 2.9.0.0
--------- Device Information -----------
Spectrum Name :  反射率_0
Saving Time :  2024/04/26 01:03:37
Spectro-Module Model Name : SE2030-DUVN
Spectro-Module Serial Number : OS361AC55029948
Wavelength Start : 200
Wavelength End : 1025
Wavelength Unit : Wavelength(nm)
Spectrum Unit : Reflectance(%)
-----------Spectrum Setting ------------
Integration Time : 20ms
Average : 10
Boxcar : 0
Background removal :  enabled
linearity correction :  enabled
SC :  disabled
Intensity correction :  disabled
DWT denoise :  enabled
savitzky-golay :  disabled
FFT :  disabled
Running average :  disabled
Kalman :  disabled
High pass :  disabled
---------------BEGIN--------------------
Wavelength(nm)             Reflectance(%)
200.29               0
200.75        88.07675
201.21        78.99319
201.67        69.52483
202.13        64.35629
202.58        63.85665
203.04         67.1402
203.50        72.02202
203.96        74.51318
204.42        73.72295
204.88        71.21344
205.34        68.76563
205.80         68.2408
206.26        70.32851
206.72        76.06006
207.18        87.93383
207.64        99.45725
208.10        94.34855
208.55        81.38412
209.01        72.56475
209.47        68.81423
209.93         67.8575
210.39        68.47202
210.85        69.41946
211.31        68.50703
211.77        65.33513
212.23        60.93307
212.69        57.41966
213.14        58.11452
213.60        63.20149
214.06        71.61605
214.52        80.75386
214.98        86.73157
215.44        88.35201
215.90        86.64217
216.36        83.09308
216.81         79.7332
217.27        77.58768
217.73        76.19562
218.19        74.49493
218.65        70.82421
219.11        64.32567
219.57        54.10597
220.02        41.38642
220.48        33.99716
220.94        36.28392
221.40        46.28481
221.86          56.102
222.32        57.44827
222.77        51.17805
223.23         41.8091
223.69        33.74079
224.15        31.47108
224.61        34.50075
225.06        40.50366
225.52        46.50637
225.98        48.88328
226.44        47.00183
226.90        42.60823
227.36         37.4826
227.81        33.92327
228.27        32.83231
228.73        33.19971
229.19        34.70774
229.65        36.88057
230.10        39.20148
230.56        41.61407
231.02        43.59851
231.48        44.52235
231.93        44.42384
232.39        43.53234
232.85        42.33961
233.31        41.67659
233.77        41.74115
234.22        42.32951
234.68        43.07463
235.14        43.17887
235.60         42.4477
236.05        41.24419
236.51        40.04518
236.97        39.42991
237.43        39.61813
237.88         40.6178
238.34        42.36708
238.80        44.56505
239.26        46.80874
239.71        49.03986
240.17         51.1213
240.63        53.44504
241.08        56.13209
241.54        58.88296
242.00        61.31291
242.46        63.14528
242.91        64.72705
243.37        66.24406
243.83        71.30273
244.28        100.4633
244.74        158.4621
245.20        157.3983
245.66        140.9366
246.11        134.5498
246.57        134.3378
247.03        138.4367
247.48        141.6771
247.94        98.66257
248.40        84.79546
248.85        85.29064
249.31        87.38812
249.77        89.35232
250.22        91.55159
250.68        94.81918
251.14        98.68999
251.59        99.07302
252.05        93.41171
252.51        84.51451
252.96        76.18851
253.42        71.84299
253.88        70.67927
254.33        71.20419
254.79        73.72907
255.25        77.92842
255.70        82.54398
256.16        87.19362
256.62        89.54949
257.07        87.25739
257.53        81.52567
257.99        73.58894
258.44        66.06993
258.90        62.83874
259.35        62.90275
259.81        64.50169
260.27         65.2615
260.72        62.94472
261.18        58.29167
261.63        52.35019
262.09        46.82889
262.55        43.04265
263.00        40.98836
263.46        40.08804
263.91        39.44048
264.37         38.3173
264.83        36.54789
265.28        34.31808
265.74        32.22919
266.19        30.95889
266.65        30.67671
267.11        30.96768
267.56        31.25172
268.02        30.83117
268.47        29.59928
268.93        27.80145
269.38        25.80099
269.84        24.45218
270.30        23.99595
270.75        24.20308
271.21        24.64376
271.66        24.67804
272.12        24.13101
272.57        23.20758
273.03        22.25107
273.48         21.6977
273.94         21.6541
274.39        21.91425
274.85        22.18712
275.31        22.05962
275.76        21.45423
276.22        20.55994
276.67        19.62135
277.13        19.06002
277.58        18.91249
278.04        19.04483
278.49        19.21803
278.95         19.1412
279.40        18.73913
279.86         18.1669
280.31        17.53507
280.77        17.09931
281.22        16.87843
281.68        16.79764
282.13        16.77466
282.59         16.7163
283.04        16.59727
283.50        16.48739
283.95        16.36791
284.41        16.21212
284.86        16.02678
285.32        15.81958
285.77        15.69195
286.22        15.85223
286.68        16.28694
287.13        16.89562
287.59        17.45668
288.04        17.64395
288.50        17.42183
288.95         16.8949
289.41        16.28025
289.86        15.81082
290.32        15.60984
290.77        15.60406
291.22         15.7672
291.68        16.01872
292.13        16.34095
292.59        16.76851
293.04        17.32458
293.50        18.03254
293.95        18.87245
294.40        19.79186
294.86        20.72696
295.31        21.60492
295.77        22.41636
296.22        23.19067
296.68         23.9612
297.13        24.74916
297.58        25.59051
298.04        26.50375
298.49        27.53272
298.95        28.78521
299.40        30.26973
299.85        31.95493
300.31        33.75726
300.76        35.53617
301.21        37.21734
301.67        38.84925
302.12        40.40395
302.58        41.93589
303.03        43.44826
303.48        44.94478
303.94        46.53534
304.39        48.33555
304.84        50.36452
305.30        52.58188
305.75         54.7849
306.20        56.67712
306.66        58.22276
307.11         59.4726
307.57        60.66152
308.02        62.04008
308.47        63.71679
308.93        65.60468
309.38        67.55642
309.83        69.38562
310.29        71.01299
310.74        72.46089
311.19        73.78308
311.65         75.0657
312.10        76.32952
312.55        77.55917
313.00        78.68302
313.46        79.59488
313.91        80.26232
314.36        80.74131
314.82        81.19205
315.27        81.81094
315.72        82.67635
316.18        83.73104
316.63        84.84495
317.08        85.75401
317.53        86.37997
317.99        86.78612
318.44         87.1283
318.89        87.67159
319.35        88.45603
319.80        89.41985
320.25        90.35405
320.70        90.91661
321.16        91.02882
321.61        90.80527
322.06        90.46483
322.51        90.35538
322.97        90.55023
323.42         90.9889
323.87        91.51455
324.32        91.85702
324.78        91.93016
325.23        91.86207
325.68        91.75605
326.13        91.80295
326.59        92.03593
327.04           92.42
327.49        92.88126
327.94        93.33286
328.39        93.73689
328.85        94.10058
329.30         94.4754
329.75        94.78172
330.20        95.03149
330.66        95.22849
331.11        95.50228
331.56        95.98861
332.01        96.72982
332.46        97.66478
332.92        98.68501
333.37         99.7786
333.82        100.8021
334.27        101.7646
334.72        102.5304
335.17        102.8971
335.63        102.8511
336.08         102.502
336.53        102.1073
336.98        102.1298
337.43        102.6822
337.88        103.6356
338.34        104.7594
338.79        105.7548
339.24        106.4635
339.69        106.9976
340.14        107.3535
340.59        107.5316
341.05        107.5826
341.50        107.4819
341.95        107.4059
342.40        107.6527
342.85        108.2727
343.30        109.1954
343.75         110.189
344.20        110.8288
344.66        111.0046
345.11        110.8164
345.56        110.4652
346.01         110.264
346.46        110.3056
346.91        110.4983
347.36        110.7435
347.81        110.8921
348.26        110.9077
348.72        110.8664
349.17        110.8102
349.62        110.8486
350.07        110.9942
350.52        111.1832
350.97        111.3507
351.42        111.4077
351.87        111.3335
352.32        111.1754
352.77         110.938
353.22        110.6286
353.67        110.2694
354.13        109.8671
354.58        109.4832
355.03        109.2768
355.48         109.254
355.93        109.3577
356.38        109.4175
356.83        109.1626
357.28        108.5347
357.73        107.6209
358.18        106.5824
358.63         105.676
359.08        104.9869
359.53        104.4615
359.98        104.0076
360.43        103.4756
360.88        102.8184
361.33        102.0682
361.78        101.3229
362.23        100.7343
362.68         100.328
363.13        100.0576
363.58        99.74322
364.03        99.10798
364.48         98.1116
364.93         96.8465
365.38        95.56692
365.83         94.6842
366.28        94.28169
366.73        94.21514
367.18        94.23303
367.63        93.92377
368.08        93.18378
368.53        92.17226
368.98        91.03931
369.43         90.0002
369.88        89.13402
370.33        88.36829
370.78        87.72256
371.23        87.24197
371.68        86.91442
372.13         86.7333
372.58        86.60856
373.03        86.37156
373.48        85.98188
373.93        85.49019
374.38        84.94929
374.83        84.44737
375.28        84.01039
375.72        83.58679
376.17        83.21814
376.62        82.95151
377.07        82.77201
377.52        82.65029
377.97        82.47974
378.42        82.08839
378.87        81.46204
379.32        80.69094
379.77        79.87171
380.22        79.13551
380.67        78.51596
381.11        77.96542
381.56        77.50842
382.01         77.1909
382.46        77.01283
382.91        76.98333
383.36        76.95938
383.81        76.71094
384.26        76.20039
384.71        75.47536
385.15        74.73833
385.60        74.36856
386.05        74.37405
386.50        74.63144
386.95         74.8591
387.40        74.59267
387.85        73.78714
388.29         72.6432
388.74        71.55462
389.19        70.77402
389.64        70.35168
390.09        70.16171
390.54        70.16691
390.98        70.30679
391.43        70.50793
391.88        70.74671
392.33        70.89963
392.78        70.69859
393.23        70.13865
393.67        69.52492
394.12        69.02904
394.57        68.17717
395.02        67.26349
395.47        67.39319
395.91        68.44823
396.36        69.03539
396.81        69.00141
397.26        69.06223
397.71        69.20881
398.15        69.02047
398.60         68.5854
399.05        68.12194
399.50        67.67966
399.95        66.90331
400.39        66.23705
400.84        65.99899
401.29        66.19621
401.74        66.20589
402.18        65.98582
402.63        65.82512
403.08        65.84519
403.53        66.06394
403.97        66.47462
404.42        67.02359
404.87        67.47427
405.32        67.43852
405.76        66.86147
406.21        65.94913
406.66        64.97831
407.11        64.42777
407.55        64.42387
408.00        64.58942
408.45        64.84607
408.90        65.54121
409.34        66.30464
409.79         66.0019
410.24        64.91803
410.68         64.4557
411.13        64.72124
411.58        64.93834
412.03         65.0355
412.47        65.25309
412.92        65.51218
413.37        65.78192
413.81        65.97887
414.26        66.00986
414.71        65.84647
415.15        65.51464
415.60        65.13365
416.05        64.91106
416.49        64.90773
416.94        65.09523
417.39        65.31503
417.83        65.27895
418.28        64.94661
418.73        64.41686
419.17         63.9422
419.62         63.9248
420.07        64.40018
420.51        65.22998
420.96        66.11342
421.41        66.50591
421.85        66.25896
422.30        65.75621
422.74        65.18577
423.19         64.6675
423.64        64.37804
424.08        64.83054
424.53        65.81327
424.98        66.42218
425.42        66.50484
425.87        66.63763
426.31         66.8704
426.76        66.75456
427.21        66.50622
427.65        66.87291
428.10        67.73856
428.54        68.52258
428.99         69.1583
429.44        69.39787
429.88        69.32077
430.33        70.17959
430.77        71.29462
431.22        70.19779
431.66        67.47111
432.11        66.07299
432.56        66.30949
433.00        66.95588
433.45        67.93475
433.89        69.93443
434.34        71.46404
434.78        73.09725
435.23        68.88292
435.67        67.30498
436.12        69.64353
436.57        70.92076
437.01        71.52688
437.46        71.78027
437.90        71.82086
438.35        71.65552
438.79        71.86876
439.24        71.76397
439.68        71.55573
440.13        71.14604
440.57        70.90794
441.02        71.88882
441.46        73.68228
441.91        74.82863
442.35        74.97112
442.80         74.1683
443.24        72.89514
443.69        73.36078
444.13        75.21243
444.58        75.14288
445.02        73.40532
445.47        73.24347
445.91         74.5247
446.36        74.90413
446.80        74.28307
447.24        74.06705
447.69        74.03002
448.13        74.20041
448.58        74.56549
449.02         75.0763
449.47        75.62567
449.91         76.0317
450.36        76.24271
450.80        76.28364
451.25        76.20667
451.69        76.06694
452.13        75.92105
452.58        75.76431
453.02         75.6402
453.47        75.66207
453.91        75.81581
454.36        76.07558
454.80        76.37492
455.24        76.42625
455.69        76.18646
456.13        76.03625
456.58        76.05975
457.02        75.27132
457.46        74.73649
457.91        75.05891
458.35        76.16132
458.79         76.5802
459.24        76.27154
459.68        75.87621
460.13        75.49091
460.57         75.2506
461.01        75.32818
461.46        74.42535
461.90        74.40995
462.34        74.90975
462.79        74.54037
463.23        74.75111
463.68        75.34769
464.12        75.79647
464.56        76.05721
465.01        75.96859
465.45         75.5351
465.89        75.31116
466.34        75.19944
466.78        74.32378
467.22        73.21096
467.67        72.60836
468.11        74.14709
468.55        74.88882
468.99         74.9922
469.44        74.64899
469.88         74.0896
470.32         74.0867
470.77        74.54833
471.21        74.55478
471.65        74.06282
472.10        73.77177
472.54        73.76221
472.98        73.79781
473.42        73.87112
473.87        74.21696
474.31        74.62658
474.75        74.47809
475.20        73.90092
475.64        73.66225
476.08        73.85419
476.52        73.85984
476.97        73.67008
477.41        73.93407
477.85        74.59251
478.29        74.03537
478.74        74.44931
479.18        74.02801
479.62        73.27348
480.06        73.81577
480.50        73.98364
480.95        74.48653
481.39        74.86827
481.83        73.75601
482.27        73.62838
482.72        74.20845
483.16        72.29277
483.60        72.51337
484.04        74.30826
484.48        74.70562
484.93        74.33003
485.37          76.201
485.81        76.53808
486.25        75.13721
486.69        101.6153
487.14        82.04762
487.58        51.06739
488.02        63.36317
488.46        72.53761
488.90        71.70059
489.34        73.21419
489.79        72.00794
490.23        74.49736
490.67        75.33566
491.11        74.02834
491.55        73.89275
491.99        74.47397
492.43        74.32195
492.88         73.5228
493.32         73.4862
493.76        73.66862
494.20        73.91349
494.64        73.95746
495.08        74.01581
495.52         74.1661
495.96        74.14639
496.41        73.94749
496.85        74.55153
497.29        75.58752
497.73        74.32738
498.17        71.88866
498.61        72.07327
499.05        74.87744
499.49        75.44292
499.93        75.35458
500.37         75.0751
500.82        74.51273
501.26        74.52057
501.70        74.86018
502.14        75.08797
502.58        75.02258
503.02        74.86259
503.46        74.60022
503.90        74.09352
504.34         73.5472
504.78        73.35327
505.22        73.56525
505.66        74.09777
506.10        74.74966
506.54        75.00463
506.98        74.72318
507.42        74.52601
507.86        74.13539
508.30        73.43833
508.74        73.85297
509.18         74.0892
509.62        74.44397
510.06        74.65798
510.50        74.67947
510.94        74.56957
511.38        74.40508
511.82        74.33601
512.26        74.39745
512.70        74.53416
513.14        74.69321
513.58        74.79784
514.02         74.8197
514.46        74.78583
514.90        74.72741
515.34        74.67525
515.78        74.63379
516.22        74.64485
516.66        74.69449
517.10        74.61578
517.54        74.40438
517.98        74.60135
518.42        74.49017
518.86        74.61479
519.30        74.75285
519.74        74.96278
520.18        75.20258
520.62        75.36096
521.06        75.44211
521.50        75.54585
521.93        75.65215
522.37        75.65276
522.81        75.55463
523.25        75.41908
523.69         75.3111
524.13        75.30783
524.57        75.42784
525.01        75.65054
525.45        75.90556
525.89        76.07638
526.32         76.1204
526.76        76.06139
527.20        75.95045
527.64        75.89186
528.08        75.92416
528.52        75.94918
528.96        75.88036
529.40        75.80183
529.83        75.74184
530.27        74.92194
530.71        74.91663
531.15        74.67757
531.59        74.68133
532.03        74.83581
532.46        75.11697
532.90        75.44615
533.34        75.76054
533.78        76.07101
534.22        76.30933
534.66        76.38483
535.09        76.27728
535.53        76.03676
535.97        75.73289
536.41        75.50698
536.85        75.40504
537.28        75.40078
537.72        75.44793
538.16        75.47898
538.60        75.47337
539.04        75.39727
539.47        75.27929
539.91        75.36335
540.35        75.57188
540.79        75.56548
541.22        75.36443
541.66        75.30981
542.10        75.40793
542.54         75.4641
542.97        75.46661
543.41          75.535
543.85        75.65611
544.29        75.75803
544.72        75.78716
545.16        75.80923
545.60        75.74422
546.04         75.3698
546.47        74.84887
546.91        74.62791
547.35        74.80981
547.79        75.33994
548.22         75.9445
548.66        76.22308
549.10        76.01083
549.53        75.20097
549.97        74.18736
550.41        73.75531
550.84         74.0339
551.28         74.6744
551.72        75.40195
552.15        75.84456
552.59        75.87624
553.03        75.62128
553.46        75.24046
553.90        75.05013
554.34        75.11672
554.77        75.25836
555.21        75.37695
555.65        75.54039
556.08        75.74486
556.52        75.12939
556.96        75.47865
557.39        75.23484
557.83        75.04107
558.27        75.17392
558.70        75.57764
559.14        75.84693
559.57        75.90558
560.01        75.95589
560.45        75.99596
560.88        75.99534
561.32         75.9459
561.75        75.71748
562.19        75.40074
562.63        75.00769
563.06        74.65842
563.50        74.72066
563.93        75.07948
564.37        75.24294
564.80         75.1431
565.24        75.08889
565.68        75.09995
566.11        75.09747
566.55        75.13847
566.98        75.20298
567.42        75.29833
567.85        75.47672
568.29         75.7567
568.72        75.81064
569.16        75.81512
569.60        76.26122
570.03          76.684
570.47        76.57782
570.90        76.24757
571.34        74.41638
571.77        74.88129
572.21        75.43445
572.64        75.05599
573.08        73.98654
573.51        70.60646
573.95        73.17144
574.38         77.7928
574.82         75.6189
