SpectraSmart Spectrum 2.9.0.0
--------- Device Information -----------
Spectrum Name :  反射率_0
Saving Time :  2024/04/26 01:42:39
Spectro-Module Model Name : SE2030-DUVN
Spectro-Module Serial Number : OS361AC55029948
Wavelength Start : 200
Wavelength End : 1025
Wavelength Unit : Wavelength(nm)
Spectrum Unit : Reflectance(%)
-----------Spectrum Setting ------------
Integration Time : 20ms
Average : 10
Boxcar : 0
Background removal :  enabled
linearity correction :  enabled
SC :  disabled
Intensity correction :  disabled
DWT denoise :  enabled
savitzky-golay :  disabled
FFT :  disabled
Running average :  disabled
Kalman :  disabled
High pass :  disabled
---------------BEGIN--------------------
Wavelength(nm)             Reflectance(%)
200.29               0
200.75        109.8682
201.21        95.52853
201.67        79.70441
202.13        71.25716
202.58        71.17447
203.04        77.12479
203.50        85.63799
203.96        90.51962
204.42        90.17404
204.88        87.14127
205.34        84.01192
205.80        83.41884
206.26         86.4129
206.72        94.39905
207.18        110.8407
207.64        126.9529
208.10        120.1977
208.55        102.2623
209.01         90.2182
209.47        85.34394
209.93        84.43923
210.39        85.73625
210.85        87.27729
211.31        85.47007
211.77         79.6724
212.23        71.66286
212.69        64.58294
213.14        63.22472
213.60        68.11807
214.06        77.69169
214.52         88.9586
214.98        97.32861
215.44        101.1419
215.90         101.591
216.36        99.50668
216.81        95.93352
217.27         92.1565
217.73        88.25829
218.19         84.3492
218.65        80.33054
219.11        75.81443
219.57        70.04485
220.02        64.14162
220.48        63.26233
220.94        69.09451
221.40        79.55899
221.86        87.79945
222.32        87.27798
222.77        79.46722
223.23        68.88209
223.69        59.88461
224.15         57.0113
224.61        59.79239
225.06        65.93173
225.52        72.69351
225.98        76.65258
226.44        77.04686
226.90        75.31265
227.36        72.76118
227.81        71.07942
228.27        71.01054
228.73        71.62389
229.19        72.64685
229.65        73.76132
230.10        74.66685
230.56        75.61459
231.02        76.27169
231.48        76.21193
231.93        75.46838
232.39        74.27959
232.85        73.08096
233.31        72.65705
233.77        73.16409
234.22        74.40472
234.68        75.90044
235.14        76.69218
235.60        76.46244
236.05        75.52266
236.51        74.33872
236.97        73.53642
237.43        73.28443
237.88        73.48868
238.34        73.92822
238.80        74.48383
239.26        74.99152
239.71        75.75525
240.17        76.35222
240.63        76.62038
241.08        76.71732
241.54        76.65998
242.00        76.98643
242.46        78.64281
242.91        82.95621
243.37        92.80883
243.83        121.5786
244.28        208.7952
244.74        296.0228
245.20        232.7292
245.66        181.8028
246.11        167.4236
246.57        173.0506
247.03        204.3168
247.48        297.1367
247.94        236.6378
248.40        133.7873
248.85        103.8709
249.31        95.82487
249.77        95.86705
250.22        100.6378
250.68        110.5599
251.14        125.2783
251.59        135.1241
252.05        130.4769
252.51        115.8141
252.96        100.3939
253.42        93.14068
253.88         93.4669
254.33        97.92638
254.79        104.9962
255.25        111.8441
255.70        116.8697
256.16          121.16
256.62        123.4832
257.07        122.4535
257.53        119.2183
257.99        114.1037
258.44        108.7489
258.90        106.3167
259.35        105.6667
259.81        105.8717
260.27        105.0489
260.72        101.3596
261.18        95.80154
261.63        89.13219
262.09        82.92755
262.55        78.12504
263.00        74.73132
263.46        72.46692
263.91        70.66176
264.37        69.08259
264.83        67.38017
265.28        65.50991
265.74        63.61879
266.19        61.60006
266.65        59.76761
267.11        58.12372
267.56        56.59327
268.02        55.09761
268.47        53.48571
268.93        51.79845
269.38        50.14337
269.84         48.9392
270.30        48.28632
270.75        48.08215
271.21        48.04124
271.66        47.72021
272.12        46.99928
272.57        45.97126
273.03        44.89939
273.48        44.08832
273.94        43.63924
274.39        43.39235
274.85        43.14544
275.31        42.56488
275.76        41.59465
276.22        40.42126
276.67        39.24421
277.13        38.47223
277.58        38.10554
278.04         38.0395
278.49        38.02126
278.95        37.79965
279.40        37.26789
279.86        36.58793
280.31        35.81207
280.77        35.16118
281.22        34.63807
281.68        34.21672
282.13        33.84995
282.59        33.54037
283.04        33.25473
283.50        33.04942
283.95        32.85286
284.41        32.58805
284.86        32.23668
285.32         31.8411
285.77        31.50805
286.22        31.47607
286.68        31.74518
287.13        32.18906
287.59        32.60566
288.04        32.67117
288.50        32.35928
288.95        31.75928
289.41        31.07085
289.86        30.46836
290.32        30.08475
290.77        29.85811
291.22        29.81099
291.68         29.9306
292.13        30.21072
292.59        30.67659
293.04        31.31819
293.50        32.11407
293.95        33.02529
294.40        34.00903
294.86        35.02956
295.31        36.05079
295.77        37.06997
296.22        38.09917
296.68        39.12324
297.13        40.08672
297.58        41.00979
298.04        41.93744
298.49        42.97051
298.95        44.31923
299.40        46.00246
299.85        47.94518
300.31        50.00454
300.76        51.94006
301.21        53.65024
301.67        55.23292
302.12        56.66495
302.58        58.03588
303.03        59.36099
303.48        60.65251
303.94        62.07063
304.39        63.79512
304.84        65.85116
305.30        68.16462
305.75        70.46436
306.20        72.36083
306.66        73.79234
307.11        74.82579
307.57        75.72164
308.02        76.74057
308.47        78.02209
308.93        79.49515
309.38        81.03906
309.83        82.52208
310.29        83.88575
310.74        85.13469
311.19        86.33006
311.65        87.55847
312.10         88.8189
312.55        90.08682
313.00        91.22298
313.46        92.01881
313.91        92.42348
314.36         92.5234
314.82        92.56391
315.27        92.86253
315.72        93.53395
316.18        94.49393
316.63        95.55615
317.08        96.36037
317.53        96.80276
317.99        96.97188
318.44        97.08725
318.89        97.51147
319.35        98.29763
319.80        99.35461
320.25        100.3764
320.70        100.8644
321.16        100.7125
321.61        100.0925
322.06        99.34666
322.51          99.011
322.97        99.19684
323.42        99.78663
323.87        100.5237
324.32        100.9651
324.78        100.9698
325.23        100.7261
325.68         100.391
326.13        100.2489
326.59        100.3595
327.04        100.6442
327.49        101.0272
327.94        101.4275
328.39        101.7973
328.85        102.1574
329.30        102.4981
329.75        102.6138
330.20        102.5104
330.66         102.241
331.11        102.0763
331.56        102.3733
332.01        103.2256
332.46        104.5049
332.92        105.9808
333.37        107.4287
333.82        108.6023
334.27        109.5523
334.72        110.1687
335.17          110.31
335.63        110.0048
336.08        109.3549
336.53        108.6534
336.98         108.427
337.43        108.8073
337.88        109.6635
338.34        110.7604
338.79        111.7789
339.24        112.5426
339.69        113.1658
340.14        113.5977
340.59        113.7621
341.05        113.6984
341.50        113.4006
341.95        113.1133
342.40        113.2406
342.85        113.8487
343.30        114.8268
343.75         115.892
344.20        116.5299
344.66        116.6067
345.11        116.2642
345.56        115.7156
346.01        115.2887
346.46        115.0934
346.91        115.0294
347.36        115.0579
347.81        115.1231
348.26        115.1982
348.72        115.3376
349.17        115.4783
349.62        115.5497
350.07        115.5312
350.52        115.4177
350.97        115.2716
351.42        115.2046
351.87        115.2306
352.32        115.3144
352.77        115.3557
353.22        115.1978
353.67        114.8143
354.13        114.2746
354.58        113.6704
355.03        113.2081
355.48        112.9286
355.93        112.7645
356.38        112.6028
356.83         112.265
357.28        111.7029
357.73         110.977
358.18        110.1615
358.63        109.3702
359.08        108.6467
359.53        107.9665
359.98        107.2991
360.43        106.5982
360.88         105.846
361.33        105.0517
361.78         104.262
362.23        103.5472
362.68        102.9262
363.13        102.3937
363.58        101.8532
364.03        101.1513
364.48         100.266
364.93        99.23919
365.38        98.23541
365.83        97.52364
366.28        97.14455
366.73        96.99516
367.18        96.87152
367.63        96.44292
368.08        95.64182
368.53        94.60911
368.98         93.4925
369.43          92.506
369.88        91.72197
370.33        91.06588
370.78        90.55522
371.23        90.22524
371.68        90.05171
372.13        90.02438
372.58        90.01141
373.03        89.78106
373.48        89.28832
373.93        88.60857
374.38        87.87166
374.83        87.28299
375.28        86.89455
375.72        86.62411
376.17        86.44843
376.62         86.3045
377.07        86.14386
377.52        85.96643
377.97        85.70767
378.42        85.26508
378.87         84.6403
379.32        83.89328
379.77        83.08808
380.22        82.31239
380.67        81.58994
381.11        80.89277
381.56        80.26849
382.01        79.79713
382.46        79.49764
382.91         79.3799
383.36        79.29424
383.81        78.99884
384.26        78.45326
384.71        77.70505
385.15        76.97672
385.60        76.67877
386.05        76.81642
386.50        77.25513
386.95         77.6556
387.40        77.45384
387.85        76.59461
388.29        75.32024
388.74        74.10427
389.19        73.30363
389.64        72.97108
390.09        72.91521
390.54        73.07111
390.98        73.32753
391.43        73.59707
391.88        73.90442
392.33        74.03905
392.78        73.66193
393.23        72.80447
393.67        71.64694
394.12         70.6243
394.57        69.99844
395.02        69.91474
395.47        70.52091
395.91        71.58347
396.36        72.28877
396.81        72.43741
397.26        72.29962
397.71        71.99155
398.15        71.50509
398.60        70.99279
399.05        70.61247
399.50        70.30351
399.95        69.47575
400.39        68.61694
400.84        68.22857
401.29        68.39929
401.74        68.64035
402.18        68.80896
402.63        68.74833
403.08        68.56353
403.53        68.66746
403.97        69.06059
404.42        69.41828
404.87         69.5875
405.32        69.42937
405.76        68.90337
406.21        68.25421
406.66        67.62939
407.11        66.98524
407.55        66.54282
408.00        66.79887
408.45        67.59588
408.90        68.15221
409.34        68.18859
409.79        67.71766
410.24        66.99425
410.68        66.62464
411.13        66.70299
411.58        66.86269
412.03        67.04313
412.47        67.31312
412.92        67.58156
413.37        67.85397
413.81        68.04402
414.26        68.06407
414.71        67.88535
415.15        67.51998
415.60        67.08813
416.05        66.80762
416.49        66.73971
416.94        66.85342
417.39        66.98758
417.83        66.84737
418.28        66.40057
418.73        65.76426
419.17        65.19556
419.62        65.09909
420.07        65.50542
420.51        66.26347
420.96        67.10082
421.41        67.49419
421.85         67.2844
422.30        66.91803
422.74        66.48797
423.19        65.80605
423.64        65.12061
424.08        65.38188
424.53        66.39877
424.98        66.93673
425.42        66.84151
425.87        66.91086
426.31        67.19325
426.76         67.1049
427.21         66.8537
427.65        67.25378
428.10        68.14054
428.54        68.84764
428.99        69.30972
429.44        69.26232
429.88        68.89315
430.33        69.72267
430.77        71.01333
431.22         70.0156
431.66        67.28471
432.11        65.80611
432.56        65.92771
433.00        66.68465
433.45        67.92666
433.89         69.7642
434.34        70.79495
434.78        72.14401
435.23        68.30275
435.67        66.60065
436.12        69.06743
436.57        70.20783
437.01        70.61561
437.46        70.81379
437.90        71.00266
438.35        70.45017
438.79        70.93362
439.24        70.82687
439.68        70.68606
440.13        70.41645
440.57        70.32046
441.02        71.23734
441.46        72.75732
441.91        73.63606
442.35        73.59856
442.80        72.65214
443.24        71.29086
443.69        71.79188
444.13        73.75233
444.58        73.74146
445.02        71.98299
445.47        71.71199
445.91        72.84254
446.36        73.19336
446.80        72.69471
447.24        72.47215
447.69        72.60365
448.13        72.75755
448.58         72.9485
449.02        73.20965
449.47        73.50281
449.91          73.783
450.36        74.02654
450.80        74.21568
451.25        74.32568
451.69        74.29193
452.13        74.13662
452.58        73.89102
453.02        73.64274
453.47        73.57178
453.91         73.6917
454.36        73.95377
454.80        74.26182
455.24        74.35291
455.69        74.18661
456.13         73.9819
456.58        73.84348
457.02        73.36221
457.46        72.97884
457.91        73.17822
458.35        73.82824
458.79        74.04469
459.24        73.78559
459.68        73.49044
460.13        73.25314
460.57        72.91978
461.01        72.56815
461.46        72.24347
461.90        71.99713
462.34         71.9568
462.79        72.10062
463.23        72.36904
463.68        72.68467
464.12        72.98225
464.56         73.1927
465.01        73.39158
465.45        73.38969
465.89        73.13363
466.34        72.60906
466.78        71.54019
467.22         70.5043
467.67        69.98906
468.11        71.61172
468.55        72.33455
468.99        72.33378
469.44        71.98781
469.88        71.51663
470.32        71.49979
470.77        71.86894
471.21        71.87112
471.65        71.48049
472.10         71.3304
472.54        71.44633
472.98         71.5512
473.42        71.62464
473.87        71.83001
474.31        72.05287
474.75        71.99739
475.20        71.72541
475.64         71.5626
476.08        71.57247
476.52        71.47534
476.97        71.27081
477.41        71.32103
477.85        71.65945
478.29        71.21654
478.74        71.86138
479.18        71.73175
479.62        71.00977
480.06        71.61789
480.50        71.88067
480.95        72.25581
481.39        72.33598
481.83        71.35423
482.27        71.36634
482.72        71.75023
483.16        70.14435
483.60        70.57365
484.04        72.16775
484.48        72.38852
484.93        71.75896
485.37        73.83492
485.81        74.33498
486.25        73.25298
486.69        98.01786
487.14        79.49732
487.58        49.66889
488.02        61.57907
488.46        69.73508
488.90        69.30582
489.34        71.07329
489.79        70.42887
490.23        72.47228
490.67        73.39272
491.11        72.45543
491.55        72.40559
491.99        72.82983
492.43        72.63951
492.88        71.95277
493.32         71.9991
493.76        72.23579
494.20        72.54801
494.64        72.67899
495.08        72.79923
495.52        72.97334
495.96        73.06297
496.41        73.02187
496.85        73.46548
497.29        74.12758
497.73        73.00372
498.17         71.0835
498.61        71.22669
499.05        73.47774
499.49        74.02625
499.93        74.40417
500.37        74.16393
500.82        73.26223
501.26        73.30151
501.70        73.98646
502.14        74.22618
502.58        73.87478
503.02         73.6175
503.46         73.4682
503.90        73.05349
504.34        72.53515
504.78        72.32964
505.22        72.48075
505.66        72.90558
506.10        73.46252
506.54        73.70647
506.98         73.5091
507.42        73.52031
507.86        73.36026
508.30        72.66879
508.74        73.11214
509.18        73.20998
509.62        73.39677
510.06        73.49556
510.50        73.48508
510.94        73.39365
511.38          73.273
511.82        73.24064
512.26        73.31853
512.70        73.47027
513.14        73.63465
513.58        73.71871
514.02        73.69308
514.46        73.57946
514.90        73.44505
515.34        73.37971
515.78        73.39608
516.22        73.52706
516.66        73.69328
517.10        73.61394
517.54        73.26538
517.98        73.24665
518.42        72.89971
518.86        72.94749
519.30        73.18317
519.74        73.60493
520.18        74.07243
520.62        74.35372
521.06        74.39738
521.50        74.27157
521.93        74.05946
522.37        73.89668
522.81        73.83897
523.25        73.84574
523.69        73.90993
524.13         74.0238
524.57        74.17254
525.01        74.35844
525.45        74.54787
525.89        74.68056
526.32        74.72874
526.76        74.69893
527.20        74.60303
527.64        74.48532
528.08        74.38287
528.52        74.23453
528.96        74.01782
529.40        73.90456
529.83         73.9391
530.27        73.32394
530.71        73.54723
531.15        73.50267
531.59        73.62669
532.03         73.8479
532.46        74.13593
532.90        74.40452
533.34        74.60284
533.78        74.75101
534.22        74.82006
534.66        74.77883
535.09        74.62328
535.53        74.39293
535.97        74.13873
536.41        73.96606
536.85        73.90559
537.28        73.93551
537.72        74.00832
538.16        74.05583
538.60        74.05517
539.04        73.96875
539.47        73.82146
539.91         73.8498
540.35        73.98283
540.79        73.89853
541.22        73.62897
541.66        73.52412
542.10        73.59347
542.54         73.6406
542.97         73.6621
543.41        73.77042
543.85        73.94964
544.29        74.17222
544.72        74.34321
545.16        74.38023
545.60        74.24015
546.04        73.88422
546.47        73.48682
546.91        73.40016
547.35        73.66893
547.79        74.20625
548.22        74.74692
548.66        74.86386
549.10        74.49162
549.53        73.81387
549.97        73.14304
550.41        72.84822
550.84        73.01364
551.28        73.56173
551.72        74.28471
552.15        74.66979
552.59        74.57613
553.03        74.70891
553.46        74.18166
553.90          74.035
554.34        74.03632
554.77        74.05797
555.21         74.0398
555.65        74.15048
556.08        74.41785
556.52        73.88343
556.96        74.28857
557.39        74.23901
557.83        74.27593
558.27        74.32931
558.70        74.40929
559.14        74.53747
559.57        74.67776
560.01        74.77437
560.45         74.7951
560.88        74.85451
561.32        74.89722
561.75        74.55766
562.19        74.01181
562.63         73.6517
563.06        73.56717
563.50         73.7719
563.93        74.12949
564.37        74.34425
564.80        74.33958
565.24        74.30927
565.68        74.27533
566.11        74.22545
566.55        74.22313
566.98        74.20909
567.42        74.21496
567.85         74.3708
568.29         74.6813
568.72        74.73685
569.16        74.70511
569.60        75.08966
570.03        75.52132
570.47        75.34375
570.90        74.95364
571.34        73.14893
571.77        74.08463
572.21        74.39536
572.64        74.06808
573.08        72.61782
573.51        69.91798
573.95        72.23618
574.38        76.53526
574.82        74.82969
