SpectraSmart Spectrum 2.9.0.0
--------- Device Information -----------
Spectrum Name :  反射率_0
Saving Time :  2024/04/26 01:37:20
Spectro-Module Model Name : SE2030-DUVN
Spectro-Module Serial Number : OS361AC55029948
Wavelength Start : 200
Wavelength End : 1025
Wavelength Unit : Wavelength(nm)
Spectrum Unit : Reflectance(%)
-----------Spectrum Setting ------------
Integration Time : 20ms
Average : 10
Boxcar : 0
Background removal :  enabled
linearity correction :  enabled
SC :  disabled
Intensity correction :  disabled
DWT denoise :  enabled
savitzky-golay :  disabled
FFT :  disabled
Running average :  disabled
Kalman :  disabled
High pass :  disabled
---------------BEGIN--------------------
Wavelength(nm)             Reflectance(%)
200.29               0
200.75        92.78139
201.21        83.59662
201.67        73.33311
202.13        66.90342
202.58        64.89081
203.04        66.33906
203.50        69.52468
203.96        71.43259
204.42        71.23014
204.88        69.94209
205.34        68.86987
205.80        69.50291
206.26        72.67374
206.72        80.10004
207.18        94.47639
207.64         106.526
208.10        97.20353
208.55        79.24908
209.01        68.20102
209.47        64.93388
209.93        66.23179
210.39        70.67845
210.85        75.64635
211.31        75.59997
211.77        69.07347
212.23        58.27953
212.69        47.97786
213.14        45.45576
213.60        51.79868
214.06         64.8893
214.52        79.66509
214.98        88.31118
215.44        88.82384
215.90        83.69833
216.36        76.37521
216.81        71.65288
217.27        70.84986
217.73        72.15454
218.19        73.25429
218.65        71.06848
219.11        64.37379
219.57         52.6266
220.02        37.02508
220.48        26.19818
220.94        25.75617
221.40        34.02166
221.86        43.46915
222.32        45.82034
222.77        41.38991
223.23        34.21059
223.69         28.1516
224.15          27.163
224.61        30.78732
225.06        36.97663
225.52        42.87261
225.98        45.02475
226.44        42.88822
226.90        38.14319
227.36        32.76406
227.81        29.33236
228.27        28.76046
228.73        29.97903
229.19        32.29276
229.65        34.66211
230.10        36.54433
230.56        38.11304
231.02        39.30222
231.48        39.98996
231.93        40.23515
232.39        40.09351
232.85        39.65451
233.31        39.13387
233.77        38.59717
234.22        37.96639
234.68        37.38862
235.14        37.05493
235.60        37.03849
236.05        37.39163
236.51        37.81363
236.97        37.77869
237.43        37.20843
237.88        36.20614
238.34         35.2947
238.80        35.90002
239.26        38.66965
239.71        43.35256
240.17        48.76645
240.63        53.22036
241.08        56.11087
241.54         57.5378
242.00         58.3718
242.46        60.26154
242.91        64.73969
243.37        74.75756
243.83        102.2409
244.28        176.3304
244.74        233.2697
245.20        168.9854
245.66        126.1189
246.11        114.9904
246.57        120.8991
247.03        150.6779
247.48        248.3653
247.94        226.1077
248.40        127.8301
248.85        94.65774
249.31        83.77013
249.77        81.54131
250.22        83.80195
250.68         89.7482
251.14        98.72195
251.59        103.7361
252.05        98.69763
252.51        87.52444
252.96        76.20786
253.42        70.13751
253.88        68.72253
254.33        69.76041
254.79        73.18964
255.25        78.28036
255.70        83.67476
256.16        89.18429
256.62        92.62428
257.07        91.78872
257.53        87.74227
257.99        81.38401
258.44         75.0645
258.90        72.42884
259.35         72.4626
259.81        73.71048
260.27         73.8546
260.72        70.67834
261.18         65.0995
261.63        58.22849
262.09        51.98452
262.55        47.89175
263.00        45.88002
263.46         45.2183
263.91        44.84081
264.37        43.89692
264.83        42.18589
265.28        39.95119
265.74        37.77794
266.19        36.30206
266.65        35.74432
267.11        35.70994
267.56        35.71948
268.02        35.20859
268.47        34.05681
268.93        32.47814
269.38        30.71428
269.84        29.40258
270.30        28.72618
270.75        28.51006
271.21         28.4864
271.66          28.256
272.12        27.69525
272.57          26.947
273.03        26.18297
273.48        25.56992
273.94        25.18816
274.39        24.93876
274.85        24.75042
275.31        24.52477
275.76        24.21723
276.22        23.87037
276.67        23.51477
277.13         23.2762
277.58        23.11922
278.04        23.02678
278.49        22.86021
278.95         22.4774
279.40        21.84708
279.86        21.08498
280.31        20.29912
280.77        19.75488
281.22        19.46535
281.68        19.36863
282.13        19.35792
282.59        19.30157
283.04        19.16311
283.50        19.02211
283.95        18.87236
284.41        18.71503
284.86        18.56013
285.32        18.40559
285.77        18.33987
286.22        18.55684
286.68        19.03928
287.13         19.6888
287.59         20.2887
288.04        20.51582
288.50        20.33493
288.95        19.84017
289.41        19.24981
289.86        18.79299
290.32        18.59586
290.77        18.59034
291.22        18.74034
291.68        18.94903
292.13        19.19901
292.59        19.52992
293.04        20.00134
293.50        20.69534
293.95        21.59791
294.40         22.6378
294.86        23.69124
295.31         24.5909
295.77        25.30889
296.22        25.90033
296.68        26.46147
297.13        27.11842
297.58        27.93047
298.04        28.88007
298.49        29.94833
298.95        31.14712
299.40        32.46017
299.85        33.88808
300.31        35.38975
300.76        36.89503
301.21        38.34774
301.67        39.76505
302.12        41.09511
302.58        42.35897
303.03        43.54602
303.48        44.67791
303.94        45.85386
304.39        47.17103
304.84        48.65739
305.30        50.28275
305.75        51.89538
306.20        53.28059
306.66          54.417
307.11        55.33305
307.57        56.21004
308.02        57.21698
308.47        58.43974
308.93        59.82009
309.38        61.23972
309.83         62.5583
310.29        63.71748
310.74        64.73014
311.19        65.65617
311.65        66.58878
312.10        67.54606
312.55        68.51241
313.00        69.39546
313.46         70.0542
313.91          70.451
314.36        70.64868
314.82        70.83149
315.27        71.23833
315.72        71.94904
316.18        72.89539
316.63          73.907
317.08        74.66179
317.53        75.06787
317.99        75.19843
318.44        75.26382
318.89         75.6113
319.35         76.2999
319.80        77.24884
320.25        78.17287
320.70        78.60032
321.16        78.43389
321.61        77.83727
322.06        77.14993
322.51        76.90057
322.97        77.19708
323.42        77.90984
323.87        78.76341
324.32         79.2833
324.78        79.31842
325.23        79.05062
325.68        78.66003
326.13         78.4614
326.59        78.53879
327.04        78.81711
327.49        79.20984
327.94        79.60733
328.39        79.95865
328.85        80.28738
329.30        80.63593
329.75        80.92372
330.20        81.15432
330.66        81.32497
331.11        81.53563
331.56        81.88602
332.01         82.4151
332.46        83.08109
332.92        83.82767
333.37        84.70413
333.82        85.60987
334.27        86.53627
334.72        87.34246
335.17        87.80729
335.63        87.89294
336.08        87.69718
336.53        87.42397
336.98        87.44801
337.43        87.86746
337.88        88.57859
338.34        89.41531
338.79        90.18099
339.24        90.75791
339.69        91.23289
340.14        91.58925
340.59        91.79613
341.05         91.8784
341.50        91.82028
341.95        91.77268
342.40         91.9901
342.85        92.51708
343.30        93.29634
343.75        94.12233
344.20        94.62173
344.66        94.70696
345.11        94.47086
345.56        94.12437
346.01        93.99122
346.46        94.15378
346.91         94.5101
347.36        94.92368
347.81        95.18424
348.26        95.24416
348.72        95.20366
349.17        95.12415
349.62        95.15562
350.07        95.32684
350.52        95.55479
350.97         95.7954
351.42        95.99377
351.87        96.12206
352.32        96.21447
352.77        96.20526
353.22        95.98604
353.67        95.56581
354.13        94.99859
354.58        94.43331
355.03        94.16525
355.48        94.23741
355.93        94.54607
356.38        94.88734
356.83        94.93176
357.28        94.59251
357.73          93.978
358.18        93.20707
358.63        92.47101
359.08        91.84778
359.53        91.28661
359.98        90.78748
360.43        90.35345
360.88        89.96246
361.33        89.60858
361.78        89.25726
362.23        88.84045
362.68        88.34475
363.13         87.8035
363.58        87.19763
364.03        86.50073
364.48        85.73019
364.93        84.89562
365.38        84.12319
365.83        83.61684
366.28        83.39771
366.73        83.38754
367.18        83.40207
367.63        83.13767
368.08        82.52705
368.53        81.68565
368.98        80.74387
369.43        79.89734
369.88        79.21464
370.33        78.63561
370.78        78.17428
371.23        77.85732
371.68         77.6689
372.13        77.60688
372.58        77.58077
373.03         77.4251
373.48        77.10387
373.93        76.66556
374.38        76.18568
374.83         75.7888
375.28        75.50425
375.72        75.26916
376.17        75.08774
376.62        74.94119
377.07        74.80068
377.52        74.66041
377.97        74.44855
378.42        74.05103
378.87        73.46839
379.32        72.76609
379.77        72.03194
380.22        71.38541
380.67        70.85361
381.11        70.39975
381.56        70.02285
382.01        69.72417
382.46        69.50046
382.91        69.37333
383.36        69.26092
383.81        69.03082
384.26        68.66407
384.71        68.17973
385.15         67.7082
385.60        67.51584
386.05        67.59378
386.50        67.85164
386.95        68.07251
387.40        67.89706
387.85        67.29379
388.29        66.41293
388.74        65.56968
389.19        64.95514
389.64         64.6032
390.09        64.39765
390.54        64.34502
390.98        64.45557
391.43          64.694
391.88        65.04241
392.33        65.29346
392.78        65.13551
393.23        64.57368
393.67        63.70952
394.12        62.90989
394.57        62.49743
395.02        62.53963
395.47        62.90829
395.91        63.47169
396.36        63.89688
396.81        64.07289
397.26        64.05869
397.71        63.88786
398.15        63.54342
398.60        63.14344
399.05        62.75415
399.50        62.39828
399.95        61.83621
400.39         61.4214
400.84        61.16822
401.29        61.15526
401.74        61.30482
402.18        61.52269
402.63        61.49632
403.08        61.31483
403.53        61.39353
403.97        61.74213
404.42        62.08925
404.87        62.28316
405.32        62.18843
405.76        61.77015
406.21        61.14881
406.66        60.50647
407.11        60.11764
407.55        60.07794
408.00        60.25471
408.45        60.54388
408.90        60.89444
409.34        61.09341
409.79        60.70763
410.24        59.96765
410.68        59.64923
411.13        59.83487
411.58         60.1062
412.03          60.387
412.47        60.72141
412.92        61.01164
413.37        61.27058
413.81        61.43209
414.26        61.43486
414.71        61.26374
415.15        60.93058
415.60        60.55078
416.05        60.33204
416.49        60.33045
416.94        60.51562
417.39        60.73173
417.83        60.69293
418.28        60.35851
418.73        59.83076
419.17         59.3393
419.62        59.24779
420.07        59.58782
420.51        60.22825
420.96        60.92633
421.41        61.21863
421.85         60.9724
422.30        60.58837
422.74          60.168
423.19        59.58362
423.64        59.05016
424.08        59.37463
424.53        60.37049
424.98        60.93521
425.42        60.92009
425.87        61.02631
426.31        61.29678
426.76        61.22453
427.21        60.99669
427.65        61.33079
428.10        62.10865
428.54        62.76074
428.99         63.2356
429.44        63.35542
429.88        63.21964
430.33        63.95296
430.77        64.92967
431.22        64.00237
431.66        61.70698
432.11        60.43061
432.56        60.52607
433.00        61.65976
433.45        63.48706
433.89        65.02114
434.34        65.12845
434.78        65.93881
435.23        62.61705
435.67        61.51478
436.12        63.58472
436.57        64.70837
437.01        65.14259
437.46        65.38783
437.90         65.6088
438.35        65.03542
438.79        65.34933
439.24        65.16379
439.68        65.02004
440.13        64.71619
440.57        64.56967
441.02        65.55675
441.46        67.23757
441.91        68.14568
442.35        68.00669
442.80        67.09628
443.24        65.92848
443.69        66.42787
444.13        68.15804
444.58        68.75128
445.02        66.84312
445.47        66.76559
445.91        67.99454
446.36        68.40971
446.80        67.90996
447.24        67.77022
447.69        68.14104
448.13        67.83385
448.58        68.40108
449.02        68.63814
449.47        68.93896
449.91         69.1848
450.36         69.3577
450.80        69.44339
451.25        69.43013
451.69        69.31601
452.13        69.13017
452.58        68.88383
453.02        68.65269
453.47        68.59324
453.91        68.71445
454.36        68.97778
454.80          69.272
455.24        69.34341
455.69        69.15952
456.13        68.86537
456.58        68.60084
457.02        68.26835
457.46        68.03536
457.91        68.28655
458.35        68.84195
458.79        69.06541
459.24        68.91918
459.68        68.68692
460.13        68.44132
460.57        68.14198
461.01        67.87316
461.46        67.43475
461.90        67.11034
462.34        67.20869
462.79        67.15662
463.23        67.41639
463.68        67.69813
464.12        67.92149
464.56        68.01949
465.01        68.02361
465.45        67.87484
465.89        67.75625
466.34        67.57339
466.78        66.81324
467.22        65.98658
467.67        65.21465
468.11        66.90451
468.55        67.33781
468.99        67.03205
469.44        66.52305
469.88        66.06064
470.32        66.12823
470.77        66.59153
471.21        66.65612
471.65        66.25735
472.10        66.01185
472.54        66.01109
472.98        66.05872
473.42        66.14558
473.87        66.52345
474.31        66.97449
474.75        66.75757
475.20         66.0385
475.64        65.85834
476.08         66.2548
476.52        66.26153
476.97        65.83022
477.41        66.21702
477.85        66.37017
478.29        66.12326
478.74        66.44296
479.18         66.2618
479.62        65.31976
480.06        65.78117
480.50        66.04437
480.95        66.51913
481.39        66.78922
481.83        65.76351
482.27        66.25922
482.72        65.85522
483.16        64.96609
483.60        64.81228
484.04        66.49776
484.48        66.72094
484.93         66.2552
485.37        67.82053
485.81        68.60552
486.25        66.78053
486.69        90.43948
487.14        73.41742
487.58        45.94656
488.02         56.2894
488.46        63.88017
488.90        63.66967
489.34         65.4954
489.79         64.4965
490.23        66.43908
490.67        67.07634
491.11        66.14294
491.55        66.12357
491.99        66.61932
492.43        66.49631
492.88        65.83157
493.32        65.84941
493.76        66.06361
494.20        66.32959
494.64        66.42226
495.08        66.53236
495.52        66.68758
495.96        66.72143
496.41        66.60091
496.85        66.83971
497.29        67.28601
497.73        66.41718
498.17        65.03818
498.61        65.33885
499.05        67.32185
499.49        67.70603
499.93        67.96352
500.37        67.73129
500.82        66.96762
501.26        67.03316
501.70        67.64573
502.14        67.86729
502.58         67.5655
503.02        67.34838
503.46        67.22352
503.90        66.83602
504.34        66.33752
504.78        66.13373
505.22        66.27757
505.66        66.65771
506.10        67.10275
506.54        67.32032
506.98        67.23051
507.42        66.93034
507.86         66.5799
508.30        66.42007
508.74         66.5133
509.18          66.773
509.62        67.08295
510.06        67.25752
510.50        67.24493
510.94        67.11477
511.38        66.94142
511.82         66.8399
512.26         66.8579
512.70        66.91787
513.14        66.97871
513.58        67.10857
514.02         67.3126
514.46         67.0842
514.90        67.32327
515.34        67.30655
515.78        67.28803
516.22        67.30939
516.66        67.37095
517.10        67.27194
517.54         67.0028
517.98        67.25764
518.42        67.10027
518.86         67.2231
519.30        67.33965
519.74        67.51704
520.18        67.70847
520.62        67.82648
521.06        67.86189
521.50        67.83665
521.93        67.76891
522.37        67.68898
522.81        67.61871
523.25        67.55151
523.69        67.51883
524.13         67.5686
524.57         67.7027
525.01        67.90516
525.45        68.11768
525.89        68.24442
526.32        68.25208
526.76        68.16278
527.20        68.02152
527.64         67.9201
528.08        67.89907
528.52        67.87966
528.96        67.80162
529.40        67.76135
529.83        67.78662
530.27         67.1701
530.71        67.30019
531.15        67.20181
531.59        67.28765
532.03         67.4772
532.46        67.74774
532.90        68.02967
533.34        68.27074
533.78        68.48776
534.22        68.62091
534.66        68.58991
535.09        68.38493
535.53        68.05795
535.97        67.70036
536.41        67.48079
536.85        67.44482
537.28          67.553
537.72         67.7215
538.16        67.82098
538.60        67.81272
539.04         67.6822
539.47        67.48759
539.91         67.4976
540.35        67.65755
540.79        67.65369
541.22         67.4809
541.66        67.40572
542.10        67.42727
542.54        67.38934
542.97        67.32013
543.41        67.36501
543.85        67.51706
544.29        67.74622
544.72        67.95238
545.16        67.98721
545.60        67.81116
546.04        67.53547
546.47        67.28594
546.91        67.10844
547.35        67.12115
547.79        67.66103
548.22        68.42627
548.66        68.61417
549.10        68.12995
549.53        67.31673
549.97        66.52581
550.41        66.15317
550.84        66.30032
551.28        66.85583
551.72        67.58537
552.15        67.98421
552.59        67.91113
553.03        67.94388
553.46        67.44901
553.90        67.33053
554.34        67.42448
554.77         67.5619
555.21        67.65366
555.65        67.84211
556.08        68.11645
556.52        67.52929
556.96        67.71554
557.39        67.55162
557.83        67.55025
558.27        67.57031
558.70        67.63754
559.14        67.79951
559.57        68.01015
560.01        68.27725
560.45          68.498
560.88        68.48647
561.32        68.25969
561.75        67.91238
562.19        67.58231
562.63        67.23586
563.06         66.9781
563.50        67.13148
563.93        67.56226
564.37         67.7917
564.80        67.74581
565.24         67.7021
565.68        67.67036
566.11        67.61592
566.55        67.60516
566.98         67.5137
567.42        67.41974
567.85        67.69796
568.29        68.26495
568.72          68.328
569.16        68.09851
569.60        68.37858
570.03        68.83902
570.47        68.79337
570.90        68.57896
571.34        66.57647
571.77        67.61847
572.21        67.52982
572.64        67.22141
573.08        65.81451
573.51         63.4812
573.95        65.93312
574.38        69.95642
574.82        68.04041
