SpectraSmart Spectrum 2.9.0.0
--------- Device Information -----------
Spectrum Name :  反射率_0
Saving Time :  2024/04/26 01:44:26
Spectro-Module Model Name : SE2030-DUVN
Spectro-Module Serial Number : OS361AC55029948
Wavelength Start : 200
Wavelength End : 1025
Wavelength Unit : Wavelength(nm)
Spectrum Unit : Reflectance(%)
-----------Spectrum Setting ------------
Integration Time : 20ms
Average : 10
Boxcar : 0
Background removal :  enabled
linearity correction :  enabled
SC :  disabled
Intensity correction :  disabled
DWT denoise :  enabled
savitzky-golay :  disabled
FFT :  disabled
Running average :  disabled
Kalman :  disabled
High pass :  disabled
---------------BEGIN--------------------
Wavelength(nm)             Reflectance(%)
200.29               0
200.75        98.01563
201.21        85.32062
201.67        71.28852
202.13        64.07387
202.58        64.57346
203.04        70.77184
203.50        79.04005
203.96        82.96059
204.42        81.21162
204.88        76.57648
205.34        72.20617
205.80        71.28801
206.26         75.0652
206.72         85.6487
207.18        107.9249
207.64        130.3855
208.10        122.4348
208.55        99.07747
209.01        83.21745
209.47        77.13613
209.93        76.67967
210.39        79.37263
210.85        82.72083
211.31        81.99091
211.77        75.94661
212.23        66.66613
212.69        57.97315
213.14        55.59172
213.60        60.32844
214.06         70.5881
214.52        82.40696
214.98        89.68121
215.44        90.78601
215.90        87.54321
216.36        82.68488
216.81        79.99894
217.27         80.4757
217.73         82.5509
218.19        84.18352
218.65        82.70704
219.11        77.05381
219.57        66.61501
220.02        52.32145
220.48        41.69127
220.94         39.8977
221.40        45.96356
221.86         53.2994
222.32        54.40989
222.77        49.57515
223.23        42.46569
223.69        36.85106
224.15        36.65019
224.61        41.27708
225.06        48.64971
225.52         55.5441
225.98         57.8959
226.44        55.12577
226.90        49.14088
227.36        42.47226
227.81        38.51719
228.27        38.30751
228.73        40.45022
229.19         43.7771
229.65        46.53256
230.10        48.08325
230.56        49.02618
231.02        49.52515
231.48        49.71613
231.93        49.69158
232.39        49.36459
232.85        48.91344
233.31        48.72613
233.77        48.87815
234.22        49.34246
234.68        49.87222
235.14        49.89197
235.60        49.29623
236.05        48.33049
236.51        47.44548
236.97        47.23881
237.43        47.93346
237.88         49.5997
238.34        52.07406
238.80        54.76703
239.26         57.1082
239.71        59.12751
240.17          60.744
240.63        62.59777
241.08         64.9196
241.54          67.272
242.00        69.53635
242.46        71.85768
242.91        75.06168
243.37        80.95323
243.83        97.27036
244.28        147.9548
244.74         201.898
245.20        167.2718
245.66        138.2113
246.11        131.2283
246.57         137.695
247.03        164.4048
247.48        244.6484
247.94          206.67
248.40        121.4434
248.85        95.00156
249.31        86.89175
249.77        85.30333
250.22        87.01034
250.68        91.63285
251.14        98.91576
251.59        103.8455
252.05        101.7245
252.51        95.08475
252.96        87.94343
253.42         84.6534
253.88         84.8009
254.33        86.44543
254.79         89.8584
255.25        94.73933
255.70        99.84118
256.16         105.022
256.62        108.0348
257.07        106.5706
257.53        101.8311
257.99        94.80029
258.44        87.86745
258.90        84.82394
259.35        84.55268
259.81        85.55314
260.27        85.48816
260.72        82.12049
261.18        76.40291
261.63        69.40886
262.09        62.95644
262.55        58.38072
263.00        55.67085
263.46        54.25353
263.91         53.2403
264.37        52.03959
264.83        50.37666
265.28        48.35205
265.74        46.35014
266.19        44.67604
266.65        43.57567
267.11        42.84273
267.56        42.14449
268.02         41.0746
268.47        39.50978
268.93        37.60119
269.38        35.61534
269.84        34.24932
270.30        33.68953
270.75        33.74756
271.21         34.0373
271.66        33.97052
272.12        33.38736
272.57        32.46378
273.03        31.48973
273.48        30.81948
273.94        30.56238
274.39         30.5347
274.85        30.55424
275.31        30.34969
275.76        29.85202
276.22        29.19997
276.67        28.49787
277.13        27.98619
277.58         27.6627
278.04        27.47475
278.49        27.29003
278.95        26.99435
279.40        26.52617
279.86        25.98438
280.31        25.38732
280.77        24.87446
281.22           24.44
281.68        24.08371
282.13        23.77184
282.59        23.49118
283.04         23.2319
283.50        23.04267
283.95        22.89932
284.41        22.78411
284.86        22.68268
285.32        22.59201
285.77        22.57212
286.22        22.77703
286.68        23.18498
287.13        23.71296
287.59        24.15676
288.04        24.20664
288.50        23.85164
288.95        23.19075
289.41        22.48548
289.86        22.02098
290.32        21.92449
290.77        22.09328
291.22        22.44338
291.68        22.80256
292.13        23.13082
292.59        23.49728
293.04        23.96296
293.50        24.61755
293.95         25.4647
294.40        26.43689
294.86        27.47033
295.31        28.48813
295.77        29.47719
296.22        30.46903
296.68        31.48054
297.13        32.50179
297.58        33.55249
298.04        34.64643
298.49        35.83239
298.95        37.23855
299.40        38.87442
299.85         40.7029
300.31        42.61539
300.76        44.43379
301.21        46.07555
301.67        47.59932
302.12        49.01851
302.58        50.46101
303.03        51.93711
303.48        53.45067
303.94        55.03989
304.39        56.70028
304.84        58.44533
305.30        60.27337
305.75        62.10964
306.20        63.86543
306.66        65.52536
307.11        67.04336
307.57        68.48963
308.02        69.85644
308.47        71.20985
308.93        72.56499
309.38        73.88686
309.83        75.17425
310.29        76.41676
310.74        77.57835
311.19        78.71008
311.65        79.89081
312.10        81.11433
312.55        82.37015
313.00        83.51197
313.46        84.30534
313.91        84.69556
314.36        84.77657
314.82        84.79573
315.27        85.08309
315.72        85.75552
316.18        86.72286
316.63         87.8114
317.08        88.68421
317.53         89.2347
317.99        89.53876
318.44        89.77981
318.89        90.26364
319.35        91.03272
319.80        92.00995
320.25         92.9221
320.70        93.32864
321.16        93.14374
321.61        92.52592
322.06        91.80455
322.51        91.49163
322.97        91.69355
323.42        92.30273
323.87        93.06595
324.32        93.54182
324.78        93.59159
325.23         93.3961
325.68        93.12058
326.13        93.06141
326.59        93.28337
327.04        93.70547
327.49         94.2349
327.94        94.76112
328.39        95.22536
328.85         95.6441
329.30        96.03121
329.75        96.23734
330.20        96.26733
330.66        96.14923
331.11        96.08058
331.56        96.30371
332.01        96.89546
332.46        97.77999
332.92        98.81166
333.37        99.90553
333.82        100.8876
334.27        101.7748
334.72        102.4695
335.17        102.8333
335.63        102.8614
336.08        102.6422
336.53        102.3438
336.98        102.2929
337.43        102.5856
337.88        103.1408
338.34        103.8693
338.79        104.7045
339.24        105.5441
339.69          106.43
340.14        107.2148
340.59         107.641
341.05        107.6781
341.50        107.3821
341.95        107.0259
342.40        107.0498
342.85        107.5462
343.30        108.3932
343.75        109.3458
344.20        109.9635
344.66        110.1261
345.11        109.9555
345.56        109.6285
346.01         109.409
346.46        109.3869
346.91        109.4824
347.36        109.6439
347.81        109.8006
348.26        109.9301
348.72        110.0821
349.17        110.2468
349.62        110.4471
350.07        110.6684
350.52        110.8681
350.97        111.0153
351.42        111.0769
351.87        111.0455
352.32        110.9449
352.77        110.7589
353.22        110.4629
353.67         110.074
354.13        109.6212
354.58        109.1783
355.03         108.918
355.48        108.8595
355.93        108.9481
356.38        109.0321
356.83        108.8681
357.28        108.3978
357.73        107.6912
358.18        106.8798
358.63        106.1762
359.08        105.6425
359.53        105.2225
359.98        104.8272
360.43        104.3156
360.88        103.6508
361.33        102.8778
361.78         102.086
362.23        101.4147
362.68        100.8999
363.13         100.504
363.58        100.1165
364.03        99.56384
364.48        98.81339
364.93        97.92142
365.38        97.02352
365.83        96.33923
366.28        95.90834
366.73        95.64175
367.18        95.40688
367.63        94.99204
368.08        94.34962
368.53        93.57874
368.98        92.74021
369.43        91.91322
369.88         91.1376
370.33        90.38007
370.78        89.71729
371.23        89.28371
371.68        89.09014
372.13        89.09913
372.58        89.15129
373.03        88.96976
373.48        88.49136
373.93        87.80496
374.38        87.05776
374.83         86.4772
375.28        86.11948
375.72        85.89583
376.17        85.75266
376.62         85.5815
377.07        85.33071
377.52        85.01942
377.97        84.64404
378.42        84.19457
378.87         83.6907
379.32        83.16438
379.77        82.60977
380.22        82.01384
380.67        81.38109
381.11        80.70886
381.56        80.10583
382.01        79.75411
382.46        79.68503
382.91         79.8601
383.36        80.05124
383.81        79.89339
384.26        79.32384
384.71         78.4497
385.15        77.54963
385.60         77.1145
386.05        77.17837
386.50        77.57498
386.95        77.99503
387.40        77.92137
387.85        77.27525
388.29        76.26527
388.74        75.26579
389.19         74.4996
389.64        74.01685
390.09         73.6834
390.54         73.5248
390.98        73.59241
391.43        73.84857
391.88        74.25505
392.33        74.57299
392.78        74.41079
393.23        73.75932
393.67        72.82825
394.12        71.98227
394.57        71.32855
395.02        71.03311
395.47        71.38828
395.91         72.2344
396.36        72.78935
396.81        72.89785
397.26        72.86452
397.71        72.73837
398.15        72.36832
398.60        71.87351
399.05        71.45438
399.50        71.08809
399.95        70.20873
400.39        69.31221
400.84        68.95648
401.29        69.20408
401.74          69.326
402.18        69.26434
402.63         69.3404
403.08        69.57999
403.53        69.85186
403.97         70.1269
404.42          70.383
404.87        70.50732
405.32        70.32156
405.76        69.80511
406.21        69.13553
406.66        68.49477
407.11         68.0296
407.55        67.88554
408.00        68.25087
408.45        68.93179
408.90        69.30631
409.34        69.16447
409.79        68.58743
410.24        67.84544
410.68        67.44623
411.13        67.48591
411.58        67.70297
412.03        67.99497
412.47        68.28117
412.92         68.4483
413.37          68.557
413.81        68.58147
414.26        68.52238
414.71        68.37306
415.15        68.11347
415.60        67.82682
416.05        67.67406
416.49        67.69423
416.94        67.86966
417.39        68.04335
417.83        67.92876
418.28        67.49496
418.73        66.84701
419.17        66.24712
419.62        66.11314
420.07        66.48048
420.51        67.20254
420.96         67.9959
421.41        68.32957
421.85         68.0504
422.30        67.58078
422.74        67.04594
423.19        66.37983
423.64        65.79447
424.08        66.04838
424.53        66.95721
424.98        67.46642
425.42        67.44112
425.87        67.56945
426.31        67.86613
426.76         67.7994
427.21        67.53255
427.65        67.73187
428.10        68.37103
428.54        69.04575
428.99        69.70901
429.44        70.19994
429.88          70.415
430.33        70.99691
430.77        71.43558
431.22         70.1193
431.66        67.62668
432.11        66.31232
432.56        66.43446
433.00        67.05972
433.45        68.05386
433.89          69.703
434.34        70.72963
434.78        71.80824
435.23        68.78666
435.67        66.58096
436.12        69.19009
436.57        70.29612
437.01        70.97508
437.46        71.24187
437.90        71.23785
438.35        71.02641
438.79        71.26113
439.24        71.12726
439.68         70.8666
440.13        70.43916
440.57        70.16309
441.02        70.97195
441.46        72.47686
441.91        73.26744
442.35        73.13256
442.80        72.38756
443.24        71.42701
443.69        72.04936
444.13        73.84547
444.58        73.77773
445.02        72.07998
445.47        71.75443
445.91        72.73418
446.36        72.98613
446.80        72.46099
447.24        72.24451
447.69        72.40766
448.13        72.60713
448.58        72.84647
449.02         73.1614
449.47        73.50294
449.91        73.80441
450.36        74.03687
450.80        74.18912
451.25        74.23652
451.69        74.11818
452.13        73.86372
452.58        73.50639
453.02        73.15929
453.47        73.03935
453.91        73.16759
454.36        73.48747
454.80        73.86456
455.24        73.99249
455.69        73.82286
456.13        73.54135
456.58        73.29208
457.02        72.91753
457.46        72.62344
457.91        72.92218
458.35        73.61014
458.79         73.9098
459.24        73.76785
459.68        73.54068
460.13        73.31403
460.57         73.0247
461.01        72.76602
461.46        72.43224
461.90        72.00247
462.34        72.22847
462.79         71.9464
463.23        71.98156
463.68        72.00941
464.12        72.31766
464.56        72.79188
465.01         73.0831
465.45        72.98646
465.89        72.85002
466.34        72.62054
466.78        71.48248
467.22        69.99691
467.67        69.89932
468.11        71.09672
468.55        71.92899
468.99        72.01786
469.44        71.70893
469.88        71.19833
470.32         71.1348
470.77         71.4884
471.21        71.49133
471.65        71.12382
472.10        71.01647
472.54        71.16974
472.98        71.26637
473.42        71.28341
473.87        71.40688
474.31        71.54963
474.75        71.45242
475.20        71.18285
475.64        71.05995
476.08         71.1526
476.52        71.10549
476.97        70.87463
477.41        71.05271
477.85        71.67195
478.29        70.85811
478.74        71.14503
479.18         71.4735
479.62        70.45094
480.06        71.21535
480.50         71.6304
480.95        72.05827
481.39         71.9567
481.83        71.62123
482.27        71.34351
482.72        71.11954
483.16        69.85013
483.60        69.88641
484.04        71.40442
484.48        71.93342
484.93        72.18907
485.37        73.15902
485.81        73.43117
486.25        72.89778
486.69        98.95662
487.14        79.76225
487.58        49.66885
488.02        61.10458
488.46        69.32515
488.90        69.09014
489.34        70.80134
489.79        69.65404
490.23         71.9318
490.67        72.79228
491.11        71.88801
491.55        71.82682
491.99        72.21387
492.43        72.03274
492.88        71.39369
493.32        71.49442
493.76         71.7774
494.20        72.11447
494.64        72.24232
495.08        72.32948
495.52        72.46401
495.96        72.52591
496.41        72.45453
496.85         72.9228
497.29        73.64376
497.73        72.34235
498.17        70.12156
498.61        70.45416
499.05        73.27671
499.49        73.87793
499.93        73.79551
500.37        73.38806
500.82        72.65621
501.26        72.76089
501.70        73.40982
502.14        73.72062
502.58        73.52666
503.02        73.39511
503.46        73.32063
503.90        72.94482
504.34        72.42401
504.78        72.18464
505.22        72.28523
505.66        72.60635
506.10        73.00047
506.54        73.17889
506.98        73.05849
507.42        72.80931
507.86        72.58526
508.30        72.21589
508.74        72.39037
509.18        72.53419
509.62        72.74246
510.06        72.85331
510.50        72.83128
510.94         72.7225
511.38        72.59725
511.82        72.57437
512.26        72.67999
512.70        72.87312
513.14         73.0836
513.58        73.20321
514.02        73.19875
514.46        73.09914
514.90        72.97333
515.34        72.91416
515.78        72.93648
516.22        73.06962
516.66        73.24573
517.10        73.20099
517.54        72.91124
517.98        72.97409
518.42        72.69142
518.86        72.74472
519.30        72.91716
519.74        73.22266
520.18         73.5553
520.62        73.73856
521.06        73.73696
521.50        73.60445
521.93        73.40076
522.37        73.22183
522.81        73.11336
523.25        73.05022
523.69        73.04409
524.13        73.11321
524.57        73.25011
525.01        73.44911
525.45        73.66409
525.89        73.81574
526.32        73.87159
526.76        73.84389
527.20        73.75671
527.64        73.67397
528.08        73.63207
528.52        73.55598
528.96        73.40618
529.40        73.32811
529.83        73.35941
530.27        72.72054
530.71        72.89117
531.15        72.77799
531.59        72.82279
532.03        72.95877
532.46        73.17755
532.90        73.42997
533.34         73.6686
533.78        73.89488
534.22        74.05592
534.66        74.08305
535.09        73.96062
535.53        73.74212
535.97        73.46976
536.41        73.23695
536.85         73.0807
537.28        72.98256
537.72        72.94376
538.16        72.97398
538.60        73.06277
539.04         73.1512
539.47        73.19353
539.91        73.31673
540.35        73.42857
540.79        73.23774
541.22        72.84323
541.66        72.70009
542.10        72.83824
542.54        73.02386
542.97        73.18697
543.41         73.3332
543.85        73.42502
544.29        73.49105
544.72        73.49328
545.16        73.40199
545.60        73.22025
546.04        72.95822
546.47        72.74344
546.91        72.81067
547.35        73.19021
547.79        73.78239
548.22        74.33981
548.66        74.63132
549.10         74.4891
549.53        73.63464
549.97        72.48139
550.41        71.97095
550.84        72.24394
551.28        72.87649
551.72        73.60422
552.15        74.09336
552.59        74.21033
553.03        74.07265
553.46        73.77223
553.90        73.54915
554.34        73.46729
554.77        73.34646
555.21        73.18095
555.65        73.28551
556.08        73.65508
556.52        73.15676
556.96        73.50288
557.39        73.44057
557.83        73.50252
558.27        73.53858
558.70        73.57115
559.14        73.68337
559.57        73.84645
560.01        73.99015
560.45        74.07922
560.88        74.20435
561.32         74.3112
561.75        74.07846
562.19        73.65154
562.63        73.33334
563.06        73.20923
563.50        73.34451
563.93        73.62536
564.37        73.76637
564.80        73.70509
565.24        73.64948
565.68        73.61653
566.11        73.54268
566.55        73.48931
566.98        73.45447
567.42        73.52274
567.85        73.55468
568.29        74.24363
568.72        74.28537
569.16        74.11684
569.60        74.52659
570.03        75.17064
570.47        75.20884
570.90        74.90612
571.34        73.20126
571.77        74.06238
572.21         74.0374
572.64        73.52135
573.08        72.59602
573.51        69.59518
573.95        72.37923
574.38        76.94972
574.82        74.67577
