SpectraSmart Spectrum 2.9.0.0
--------- Device Information -----------
Spectrum Name :  反射率_0
Saving Time :  2024/04/26 01:07:24
Spectro-Module Model Name : SE2030-DUVN
Spectro-Module Serial Number : OS361AC55029948
Wavelength Start : 200
Wavelength End : 1025
Wavelength Unit : Wavelength(nm)
Spectrum Unit : Reflectance(%)
-----------Spectrum Setting ------------
Integration Time : 20ms
Average : 10
Boxcar : 0
Background removal :  enabled
linearity correction :  enabled
SC :  disabled
Intensity correction :  disabled
DWT denoise :  enabled
savitzky-golay :  disabled
FFT :  disabled
Running average :  disabled
Kalman :  disabled
High pass :  disabled
---------------BEGIN--------------------
Wavelength(nm)             Reflectance(%)
200.29               0
200.75        86.33694
201.21        79.91659
201.67        73.04086
202.13        69.17252
202.58        68.69149
203.04        71.22536
203.50        74.95899
203.96        76.67294
204.42        75.77845
204.88        73.43006
205.34        71.72668
205.80        73.23864
206.26        79.46044
206.72         93.8779
207.18        122.4899
207.64        149.0635
208.10        135.3891
208.55        103.2237
209.01        82.09377
209.47        74.09852
209.93        73.61578
210.39        77.61871
210.85        83.14971
211.31        84.32865
211.77        79.35949
212.23        70.58186
212.69        62.43478
213.14        61.67986
213.60        69.17039
214.06        82.53717
214.52        96.76556
214.98        104.3581
215.44        103.5301
215.90        96.99301
216.36        88.10835
216.81        81.51513
217.27        78.79799
217.73        78.37552
218.19        78.43646
218.65        76.56913
219.11          71.739
219.57        63.52478
220.02        52.93978
220.48        46.47357
220.94        47.77784
221.40        55.30381
221.86        62.41303
222.32        62.18307
222.77        55.49312
223.23        46.35622
223.69        38.94442
224.15        37.54981
224.61        41.58889
225.06        48.83962
225.52        56.03701
225.98        59.06268
226.44        57.21793
226.90        52.29817
227.36        46.65249
227.81        43.43615
228.27        43.60246
228.73        45.80297
229.19         48.8017
229.65        50.81059
230.10        51.34378
230.56        51.15277
231.02        50.69039
231.48        50.39605
231.93        50.35098
232.39          50.373
232.85        50.37611
233.31        50.34111
233.77        50.24228
234.22        50.11513
234.68        49.99071
235.14        49.84825
235.60        49.70763
236.05         49.6069
236.51        49.52581
236.97        49.38978
237.43        49.21504
237.88        49.09415
238.34        49.15009
238.80        49.85436
239.26        51.34597
239.71        53.55129
240.17        55.94442
240.63        58.13026
241.08         59.9719
241.54        61.39841
242.00        62.53632
242.46        63.71469
242.91        65.54477
243.37        68.87433
243.83        78.76885
244.28        114.0808
244.74        160.3275
245.20        142.3208
245.66        122.5257
246.11        117.7982
246.57        123.0787
247.03        144.1871
247.48        206.3814
247.94        173.8643
248.40        107.3484
248.85        87.12075
249.31        81.61174
249.77         82.1357
250.22        86.44716
250.68        94.81382
251.14        107.2809
251.59        116.5216
252.05        114.5602
252.51        104.5496
252.96        92.55238
253.42        84.70032
253.88        80.83873
254.33        78.90534
254.79        79.60678
255.25        83.32057
255.70        88.67474
256.16        94.79449
256.62        99.08642
257.07        98.93914
257.53        95.33075
257.99        89.32497
258.44        82.90886
258.90        79.38773
259.35         78.0133
259.81        77.73647
260.27        76.79959
260.72         73.5207
261.18        68.61051
261.63        62.73193
262.09        57.38447
262.55        53.58379
263.00        51.27898
263.46        50.06936
263.91        49.05758
264.37        47.57932
264.83        45.44174
265.28        42.79523
265.74        40.29453
266.19        38.68991
266.65        38.20272
267.11        38.39933
267.56        38.61536
268.02         38.0728
268.47        36.63514
268.93        34.56918
269.38        32.31932
269.84        30.89273
270.30        30.55733
270.75        31.01365
271.21        31.69237
271.66        31.74343
272.12        30.95538
272.57        29.60734
273.03        28.16046
273.48        27.21785
273.94        26.94561
274.39        27.08933
274.85        27.32046
275.31        27.16074
275.76        26.50753
276.22        25.57144
276.67        24.60772
277.13        24.06214
277.58        23.95812
278.04        24.14732
278.49        24.34623
278.95        24.22255
279.40        23.69744
279.86        22.96232
280.31        22.16599
280.77        21.63377
281.22        21.39376
281.68        21.34667
282.13        21.39264
282.59        21.42654
283.04        21.40249
283.50        21.39738
283.95        21.34979
284.41        21.17658
284.86        20.87886
285.32        20.48936
285.77        20.16781
286.22        20.22012
286.68        20.65065
287.13        21.32125
287.59         21.9638
288.04        22.17157
288.50        21.89518
288.95        21.26737
289.41        20.53079
289.86        19.94508
290.32        19.65184
290.77        19.56667
291.22        19.67635
291.68        19.92125
292.13        20.28101
292.59        20.78435
293.04         21.4336
293.50        22.21841
293.95        23.10917
294.40        24.06688
294.86        25.03751
295.31         25.9612
295.77        26.84194
296.22         27.7122
296.68         28.6196
297.13        29.60622
297.58        30.70572
298.04        31.91997
298.49        33.27588
298.95        34.86324
299.40        36.67186
299.85        38.66246
300.31        40.72171
300.76        42.66376
301.21        44.41035
301.67        46.03591
302.12        47.54662
302.58        49.06051
303.03        50.59972
303.48        52.16807
303.94          53.877
304.39        55.83135
304.84        58.04718
305.30        60.48471
305.75         62.9292
306.20        65.07146
306.66        66.86144
307.11        68.32777
307.57        69.70021
308.02        71.21317
308.47        72.98096
308.93        74.93292
309.38        76.91124
309.83        78.71987
310.29        80.29259
310.74        81.65784
311.19        82.93122
311.65        84.28909
312.10        85.75917
312.55         87.2965
313.00        88.73625
313.46        89.81944
313.91        90.47057
314.36        90.78423
314.82        91.00928
315.27        91.47168
315.72        92.29172
316.18        93.38509
316.63        94.55527
317.08        95.42885
317.53        95.90344
317.99        96.07311
318.44        96.19735
318.89        96.69905
319.35        97.64275
319.80        98.92515
320.25        100.1773
320.70        100.7907
321.16        100.6342
321.61        99.91158
322.06        99.04797
322.51        98.70979
322.97        99.03856
323.42        99.87953
323.87        100.8998
324.32         101.523
324.78        101.5688
325.23        101.2666
325.68        100.8421
326.13        100.6906
326.59        100.9058
327.04        101.3771
327.49        101.9787
327.94        102.5486
328.39        103.0122
328.85        103.4095
329.30        103.7699
329.75        103.9527
330.20        103.9718
330.66        103.8455
331.11        103.7958
331.56         104.103
332.01        104.8514
332.46         105.963
332.92        107.2362
333.37        108.5012
333.82        109.5467
334.27        110.3995
334.72        111.0329
335.17        111.4383
335.63         111.638
336.08        111.6828
336.53        111.6358
336.98        111.6624
337.43        111.8249
337.88        112.0942
338.34        112.4934
338.79        113.1441
339.24        113.9996
339.69        115.0627
340.14        116.0838
340.59        116.6267
341.05        116.6106
341.50        116.1379
341.95        115.5984
342.40        115.6044
342.85        116.2762
343.30        117.4361
343.75        118.6967
344.20         119.378
344.66        119.3157
345.11        118.7272
345.56        117.9634
346.01        117.5485
346.46        117.6249
346.91        118.0128
347.36        118.5425
347.81        118.9614
348.26        119.1836
348.72        119.3137
349.17        119.3564
349.62         119.357
350.07         119.329
350.52        119.2249
350.97        119.0683
351.42        118.9159
351.87        118.7744
352.32        118.6474
352.77          118.47
353.22        118.1289
353.67        117.6192
354.13        117.0025
354.58        116.3671
355.03        115.9139
355.48        115.6743
355.93        115.5731
356.38        115.4899
356.83        115.2351
357.28        114.7497
357.73        114.0911
358.18        113.3094
358.63        112.4846
359.08        111.6643
359.53        110.8443
359.98        110.0403
360.43        109.2779
360.88        108.5531
361.33        107.8456
361.78        107.1741
362.23         106.562
362.68         106.004
363.13        105.5067
363.58        104.9484
364.03        104.1372
364.48        103.0548
364.93        101.7566
365.38        100.4696
365.83        99.56633
366.28        99.11176
366.73        98.97505
367.18        98.89818
367.63        98.45587
368.08        97.55428
368.53        96.36801
368.98        95.07288
369.43        93.92395
369.88        93.00986
370.33         92.2421
370.78        91.64342
371.23        91.26125
371.68        91.07104
372.13         91.0611
372.58        91.08335
373.03        90.87541
373.48        90.37929
373.93        89.67059
374.38        88.88551
374.83        88.24261
375.28        87.79766
375.72        87.46682
376.17        87.21922
376.62        86.98051
377.07        86.70643
377.52          86.408
377.97        86.04693
378.42        85.55904
378.87        84.95168
379.32         84.2689
379.77        83.54646
380.22        82.83099
380.67         82.1345
381.11        81.43791
381.56        80.79678
382.01        80.30733
382.46        79.99195
382.91        79.84936
383.36        79.73016
383.81        79.39461
384.26        78.80396
384.71        78.01521
385.15        77.23956
385.60        76.86555
386.05        76.90019
386.50        77.21734
386.95        77.51691
387.40        77.30295
387.85        76.52351
388.29        75.38144
388.74        74.29826
389.19        73.56604
389.64        73.22819
390.09        73.12162
390.54         73.1912
390.98        73.34589
391.43         73.5176
391.88        73.72446
392.33        73.79595
392.78        73.45584
393.23        72.72921
393.67        71.75475
394.12        70.89645
394.57        70.34285
395.02        70.20979
395.47        70.61475
395.91        71.39302
396.36        71.91592
396.81        72.03335
397.26        71.94857
397.71        71.72596
398.15        71.28886
398.60        70.76624
399.05        70.34908
399.50        70.00768
399.95        69.15921
400.39        68.30318
400.84        68.01582
401.29         68.3427
401.74        68.56882
402.18        68.58011
402.63        68.52511
403.08        68.49791
403.53        68.64324
403.97        68.96223
404.42        69.29865
404.87        69.47841
405.32        69.29513
405.76        68.71607
406.21        67.88568
406.66        67.05538
407.11        66.59523
407.55        66.60832
408.00        66.96277
408.45        67.48247
408.90        67.86273
409.34        67.90924
409.79        67.51451
410.24        66.90257
410.68         66.5975
411.13        66.68725
411.58        66.90411
412.03        67.17655
412.47        67.48093
412.92        67.71606
413.37        67.92176
413.81        68.03979
414.26        68.01987
414.71        67.84399
415.15        67.51331
415.60        67.12827
416.05        66.87444
416.49        66.80549
416.94        66.90166
417.39        67.01472
417.83        66.87487
418.28        66.45115
418.73        65.83855
419.17        65.29297
419.62        65.22197
420.07        65.65992
420.51        66.46461
420.96        67.32442
421.41        67.69656
421.85        67.43089
422.30        66.86091
422.74        66.18726
423.19        65.66261
423.64        65.41219
424.08        65.68901
424.53        66.33359
424.98        66.79801
425.42        66.97371
425.87        67.22848
426.31        67.57905
426.76         67.6291
427.21        67.55927
427.65        68.04807
428.10        68.93737
428.54        69.64522
428.99        70.11892
429.44        70.08841
429.88        69.71027
430.33        70.46368
430.77        71.65555
431.22        70.54614
431.66         67.7714
432.11        66.55467
432.56        67.07183
433.00        67.93114
433.45        69.14967
433.89        70.50692
434.34         71.6051
434.78        74.05299
435.23        69.35178
435.67        66.61575
436.12        70.30054
436.57        71.35697
437.01        71.34818
437.46          71.968
437.90        71.77409
438.35        72.06981
438.79        72.31155
439.24        72.38204
439.68        72.27343
440.13        72.07523
440.57        72.05968
441.02        72.71014
441.46        73.77457
441.91        74.71246
442.35        75.12158
442.80         74.3035
443.24        72.78582
443.69        73.20981
444.13        75.14545
444.58        75.58679
445.02        73.52473
445.47         73.3364
445.91        74.56944
446.36         75.0027
446.80        74.55376
447.24        74.38198
447.69        74.58659
448.13        74.82991
448.58        75.12646
449.02        75.50391
449.47        75.89406
449.91        76.20637
450.36        76.41143
450.80        76.50737
451.25        76.50863
451.69        76.41547
452.13        76.26058
452.58        76.04533
453.02        75.83509
453.47        75.77523
453.91        75.86833
454.36        76.10039
454.80        76.38635
455.24        76.35704
455.69        75.96155
456.13        75.62136
456.58        75.60232
457.02        74.51941
457.46        75.05615
457.91        75.20744
458.35        75.56696
458.79        75.73437
459.24          75.683
459.68         75.4837
460.13        75.18306
460.57        74.84212
461.01        74.54951
461.46        74.18195
461.90         73.7003
462.34        73.94839
462.79        73.41074
463.23         73.5904
463.68        73.96147
464.12        74.41708
464.56        74.78456
465.01        74.85786
465.45        74.57413
465.89        74.41662
466.34        74.28297
466.78        73.33826
467.22        72.09819
467.67        71.43763
468.11        72.58328
468.55         73.2895
468.99        73.56053
469.44        73.28669
469.88        72.67098
470.32        72.65004
470.77        73.14629
471.21        73.18166
471.65        72.71265
472.10        72.44295
472.54        72.44609
472.98        72.48256
473.42        72.53938
473.87        72.85374
474.31        73.24023
474.75        73.07152
475.20        72.50741
475.64        72.41091
476.08        72.77457
476.52        72.78648
476.97        72.43213
477.41        72.32729
477.85        72.56133
478.29        72.10408
478.74        72.95846
479.18        72.63747
479.62        71.89179
480.06        72.45654
480.50        72.84384
480.95        73.11545
481.39        72.79366
481.83        72.39919
482.27        72.09077
482.72         72.1222
483.16        70.83064
483.60        71.06703
484.04        72.73904
484.48         73.0705
484.93        72.66181
485.37        74.41618
485.81        75.14574
486.25        73.42722
486.69        99.47833
487.14        80.68993
487.58         50.2945
488.02          61.659
488.46        70.24292
488.90        69.65205
489.34         71.3802
489.79        70.44445
490.23        72.63513
490.67        73.50043
491.11        72.48076
491.55        72.41731
491.99        72.87524
492.43        72.67144
492.88        71.90575
493.32        71.85008
493.76        72.01283
494.20        72.29018
494.64        72.41901
495.08        72.71523
495.52        73.12858
495.96         72.9472
496.41        72.26246
496.85        72.65247
497.29        73.79273
497.73        72.64957
498.17        70.29111
498.61        70.51485
499.05        73.31165
499.49        74.04397
499.93         74.1741
500.37        73.75668
500.82        72.82789
501.26        72.70401
501.70        73.40144
502.14        73.76471
502.58        73.65339
503.02        73.51776
503.46        73.34076
503.90        72.84001
504.34        72.22409
504.78        71.96203
505.22        72.11568
505.66        72.58301
506.10        73.16331
506.54        73.39713
506.98        73.15925
507.42        73.04908
507.86        72.42878
508.30        72.22378
508.74        72.26661
509.18        72.48856
509.62        72.77967
510.06        72.98422
510.50        73.05762
510.94         73.0477
511.38        73.01167
511.82        73.03008
512.26        73.12395
512.70        73.24785
513.14        73.35795
513.58        73.41463
514.02        73.40534
514.46        73.27395
514.90        73.18939
515.34        73.08791
515.78         73.0183
516.22         72.9958
516.66         73.0122
517.10          72.966
517.54        72.81706
517.98        72.97468
518.42        72.71127
518.86        72.80672
519.30        73.03519
519.74        73.33752
520.18         73.6319
520.62        73.82387
521.06        73.88908
521.50        73.85313
521.93        73.75541
522.37        73.66042
522.81        73.60138
523.25        73.56392
523.69        73.56631
524.13        73.63495
524.57        73.76845
525.01        73.96111
525.45        74.16739
525.89        74.31043
526.32        74.35815
526.76         74.3201
527.20        74.22882
527.64        74.15971
528.08        74.14863
528.52        74.11881
528.96        74.00357
529.40        73.90738
529.83        73.86562
530.27        73.11034
530.71        73.17501
531.15        73.03069
531.59        73.13307
532.03        73.38951
532.46        73.74915
532.90        74.08942
533.34        74.34254
533.78        74.53791
534.22        74.64069
534.66        74.61135
535.09        74.44491
535.53        74.17681
535.97        73.87053
536.41        73.65506
536.85          73.567
537.28        73.58294
537.72        73.64071
538.16        73.64559
538.60        73.57473
539.04        73.40676
539.47        73.19279
539.91        73.20422
540.35        73.37701
540.79        73.37662
541.22        73.21415
541.66        73.20334
542.10         73.3413
542.54        73.44215
542.97        73.49836
543.41        73.61225
543.85        73.76298
544.29        73.93375
544.72        74.05325
545.16          74.011
545.60        73.78112
546.04        73.50211
546.47        73.28136
546.91        73.06241
547.35          72.999
547.79        73.59261
548.22        74.50944
548.66        74.80393
549.10        74.33218
549.53        73.39497
549.97        72.40414
550.41        71.93729
550.84         72.1191
551.28        72.73196
551.72        73.51598
552.15         73.9724
552.59        73.94732
553.03        73.99037
553.46        73.51649
553.90        73.36587
554.34        73.38914
554.77         73.4428
555.21        73.47452
555.65        73.57982
556.08        73.88487
556.52        73.40659
556.96        73.86192
557.39        73.69841
557.83        73.49776
558.27        73.42107
558.70        73.51393
559.14        73.66055
559.57        73.82404
560.01        74.08165
560.45        74.33332
560.88        74.42795
561.32        74.33424
561.75        73.97173
562.19        73.50832
562.63        73.10203
563.06        72.86935
563.50        73.02885
563.93        73.44279
564.37        73.67461
564.80        73.64394
565.24        73.62041
565.68        73.60273
566.11         73.5247
566.55        73.45192
566.98        73.30869
567.42        73.18024
567.85        73.36586
568.29        73.83731
568.72        73.97176
569.16        73.94447
569.60        74.36848
570.03        74.86267
570.47        74.79801
570.90        74.55096
571.34        72.51226
571.77        73.55419
572.21        73.78075
572.64        73.15473
573.08        72.04274
573.51        69.13918
573.95        71.82784
574.38        76.23235
574.82        74.32901
