SpectraSmart Spectrum 2.9.0.0
--------- Device Information -----------
Spectrum Name :  反射率_0
Saving Time :  2024/04/26 02:04:49
Spectro-Module Model Name : SE2030-DUVN
Spectro-Module Serial Number : OS361AC55029948
Wavelength Start : 200
Wavelength End : 1025
Wavelength Unit : Wavelength(nm)
Spectrum Unit : Reflectance(%)
-----------Spectrum Setting ------------
Integration Time : 20ms
Average : 10
Boxcar : 0
Background removal :  enabled
linearity correction :  enabled
SC :  disabled
Intensity correction :  disabled
DWT denoise :  enabled
savitzky-golay :  disabled
FFT :  disabled
Running average :  disabled
Kalman :  disabled
High pass :  disabled
---------------BEGIN--------------------
Wavelength(nm)             Reflectance(%)
200.29               0
200.75        95.62042
201.21        86.67496
201.67        76.63445
202.13        71.04005
202.58        70.47518
203.04        73.71766
203.50        78.15349
203.96        79.35701
204.42        76.63362
204.88        71.99698
205.34        67.74512
205.80        65.99142
206.26        67.31522
206.72        72.81644
207.18        84.92741
207.64        96.14358
208.10        89.78558
208.55        75.77867
209.01        67.21886
209.47        65.48703
209.93        68.02865
210.39        73.48227
210.85        79.50667
211.31        80.85733
211.77         75.9702
212.23        67.12241
212.69         58.2991
213.14        55.60058
213.60        59.99392
214.06        69.60232
214.52        81.08611
214.98        89.28548
215.44        92.48246
215.90        92.20145
216.36        89.64956
216.81        86.36244
217.27        83.50377
217.73        80.71338
218.19          77.743
218.65        74.10744
219.11         69.2212
219.57          62.269
220.02        53.82362
220.48         48.6499
220.94         49.2873
221.40        54.98079
221.86        60.17449
222.32        58.93679
222.77        52.10518
223.23        43.11595
223.69        35.82189
224.15        34.22938
224.61         37.7297
225.06        44.26957
225.52        50.59617
225.98        52.62523
226.44        49.73745
226.90        43.75336
227.36        37.20399
227.81        33.49579
228.27        33.60695
228.73        36.13778
229.19        39.66511
229.65        42.09261
230.10        42.86988
230.56        42.79626
231.02        42.46414
231.48        42.48524
231.93        42.95678
232.39        43.60574
232.85        44.25274
233.31        44.72916
233.77        44.97756
234.22        45.09438
234.68        45.17643
235.14        45.28911
235.60        45.47884
236.05        45.73742
236.51        46.04005
236.97        46.35538
237.43        46.73295
237.88        47.28402
238.34        48.13406
238.80        49.60516
239.26         51.6851
239.71        54.30851
240.17         56.8508
240.63        58.80974
241.08        60.13998
241.54        60.87752
242.00        61.48672
242.46        62.82387
242.91        65.88508
243.37        72.52847
243.83        92.18373
244.28        154.9332
244.74        224.8445
245.20        185.0382
245.66        148.6745
246.11        137.4075
246.57        139.5406
247.03        156.2994
247.48        205.2399
247.94        165.2798
248.40        108.8331
248.85        93.51775
249.31        89.93093
249.77        90.40439
250.22        93.30655
250.68        98.91758
251.14        106.9681
251.59        111.8274
252.05        108.2535
252.51        99.15777
252.96        89.50453
253.42        84.20888
253.88        82.78195
254.33        83.35232
254.79        86.08343
255.25        90.49307
255.70        95.31483
256.16        100.3172
256.62        103.4261
257.07        102.5254
257.53         98.6786
257.99        92.73756
258.44        86.69106
258.90        83.87186
259.35        83.30973
259.81         83.8091
260.27        83.42911
260.72          80.313
261.18        75.28424
261.63        69.14369
262.09        63.45501
262.55        59.26435
263.00        56.57204
263.46        54.99819
263.91        53.75648
264.37        52.34737
264.83        50.52648
265.28        48.36543
265.74        46.30013
266.19        44.72068
266.65        43.84624
267.11        43.40283
267.56         42.9714
268.02        42.05627
268.47        40.52444
268.93        38.55871
269.38        36.43448
269.84        34.87399
270.30        34.08943
270.75        33.89301
271.21        33.94117
271.66        33.70482
272.12        33.03376
272.57        32.09799
273.03        31.14338
273.48        30.44748
273.94        30.10639
274.39        29.96286
274.85        29.87222
275.31        29.62296
275.76        29.15364
276.22        28.56936
276.67        27.95268
277.13        27.51219
277.58        27.23636
278.04        27.08958
278.49        26.92619
278.95        26.61123
279.40        26.08915
279.86        25.46248
280.31        24.80196
280.77        24.32522
281.22        24.03021
281.68         23.8851
282.13        23.77877
282.59        23.58663
283.04        23.28579
283.50        22.96654
283.95        22.67847
284.41        22.51674
284.86        22.48965
285.32        22.55082
285.77        22.70419
286.22        23.02112
286.68        23.45749
287.13         23.9582
287.59        24.34488
288.04        24.34424
288.50        23.95836
288.95        23.27437
289.41        22.54766
289.86         22.0564
290.32        21.92712
290.77        22.06383
291.22        22.38982
291.68        22.74052
292.13        23.07706
292.59        23.46537
293.04        23.95683
293.50        24.62663
293.95         25.4747
294.40        26.43589
294.86        27.45636
295.31        28.47589
295.77        29.48261
296.22        30.50021
296.68        31.53193
297.13        32.54571
297.58        33.55781
298.04        34.59275
298.49         35.7074
298.95        37.04391
299.40        38.61323
299.85         40.3653
300.31          42.203
300.76        43.96495
301.21        45.57132
301.67        47.08804
302.12        48.48093
302.58        49.80541
303.03        51.06818
303.48         52.2893
303.94        53.60385
304.39        55.15854
304.84         56.9799
305.30        59.00985
305.75        61.03292
306.20        62.74038
306.66         64.0848
307.11        65.11213
307.57        66.03346
308.02        67.05139
308.47         68.2773
308.93        69.64908
309.38        71.06283
309.83        72.40709
310.29        73.63157
310.74        74.74467
311.19         75.7896
311.65        76.82765
312.10        77.86346
312.55        78.88464
313.00        79.80907
313.46        80.51592
313.91        80.96976
314.36        81.22732
314.82         81.4519
315.27        81.84399
315.72        82.48614
316.18        83.32481
316.63        84.23546
317.08        84.96702
317.53        85.44234
317.99        85.71114
318.44        85.93597
318.89        86.38966
319.35        87.10699
319.80         88.0303
320.25        88.89954
320.70        89.28807
321.16        89.11732
321.61        88.53914
322.06        87.87846
322.51         87.6461
322.97        87.93996
323.42        88.63516
323.87        89.47427
324.32        90.01011
324.78        90.09503
325.23        89.91273
325.68        89.59095
326.13        89.36528
326.59        89.30518
327.04        89.35924
327.49        89.53487
327.94        89.88224
328.39        90.38805
328.85        91.03559
329.30        91.74617
329.75        92.20679
330.20         92.3625
330.66        92.27621
331.11        92.19962
331.56        92.47428
332.01         93.2037
332.46        94.27274
332.92        95.49081
333.37          96.691
333.82        97.67451
334.27        98.48811
334.72        99.07469
335.17         99.3596
335.63        99.36598
336.08        99.16824
336.53        98.91914
336.98        98.91834
337.43        99.25136
337.88        99.84274
338.34        100.6148
338.79        101.5152
339.24        102.4411
339.69        103.4247
340.14        104.2847
340.59        104.7115
341.05        104.6651
341.50         104.222
341.95        103.7076
342.40        103.6346
342.85        104.1129
343.30        105.0076
343.75        106.0344
344.20         106.681
344.66        106.8098
345.11        106.5656
345.56        106.1759
346.01        105.9811
346.46         106.081
346.91        106.3635
347.36        106.7166
347.81        106.9797
348.26        107.1076
348.72        107.1765
349.17        107.2272
349.62        107.3652
350.07         107.603
350.52        107.8811
350.97        108.1239
351.42        108.2318
351.87        108.1816
352.32        108.0112
352.77        107.7638
353.22        107.5063
353.67        107.2676
354.13        107.0474
354.58        106.8168
355.03        106.5888
355.48        106.3558
355.93        106.1137
356.38        105.8504
356.83        105.5422
357.28          105.18
357.73         104.771
358.18           104.3
358.63         103.748
359.08        103.1226
359.53         102.435
359.98        101.7385
360.43        101.1141
360.88          100.57
361.33        100.0776
361.78        99.58031
362.23         98.9847
362.68        98.28165
363.13        97.52682
363.58        96.75665
364.03        96.02055
364.48        95.34113
364.93        94.69365
365.38        94.11928
365.83        93.68993
366.28         93.3868
366.73        93.15753
367.18        92.88479
367.63        92.38206
368.08        91.62129
368.53        90.69729
368.98        89.68397
369.43        88.68407
369.88        87.75416
370.33        86.87403
370.78        86.14494
371.23        85.73099
371.68        85.64613
372.13        85.83835
372.58        86.11654
373.03        86.14822
373.48        85.84081
373.93        85.28273
374.38        84.61645
374.83        84.07219
375.28        83.71354
375.72        83.45339
376.17        83.25542
376.62         83.0405
377.07        82.76823
377.52        82.45436
377.97        82.09272
378.42        81.66568
378.87        81.18253
379.32        80.66901
379.77        80.10868
380.22        79.47181
380.67        78.76165
381.11        77.98862
381.56         77.2598
382.01          76.756
382.46        76.52354
382.91        76.53365
383.36        76.60614
383.81           76.45
384.26        76.00478
384.71        75.33846
385.15        74.66409
385.60        74.37406
386.05        74.47938
386.50        74.84602
386.95        75.17628
387.40        74.98081
387.85        74.21032
388.29        73.07491
388.74        71.98732
389.19        71.23356
389.64        70.85836
390.09        70.70116
390.54         70.7285
390.98        70.88545
391.43        71.11231
391.88        71.41679
392.33        71.59142
392.78        71.32085
393.23        70.62679
393.67         69.6187
394.12         68.7034
394.57        68.24399
395.02        68.31091
395.47         68.7534
395.91        69.42471
396.36        69.95196
396.81        70.19886
397.26        70.22936
397.71        70.04543
398.15        69.56799
398.60        68.93337
399.05        68.28355
399.50        67.70446
399.95        66.93723
400.39        66.42045
400.84           66.33
401.29        66.66994
401.74        67.03429
402.18        67.26019
402.63        67.14925
403.08        66.87065
403.53        66.94679
403.97        67.40931
404.42        67.92698
404.87        68.28479
405.32        68.22673
405.76        67.68526
406.21        66.92393
406.66        66.15955
407.11        65.49472
407.55        65.14541
408.00        65.45845
408.45        66.23301
408.90        66.75035
409.34        66.71661
409.79        66.06032
410.24        65.12033
410.68        64.69382
411.13        64.89417
411.58        65.27926
412.03        65.72993
412.47        66.21992
412.92        66.61259
413.37        66.93836
413.81         67.1282
414.26        67.12256
414.71        66.91322
415.15        66.50791
415.60        66.04731
416.05        65.78625
416.49        65.79172
416.94        66.02039
417.39        66.29765
417.83          66.299
418.28         65.9718
418.73        65.43465
419.17        64.91795
419.62        64.79105
420.07        65.09033
420.51        65.68019
420.96        66.34197
421.41        66.66031
421.85        66.50146
422.30         66.2365
422.74        65.92019
423.19        65.39877
423.64        64.86331
424.08        65.08258
424.53        65.91037
424.98        66.39028
425.42        66.41468
425.87        66.60891
426.31        66.98875
426.76        67.07344
427.21        66.99743
427.65          67.342
428.10        68.04078
428.54        68.67968
428.99        69.21151
429.44        69.52789
429.88        69.58409
430.33        70.01296
430.77        70.40237
431.22        69.34418
431.66        67.31452
432.11        66.40859
432.56        66.81369
433.00        67.53648
433.45        68.46972
433.89         70.2316
434.34        71.44283
434.78        72.63365
435.23        68.53156
435.67        66.64593
436.12        69.74871
436.57        70.97195
437.01        71.15616
437.46        71.32774
437.90        71.68491
438.35        71.47112
438.79        71.86504
439.24        71.79974
439.68        71.66645
440.13        71.36025
440.57        71.20309
441.02        72.09406
441.46        73.63798
441.91        74.52536
442.35        74.48993
442.80        73.63705
443.24         72.4221
443.69        72.95189
444.13        74.83539
444.58        74.80878
445.02        73.10493
445.47        72.88773
445.91        74.11662
446.36        74.54108
446.80        74.05479
447.24         74.0886
447.69        74.74982
448.13        74.18671
448.58        74.88746
449.02        74.92177
449.47        75.03729
449.91          75.205
450.36        75.44387
450.80        75.69497
451.25        75.88111
451.69        75.91989
452.13        75.81298
452.58        75.59568
453.02        75.37791
453.47        75.37434
453.91        75.60204
454.36        75.99806
454.80        76.41273
455.24        76.51659
455.69         76.2626
456.13        75.85598
456.58        75.48197
457.02          74.995
457.46        74.67778
457.91        74.98157
458.35        75.68588
458.79        75.95042
459.24        75.71152
459.68        75.35213
460.13        75.00128
460.57        74.62647
461.01        74.32452
461.46         74.0639
461.90        73.79019
462.34         73.9482
462.79        73.49551
463.23          73.784
463.68        74.38571
464.12        74.78603
464.56        74.89245
465.01        75.03062
465.45        75.04943
465.89        74.89847
466.34        74.50539
466.78        73.38052
467.22        72.17812
467.67        71.48301
468.11        73.44328
468.55        74.14131
468.99        73.92677
469.44        73.48813
469.88        73.06601
470.32        73.09671
470.77        73.47316
471.21        73.44023
471.65        72.96041
472.10         72.6834
472.54        72.67897
472.98        72.70256
473.42        72.74074
473.87        73.03481
474.31        73.41451
474.75        73.28146
475.20        72.77672
475.64        72.74537
476.08        73.19156
476.52        73.20805
476.97        72.70144
477.41        72.82761
477.85        73.18642
478.29        72.40074
478.74        72.76292
479.18        73.57436
479.62        71.97331
480.06        72.66927
480.50        73.04963
480.95        73.42398
481.39        73.32813
481.83        72.47069
482.27        72.81853
482.72        72.59331
483.16        71.53326
483.60        71.86225
484.04         73.3327
484.48        73.50928
484.93        72.99236
485.37        74.43633
485.81        75.90448
486.25        74.09729
486.69        99.43432
487.14         81.0806
487.58        50.59888
488.02        61.95439
488.46        70.64114
488.90        70.21705
489.34        71.95529
489.79        71.35548
490.23         73.2016
490.67        74.07847
491.11        73.11944
491.55        72.95309
491.99        73.18818
492.43        72.90489
492.88        72.24143
493.32        72.35573
493.76        72.67902
494.20        73.02932
494.64         73.1234
495.08         73.2738
495.52        73.51357
495.96        73.36884
496.41        72.91296
496.85        73.41259
497.29        74.53601
497.73        73.50679
498.17        71.31615
498.61        71.50511
499.05        74.08398
499.49        74.44906
499.93         74.2224
500.37        73.91051
500.82        73.47076
501.26        73.16685
501.70        73.86071
502.14        74.07916
502.58        73.98833
503.02        73.88212
503.46        73.75749
503.90        73.37492
504.34        72.89966
504.78        72.74387
505.22         72.9628
505.66        73.44347
506.10        74.01008
506.54        74.27504
506.98         74.1289
507.42        73.85251
507.86        73.66516
508.30        73.01844
508.74        73.39211
509.18        73.56733
509.62        73.83659
510.06        73.96377
510.50        73.90601
510.94        73.72863
511.38        73.51376
511.82        73.41724
512.26        73.47633
512.70        73.63662
513.14        73.84136
513.58        74.00549
514.02        74.09029
514.46        74.11246
514.90          74.096
515.34        74.06397
515.78        74.01788
516.22        74.00666
516.66        74.00544
517.10        73.82753
517.54        73.47557
517.98        73.52277
518.42         73.2713
518.86         73.3624
519.30        73.57381
519.74        73.92599
520.18        74.32047
520.62        74.59048
521.06        74.69761
521.50        74.68443
521.93         74.5873
522.37        74.46964
522.81        74.36877
523.25         74.2676
523.69         74.2039
524.13        74.23627
524.57        74.36941
525.01        74.59247
525.45        74.83663
525.89        74.98457
526.32         74.9968
526.76        74.89707
527.20        74.74606
527.64        74.66313
528.08        74.69311
528.52        74.74152
528.96          74.716
529.40        74.68439
529.83        74.67029
530.27        73.90672
530.71        73.95557
531.15        73.79514
531.59        73.89217
532.03          74.148
532.46         74.5041
532.90        74.82619
533.34        75.04606
533.78         75.2007
534.22        75.26896
534.66        75.22982
535.09        75.08085
535.53        74.85122
535.97        74.59077
536.41        74.40623
536.85        74.33048
537.28        74.35005
537.72        74.41071
538.16        74.43202
538.60        74.39272
539.04        74.25682
539.47        74.07932
539.91        74.14291
540.35        74.37753
540.79        74.44078
541.22        74.30939
541.66         74.2495
542.10        74.25446
542.54        74.15678
542.97        74.00765
543.41        74.00342
543.85        74.14985
544.29        74.40436
544.72        74.64523
545.16         74.7131
545.60        74.56801
546.04        74.26894
546.47        73.96449
546.91        73.90249
547.35        74.13805
547.79        74.60771
548.22        75.08046
548.66        75.28699
549.10        75.08774
549.53        74.31899
549.97        73.34446
550.41        72.92101
550.84        73.16661
551.28        73.74377
551.72        74.41048
552.15        74.83364
552.59        74.87871
553.03        74.70677
553.46        74.44134
553.90        74.18277
554.34        73.96118
554.77        74.27842
555.21        73.98282
555.65          74.149
556.08        74.46206
556.52        74.04436
556.96        74.60595
557.39        74.47655
557.83        74.58735
558.27        74.56625
558.70        74.58309
559.14        74.71609
559.57        74.93707
560.01        75.17365
560.45        75.34688
560.88        75.44524
561.32        75.41882
561.75        75.08971
562.19        74.60875
562.63        74.13079
563.06        73.81561
563.50        73.97447
563.93        74.46549
564.37        74.81315
564.80        74.87839
565.24        74.79795
565.68        74.62534
566.11        74.48826
566.55          74.459
566.98        74.39227
567.42        74.38834
567.85        74.37695
568.29        75.16886
568.72        75.15864
569.16        74.86033
569.60        75.16236
570.03        75.71898
570.47        75.72972
570.90        75.51561
571.34        73.40309
571.77        74.73337
572.21         74.4921
572.64        73.98871
573.08        72.94227
573.51        69.78532
573.95        72.73866
574.38        77.74365
574.82        74.95702
