SpectraSmart Spectrum 2.9.0.0
--------- Device Information -----------
Spectrum Name :  反射率_0
Saving Time :  2024/04/26 02:09:15
Spectro-Module Model Name : SE2030-DUVN
Spectro-Module Serial Number : OS361AC55029948
Wavelength Start : 200
Wavelength End : 1025
Wavelength Unit : Wavelength(nm)
Spectrum Unit : Reflectance(%)
-----------Spectrum Setting ------------
Integration Time : 20ms
Average : 10
Boxcar : 0
Background removal :  enabled
linearity correction :  enabled
SC :  disabled
Intensity correction :  disabled
DWT denoise :  enabled
savitzky-golay :  disabled
FFT :  disabled
Running average :  disabled
Kalman :  disabled
High pass :  disabled
---------------BEGIN--------------------
Wavelength(nm)             Reflectance(%)
200.29               0
200.75        95.60181
201.21         87.5024
201.67        78.08098
202.13        72.62054
202.58        71.77939
203.04        74.45076
203.50        78.49106
203.96        80.22396
204.42        78.91334
204.88         76.0989
205.34        73.65604
205.80        73.53952
206.26        76.61001
206.72        84.62585
207.18        100.8505
207.64        115.5351
208.10        106.8568
208.55        87.99813
209.01        75.93134
209.47        71.80103
209.93        72.24143
210.39        75.46809
210.85        79.36211
211.31        79.59595
211.77        74.96618
212.23        67.36156
212.69        60.04284
213.14        58.00346
213.60        61.92283
214.06        70.28245
214.52        80.12914
214.98         86.9489
215.44        89.26074
215.90        88.31049
216.36        85.42224
216.81        82.33643
217.27        80.07961
217.73         78.1996
218.19         75.9474
218.65        72.12637
219.11        65.95446
219.57        56.50703
220.02        44.67941
220.48        37.18038
220.94        37.92137
221.40        45.64348
221.86        53.45896
222.32         53.9338
222.77        47.80604
223.23         39.0624
223.69        31.82995
224.15        30.36713
224.61        34.12673
225.06        40.90823
225.52         47.5788
225.98        50.25885
226.44        48.29483
226.90        43.44949
227.36        37.90673
227.81        34.56066
228.27        34.36613
228.73        36.13921
229.19        38.89772
229.65        41.19529
230.10        42.52803
230.56        43.35659
231.02        43.94399
231.48        44.55505
231.93        45.22898
232.39        45.80676
232.85        46.18824
233.31        46.31351
233.77        46.14832
234.22        45.73864
234.68        45.11958
235.14        44.30411
235.60        43.42791
236.05        42.65392
236.51        42.07987
236.97        41.73518
237.43        41.68408
237.88        42.02934
238.34        43.06957
238.80        45.40668
239.26        49.05764
239.71        53.76741
240.17        58.46571
240.63         61.9451
241.08        63.88463
241.54        64.36182
242.00        64.14739
242.46        64.52579
242.91        66.48037
243.37        71.28922
243.83        86.38509
244.28        136.1743
244.74        193.8162
245.20        164.1225
245.66        136.0997
246.11        128.7098
246.57        133.9392
247.03        157.1666
247.48        226.7797
247.94        191.5165
248.40        117.1339
248.85        94.34122
249.31        88.10628
249.77        88.56492
250.22        93.20352
250.68        102.4007
251.14        115.9643
251.59        125.3125
252.05        121.6339
252.51        108.7849
252.96        94.69343
253.42        87.05395
253.88        85.36723
254.33        86.76801
254.79        90.44262
255.25        94.66728
255.70        98.18108
256.16        101.5278
256.62         103.201
257.07        101.5696
257.53        97.58295
257.99        91.71705
258.44        85.72525
258.90          82.712
259.35        81.72409
259.81        81.73027
260.27        80.81763
260.72        77.12751
261.18        71.51574
261.63        64.82487
262.09        58.71528
262.55          54.389
263.00        51.81124
263.46         50.4673
263.91        49.46114
264.37         48.1435
264.83        46.27972
265.28        44.00664
265.74        41.81451
266.19        40.19277
266.65        39.37458
267.11        39.05637
267.56        38.79633
268.02        38.06875
268.47        36.74619
268.93        35.00864
269.38        33.14618
269.84        31.88755
270.30        31.42069
270.75        31.54205
271.21        31.83507
271.66        31.67476
272.12        30.90749
272.57        29.74106
273.03        28.53483
273.48        27.74244
273.94        27.49205
274.39        27.57537
274.85        27.74048
275.31        27.61807
275.76        27.11355
276.22        26.38149
276.67        25.58633
277.13        25.05063
277.58        24.78564
278.04        24.70819
278.49         24.6141
278.95        24.27802
279.40        23.64549
279.86         22.8711
280.31        22.08063
280.77        21.56424
281.22        21.33568
281.68        21.31161
282.13        21.37722
282.59        21.40245
283.04        21.34226
283.50        21.27685
283.95        21.17706
284.41        21.01407
284.86        20.79255
285.32        20.52021
285.77        20.31734
286.22        20.42944
286.68        20.85047
287.13         21.4708
287.59         22.0426
288.04        22.18811
288.50        21.87344
288.95        21.22255
289.41        20.49609
289.86        19.98206
290.32        19.81504
290.77        19.89169
291.22        20.15638
291.68        20.48452
292.13        20.84058
292.59        21.27371
293.04        21.80655
293.50        22.46562
293.95        23.23693
294.40        24.07015
294.86        24.92291
295.31        25.75187
295.77        26.55859
296.22        27.37261
296.68        28.20707
297.13         29.0477
297.58        29.91591
298.04        30.82513
298.49        31.84311
298.95        33.12276
299.40         34.6653
299.85        36.41179
300.31        38.20523
300.76        39.79562
301.21        41.09795
301.67        42.21397
302.12        43.20431
302.58        44.25135
303.03        45.39131
303.48         46.6044
303.94        47.95137
304.39        49.46854
304.84        51.15534
305.30        52.98909
305.75        54.81687
306.20        56.42145
306.66        57.77053
307.11        58.87598
307.57        59.88878
308.02        60.93603
308.47        62.11116
308.93        63.38331
309.38         64.6909
309.83        65.98267
310.29        67.22319
310.74        68.39788
311.19        69.53074
311.65        70.65696
312.10        71.77196
312.55        72.87389
313.00        73.87006
313.46        74.61884
313.91        75.08493
314.36        75.32931
314.82        75.54414
315.27        75.98238
315.72         76.7323
316.18        77.72377
316.63        78.79749
317.08        79.64365
317.53        80.16849
317.99        80.44106
318.44        80.64349
318.89        81.08039
319.35        81.79977
319.80        82.72899
320.25        83.61356
320.70        84.03733
321.16        83.91638
321.61        83.39906
322.06        82.78619
322.51        82.54656
322.97        82.77689
323.42        83.37316
323.87        84.10423
324.32        84.56892
324.78        84.63982
325.23        84.48251
325.68        84.24006
326.13        84.16927
326.59        84.33103
327.04        84.65977
327.49        85.09387
327.94        85.56849
328.39        86.04092
328.85        86.51936
329.30        86.99878
329.75        87.30912
330.20        87.44241
330.66        87.43125
331.11        87.46265
331.56        87.77179
332.01        88.42965
332.46        89.34884
332.92        90.40007
333.37        91.51071
333.82        92.51836
334.27        93.44669
334.72        94.15793
335.17        94.44384
335.63        94.29691
336.08        93.82745
336.53        93.30653
336.98        93.21741
337.43        93.68256
337.88        94.57185
338.34        95.66747
338.79        96.68224
339.24        97.45481
339.69        98.08394
340.14        98.53751
340.59        98.76505
341.05        98.79977
341.50        98.63605
341.95        98.45929
342.40        98.58036
342.85        99.05966
343.30        99.82186
343.75        100.6737
344.20        101.2567
344.66        101.4685
345.11        101.3896
345.56        101.1573
346.01        100.9824
346.46        100.9415
346.91        100.9839
347.36        101.0642
347.81        101.1181
348.26         101.136
348.72        101.1675
349.17        101.2462
349.62        101.4669
350.07        101.8242
350.52        102.2532
350.97        102.6484
351.42        102.8633
351.87        102.8637
352.32        102.7002
352.77        102.4231
353.22        102.1164
353.67        101.8234
354.13        101.5422
354.58         101.278
355.03        101.0951
355.48        100.9889
355.93         100.936
356.38        100.8684
356.83        100.6731
357.28        100.3161
357.73        99.82693
358.18        99.23344
358.63        98.58592
359.08        97.91973
359.53        97.24093
359.98        96.57639
360.43        95.96361
360.88        95.40645
361.33        94.88939
361.78        94.41383
362.23        93.97542
362.68        93.56584
363.13        93.19386
363.58        92.78985
364.03        92.24448
364.48        91.54619
364.93        90.72025
365.38        89.89816
365.83        89.30013
366.28        88.95811
366.73        88.78721
367.18        88.62906
367.63        88.22431
368.08        87.52164
368.53         86.6412
368.98        85.68398
369.43        84.79065
369.88        84.02136
370.33        83.33127
370.78        82.78168
371.23        82.47881
371.68        82.41859
372.13        82.56418
372.58        82.75755
373.03         82.7227
373.48        82.38995
373.93        81.84077
374.38        81.19704
374.83        80.65506
375.28          80.272
375.72        79.97134
376.17        79.75135
376.62        79.58413
377.07        79.43651
377.52        79.30793
377.97        79.13304
378.42        78.80073
378.87        78.30604
379.32        77.70788
379.77         77.0631
380.22        76.45202
380.67        75.89557
381.11        75.36092
381.56        74.89275
382.01        74.56924
382.46        74.40114
382.91        74.39037
383.36        74.38322
383.81        74.13069
384.26        73.59893
384.71        72.85622
385.15        72.12486
385.60         71.8074
386.05        71.91962
386.50        72.32554
386.95         72.7421
387.40        72.69374
387.85        72.11067
388.29        71.17876
388.74        70.25517
389.19        69.56778
389.64        69.16102
390.09        68.89919
390.54        68.79181
390.98        68.85915
391.43        69.06704
391.88        69.40281
392.33        69.64227
392.78        69.43459
393.23        68.78282
393.67        67.82785
394.12        66.96507
394.57        66.48077
395.02        66.47855
395.47        66.96638
395.91        67.75634
396.36        68.27073
396.81        68.36784
397.26         68.2264
397.71        67.94208
398.15        67.55421
398.60         67.1997
399.05        66.89519
399.50        66.62658
399.95        66.13057
400.39        65.74603
400.84         65.4142
401.29        65.24168
401.74        65.24844
402.18        65.38236
402.63        65.33363
403.08         65.1823
403.53        65.29619
403.97        65.67239
404.42         66.0708
404.87        66.34389
405.32        66.29796
405.76        65.87547
406.21        65.32474
406.66        64.79523
407.11        64.21525
407.55        63.80018
408.00        64.15041
408.45        65.06593
408.90        65.45667
409.34        65.14229
409.79        64.67179
410.24        64.24616
410.68        63.96802
411.13        63.91512
411.58        64.01031
412.03        64.20067
412.47        64.42639
412.92        64.60265
413.37        64.77418
413.81         64.8901
414.26        64.91527
414.71        64.82726
415.15        64.61198
415.60        64.35009
416.05        64.19727
416.49        64.19711
416.94        64.34158
417.39        64.47822
417.83        64.33212
418.28        63.88042
418.73        63.22163
419.17        62.64684
419.62        62.61274
420.07        63.15007
420.51         64.0973
420.96        65.09586
421.41        65.47112
421.85        65.04795
422.30        64.34862
422.74        63.59422
423.19        62.73399
423.64         62.0654
424.08        62.56264
424.53        63.93068
424.98        64.67992
425.42        64.59302
425.87        64.52583
426.31        64.61508
426.76        64.53409
427.21        64.48462
427.65        64.92332
428.10        65.66169
428.54        66.55998
428.99        66.94617
429.44        67.02134
429.88        66.73604
430.33         67.4165
430.77        68.42401
431.22        67.37378
431.66        64.82268
432.11        63.53522
432.56        63.85849
433.00        64.69035
433.45        65.79535
433.89        67.63352
434.34        69.07423
434.78        68.97606
435.23        66.89474
435.67        64.48905
436.12        66.78549
436.57        67.60432
437.01        68.13554
437.46        68.39768
437.90        68.46488
438.35        68.65619
438.79        68.89336
439.24        68.98475
439.68         68.9423
440.13        68.61369
440.57        68.35131
441.02        69.24873
441.46        70.89697
441.91        71.78084
442.35        71.63872
442.80        70.65634
443.24        69.33772
443.69        69.87612
444.13        71.86363
444.58        71.92213
445.02         70.2625
445.47        69.96825
445.91        71.15772
446.36        71.47745
446.80        70.91859
447.24        70.65892
447.69        70.78753
448.13        70.84882
448.58        70.92988
449.02        71.38351
449.47        72.08205
449.91        72.53625
450.36        72.67967
450.80        72.73027
451.25        72.70524
451.69         72.5186
452.13        72.22022
452.58         71.8461
453.02        71.51241
453.47        71.44216
453.91        71.65172
454.36        72.07883
454.80        72.56399
455.24        72.75923
455.69        72.59693
456.13        72.27899
456.58        71.97408
457.02        71.53239
457.46        71.13989
457.91        71.49706
458.35        71.95721
458.79        72.20092
459.24        72.04643
459.68        71.81606
460.13        71.55225
460.57        71.23676
461.01        70.97943
461.46        70.52182
461.90        69.82856
462.34        70.47607
462.79        69.89939
463.23        70.16696
463.68        70.45786
464.12        70.94302
464.56        71.40015
465.01        71.40876
465.45        70.96618
465.89        70.58103
466.34        70.20952
466.78        69.37159
467.22        68.60107
467.67        67.57942
468.11        69.25758
468.55        69.99551
468.99        70.30914
469.44        70.06688
469.88        69.46771
470.32        69.33423
470.77        69.62035
471.21        69.54327
471.65        69.08814
472.10        68.88446
472.54        68.96685
472.98        69.06201
473.42        69.14421
473.87        69.42258
474.31        69.73518
474.75         69.6018
475.20        69.13384
475.64        68.91701
476.08        68.99787
476.52        68.95214
476.97        68.79806
477.41         68.8378
477.85        69.01897
478.29        69.01623
478.74        69.28437
479.18        68.90616
479.62        68.23402
480.06        68.71774
480.50        68.92149
480.95        69.32165
481.39        69.51958
481.83        68.50211
482.27        68.81374
482.72        68.83423
483.16         67.5266
483.60         67.8642
484.04        69.30834
484.48        69.57681
484.93        69.16668
485.37        70.61761
485.81        71.24729
486.25        69.90124
486.69        94.26976
487.14        76.39886
487.58          47.619
488.02        58.36691
488.46        66.90572
488.90         66.6603
489.34        68.18987
489.79         67.0015
490.23        69.21586
490.67        69.87106
491.11        68.69986
491.55        68.62243
491.99        69.21404
492.43        69.11356
492.88        68.39478
493.32        68.40905
493.76        68.65916
494.20        68.98296
494.64        69.13298
495.08        69.30186
495.52         69.5267
495.96        69.56033
496.41        69.37559
496.85        69.76746
497.29        70.46427
497.73        69.26089
498.17        67.15973
498.61        67.29585
499.05        69.67558
499.49        70.18656
499.93        70.30266
500.37         70.0806
500.82        69.45426
501.26        69.56405
501.70         70.1343
502.14        70.37229
502.58        70.14452
503.02        69.97301
503.46        69.86501
503.90        69.51644
504.34        69.06613
504.78        68.86472
505.22        68.94346
505.66        69.25925
506.10        69.70238
506.54        69.81422
506.98        69.47158
507.42        69.60036
507.86         69.3231
508.30        68.67609
508.74        69.15385
509.18        69.30107
509.62        69.53904
510.06        69.68642
510.50        69.72113
510.94        69.66657
511.38        69.56235
511.82         69.5098
512.26        69.53141
512.70        69.59491
513.14        69.67489
513.58        69.73668
514.02        69.76277
514.46        69.76112
514.90        69.74926
515.34        69.73556
515.78         69.7147
516.22        69.74926
516.66        69.81544
517.10        69.70259
517.54        69.40641
517.98         69.5706
518.42        69.36774
518.86        69.50434
519.30        69.72086
519.74        70.05608
520.18        70.40977
520.62        70.61171
521.06        70.63156
521.50        70.51566
521.93        70.33012
522.37        70.18506
522.81        70.12457
523.25        70.11694
523.69        70.15697
524.13        70.23669
524.57        70.34375
525.01        70.48242
525.45        70.61983
525.89        70.69875
526.32        70.69724
526.76        70.62503
527.20         70.5087
527.64        70.41289
528.08        70.37322
528.52        70.32032
528.96         70.2102
529.40        70.17049
529.83        70.23371
530.27        69.65214
530.71        69.84888
531.15        69.78932
531.59        69.89517
532.03        70.09356
532.46        70.36155
532.90        70.62766
533.34        70.84328
533.78        71.02496
534.22        71.13097
534.66        71.10944
535.09        70.95131
535.53        70.69886
535.97        70.41369
536.41         70.2173
536.85        70.14574
537.28        70.17608
537.72         70.2507
538.16        70.28431
538.60        70.25458
539.04        70.13105
539.47        69.95261
539.91        70.00169
540.35        70.21995
540.79        70.21506
541.22        69.96938
541.66        70.09258
542.10        70.02042
542.54        70.02944
542.97        69.97087
543.41        69.99442
543.85        70.09339
544.29         70.2548
544.72        70.39044
545.16        70.37749
545.60        70.19028
546.04        69.87008
546.47         69.5666
546.91        69.52187
547.35        69.77272
547.79        70.28784
548.22        70.82318
548.66        70.95988
549.10        70.63224
549.53        70.01014
549.97        69.37099
550.41        69.04589
550.84        69.11423
551.28          69.499
551.72        70.04397
552.15        70.35148
552.59        70.30946
553.03        70.50173
553.46        70.15022
553.90         70.0575
554.34        70.01888
554.77        69.93262
555.21        69.82709
555.65        69.88652
556.08        70.07133
556.52        70.01168
556.96        70.06309
557.39        69.96413
557.83        69.89275
558.27        69.90338
558.70        70.00526
559.14        70.14233
559.57        70.28805
560.01          70.441
560.45        70.57473
560.88        70.72121
561.32        70.81511
561.75        70.63181
562.19        70.27462
562.63        69.80888
563.06        69.41093
563.50        69.56304
563.93        70.12208
564.37        70.39441
564.80        70.29177
565.24        70.26321
565.68        70.32579
566.11        70.21535
566.55        70.18095
566.98         70.0926
567.42        70.04766
567.85        70.10014
568.29        70.29935
568.72        70.41782
569.16        70.58033
569.60        71.04848
570.03        71.45522
570.47        71.35904
570.90        71.07967
571.34        69.26823
571.77        69.98138
572.21         70.2134
572.64         69.4902
573.08        68.63895
573.51        65.93854
573.95        68.41798
574.38        72.29217
574.82        70.47359
