SpectraSmart Spectrum 2.9.0.0
--------- Device Information -----------
Spectrum Name :  反射率_0
Saving Time :  2024/04/26 01:53:51
Spectro-Module Model Name : SE2030-DUVN
Spectro-Module Serial Number : OS361AC55029948
Wavelength Start : 200
Wavelength End : 1025
Wavelength Unit : Wavelength(nm)
Spectrum Unit : Reflectance(%)
-----------Spectrum Setting ------------
Integration Time : 20ms
Average : 10
Boxcar : 0
Background removal :  enabled
linearity correction :  enabled
SC :  disabled
Intensity correction :  disabled
DWT denoise :  enabled
savitzky-golay :  disabled
FFT :  disabled
Running average :  disabled
Kalman :  disabled
High pass :  disabled
---------------BEGIN--------------------
Wavelength(nm)             Reflectance(%)
200.29               0
200.75        97.32678
201.21        91.27394
201.67        84.22568
202.13        80.45387
202.58        80.46416
203.04        83.52936
203.50        87.34671
203.96        88.03479
204.42        85.14072
204.88        80.45263
205.34        76.35329
205.80        75.17551
206.26        77.68761
206.72        85.63858
207.18        102.2667
207.64         116.724
208.10        106.4805
208.55        86.28872
209.01         73.7909
209.47        69.94595
209.93        71.20053
210.39        75.79763
210.85        81.28107
211.31        82.46129
211.77        77.78484
212.23        69.30933
212.69        61.21967
213.14        59.96468
213.60        66.41418
214.06        78.49124
214.52        91.72824
214.98         99.3367
215.44        99.60483
215.90        94.89794
216.36        88.04796
216.81        82.92032
217.27        80.92612
217.73        80.73645
218.19        80.85777
218.65        79.33345
219.11        75.30627
219.57        68.30703
220.02        59.22829
220.48        53.86455
220.94        55.14718
221.40        61.48456
221.86        66.79391
222.32        64.72984
222.77        56.42659
223.23        46.10178
223.69        37.50743
224.15        34.43039
224.61        36.37569
225.06        41.22884
225.52        46.56021
225.98        49.59301
226.44        49.60214
226.90        47.70293
227.36        44.89113
227.81        42.38383
228.27        40.89527
228.73        39.94814
229.19        39.41483
229.65        39.18272
230.10        39.19076
230.56        39.43161
231.02        40.02562
231.48        41.08743
231.93        42.49071
232.39        44.10188
232.85        45.46075
233.31        45.90218
233.77         45.2761
234.22        43.72715
234.68        41.69626
235.14        40.08077
235.60        39.29787
236.05        39.23269
236.51         39.5515
236.97        39.64046
237.43        39.37985
237.88        39.04866
238.34        39.03604
238.80        40.27228
239.26        43.10686
239.71        47.21226
240.17        51.79984
240.63        56.05704
241.08        59.60783
241.54        62.33437
242.00        64.48578
242.46        66.83652
242.91        70.50729
243.37        77.37677
243.83        95.94998
244.28        151.0231
244.74        204.5573
245.20        163.9705
245.66        131.7612
246.11        121.9213
246.57        123.4689
247.03        138.2202
247.48        181.8235
247.94        146.5379
248.40         96.4149
248.85        82.76447
249.31         79.8083
249.77        81.21858
250.22        85.65707
250.68        93.66875
251.14        105.3645
251.59        114.0378
252.05         112.206
252.51        102.5381
252.96        90.76055
253.42        82.69467
253.88        78.16126
254.33        75.41251
254.79        74.92294
255.25         76.8199
255.70        80.10317
256.16         84.1444
256.62        87.03102
257.07        86.81683
257.53        84.14817
257.99        79.63199
258.44        74.54306
258.90         71.3428
259.35        69.44176
259.81          68.234
260.27        66.48828
260.72        62.98755
261.18        58.33844
261.63        53.03001
262.09        48.26716
262.55        44.81536
263.00        42.64584
263.46        41.44048
263.91        40.51486
264.37        39.36526
264.83        37.81006
265.28        35.91325
265.74        34.12569
266.19        32.90361
266.65        32.40738
267.11        32.34662
267.56        32.27293
268.02        31.62297
268.47        30.30362
268.93        28.51906
269.38        26.58534
269.84        25.28024
270.30        24.81645
270.75        24.97879
271.21        25.38517
271.66         25.4649
272.12        25.04459
272.57        24.29614
273.03        23.46812
273.48        22.85891
273.94        22.56631
274.39        22.44542
274.85        22.33296
275.31        22.00046
275.76        21.40436
276.22        20.66747
276.67        19.93448
277.13        19.48084
277.58         19.3076
278.04        19.33073
278.49        19.36699
278.95        19.20038
279.40        18.77493
279.86        18.22326
280.31         17.6229
280.77        17.18497
281.22        16.92306
281.68           16.78
282.13        16.71786
282.59        16.70473
283.04        16.71528
283.50          16.788
283.95        16.84145
284.41        16.75563
284.86        16.52131
285.32        16.18472
285.77        15.90031
286.22        15.95605
286.68        16.36243
287.13        16.99536
287.59        17.61686
288.04        17.87552
288.50         17.7232
288.95        17.27049
289.41        16.72798
289.86        16.31631
290.32        16.15652
290.77        16.17506
291.22        16.34976
291.68        16.60945
292.13        16.94057
292.59        17.37769
293.04        17.94745
293.50        18.67825
293.95        19.55045
294.40         20.5107
294.86        21.49257
295.31          22.417
295.77        23.27447
296.22        24.09916
296.68        24.92216
297.13        25.76069
297.58        26.65019
298.04        27.60588
298.49        28.68279
298.95        30.00988
299.40        31.59163
299.85        33.38098
300.31        35.26349
300.76        37.05146
301.21        38.66113
301.67         40.1622
302.12        41.54992
302.58        42.91215
303.03         44.2697
303.48        45.63025
303.94        47.10928
304.39        48.82859
304.84        50.80644
305.30        52.99346
305.75        55.19109
306.20        57.10957
306.66        58.69952
307.11         59.9963
307.57        61.19059
308.02        62.46862
308.47        63.93533
308.93        65.53411
309.38        67.16795
309.83        68.73247
310.29        70.17589
310.74        71.50019
311.19        72.75037
311.65        73.99249
312.10        75.23702
312.55        76.48186
313.00        77.62856
313.46        78.52435
313.91        79.13034
314.36        79.50769
314.82        79.86952
315.27        80.49941
315.72        81.48544
316.18        82.73936
316.63         84.0536
317.08        85.03894
317.53        85.58334
317.99        85.78302
318.44        85.87015
318.89        86.22937
319.35        86.93668
319.80        87.90805
320.25        88.87045
320.70        89.37186
321.16        89.31574
321.61        88.86067
322.06        88.32246
322.51        88.19286
322.97        88.56837
323.42        89.33284
323.87        90.22086
324.32        90.77735
324.78        90.85908
325.23        90.64818
325.68        90.32398
326.13        90.20611
326.59        90.37267
327.04        90.74599
327.49        91.23518
327.94         91.7264
328.39        92.16272
328.85        92.56567
329.30        92.95887
329.75        93.21084
330.20        93.32515
330.66        93.31976
331.11        93.36324
331.56        93.65658
332.01        94.26582
332.46        95.12404
332.92        96.11218
333.37        97.18852
333.82        98.19968
334.27        99.15579
334.72        99.93919
335.17        100.3765
335.63        100.4488
336.08        100.2448
336.53        99.95887
336.98        99.95766
337.43        100.3432
337.88        101.0266
338.34        101.8619
338.79        102.6879
339.24        103.3895
339.69        104.0392
340.14        104.5884
340.59        104.9522
341.05        105.1313
341.50        105.1082
341.95        105.0475
342.40        105.2308
342.85        105.7133
343.30        106.4359
343.75        107.1795
344.20        107.5522
344.66        107.4782
345.11          107.07
345.56        106.5848
346.01        106.4081
346.46        106.6317
346.91         107.132
347.36        107.7203
347.81        108.1075
348.26        108.2168
348.72        108.1528
349.17        108.0154
349.62        108.0159
350.07        108.2012
350.52        108.4836
350.97        108.7537
351.42         108.859
351.87        108.7632
352.32        108.5261
352.77         108.216
353.22        107.9354
353.67        107.7173
354.13        107.5405
354.58        107.3487
355.03        107.1158
355.48        106.8248
355.93        106.4887
356.38         106.109
356.83        105.6835
357.28        105.2141
357.73        104.7023
358.18        104.1495
358.63        103.5604
359.08        102.9466
359.53        102.3205
359.98        101.6983
360.43        101.1007
360.88        100.5259
361.33        99.95612
361.78        99.39202
362.23        98.83574
362.68        98.28805
363.13        97.76317
363.58        97.21431
364.03         96.5631
364.48        95.80562
364.93        94.96413
365.38        94.14687
365.83        93.53327
366.28        93.14396
366.73        92.90054
367.18        92.66975
367.63        92.23556
368.08        91.55293
368.53        90.72457
368.98        89.81264
369.43        88.89986
369.88        88.03435
370.33        87.18894
370.78        86.46494
371.23        86.03491
371.68        85.91473
372.13        86.05106
372.58        86.25155
373.03        86.18233
373.48        85.75789
373.93        85.07829
374.38        84.29993
374.83        83.66768
375.28        83.24987
375.72        82.95745
376.17        82.75072
376.62        82.54353
377.07        82.29056
377.52        82.00604
377.97         81.6799
378.42         81.2888
378.87        80.83939
379.32        80.35707
379.77        79.82299
380.22        79.20716
380.67        78.51279
381.11        77.74714
381.56        77.02698
382.01          76.548
382.46        76.35856
382.91        76.42963
383.36        76.55576
383.81        76.40496
384.26        75.91279
384.71        75.16001
385.15        74.40347
385.60        74.10212
386.05        74.27338
386.50        74.75555
386.95        75.20036
387.40        75.03133
387.85        74.18317
388.29        72.91367
388.74        71.67384
389.19        70.78769
389.64        70.31959
390.09        70.10782
390.54        70.13512
390.98        70.37239
391.43         70.7429
391.88        71.22176
392.33        71.58314
392.78        71.43885
393.23        70.78351
393.67        69.87733
394.12        69.06128
394.57        68.30199
395.02         67.8237
395.47        68.20036
395.91        69.24576
396.36        69.86874
396.81        69.89561
397.26        69.82355
397.71        69.70155
398.15        69.33047
398.60         68.8369
399.05         68.3499
399.50        67.91032
399.95        67.22768
400.39         66.7018
400.84        66.48031
401.29        66.60124
401.74        66.66692
402.18        66.62933
402.63        66.58897
403.08        66.61595
403.53        66.77056
403.97        67.04275
404.42        67.35419
404.87        67.57001
405.32        67.44689
405.76        66.93949
406.21        66.32359
406.66        65.75728
407.11        65.17383
407.55         64.8014
408.00        65.23058
408.45        66.23273
408.90        66.74626
409.34        66.51118
409.79         65.8347
410.24        65.03196
410.68        64.60336
411.13         64.6597
411.58        64.92216
412.03        65.29482
412.47        65.71774
412.92        66.06853
413.37        66.39098
413.81        66.61208
414.26        66.66564
414.71        66.53465
415.15        66.21479
415.60        65.84082
416.05        65.66251
416.49        65.73944
416.94        66.02811
417.39        66.33098
417.83        66.28783
418.28        65.85197
418.73         65.1683
419.17        64.52164
419.62        64.35719
420.07        64.72499
420.51         65.4654
420.96        66.32798
421.41        66.81936
421.85        66.77105
422.30        66.61395
422.74         66.3917
423.19        65.83416
423.64        65.18723
424.08        65.45902
424.53        66.47114
424.98        66.97451
425.42        66.83253
425.87        66.87496
426.31        67.16099
426.76        67.10224
427.21        66.90447
427.65        67.38898
428.10        68.39635
428.54        69.20934
428.99        69.74342
429.44        69.86934
429.88        69.69256
430.33        70.34405
430.77        71.23754
431.22        70.23624
431.66        67.84027
432.11        66.57161
432.56        66.72947
433.00        67.44747
433.45        68.63028
433.89        70.51887
434.34        71.67105
434.78        73.00489
435.23        69.33029
435.67        67.10218
436.12        69.77585
436.57        71.07332
437.01        71.93803
437.46        72.28029
437.90        72.21502
438.35        72.23978
438.79        72.34251
439.24        72.26511
439.68        72.05084
440.13         71.5879
440.57        71.25679
441.02        72.22208
441.46        74.03756
441.91        75.02528
442.35        74.90128
442.80        73.95293
443.24        72.67972
443.69        73.24715
444.13        75.25066
444.58         75.2765
445.02         73.5573
445.47        73.37363
445.91         74.6265
446.36        75.06092
446.80        74.59805
447.24        74.40091
447.69        74.56549
448.13         74.7743
448.58        75.04356
449.02        75.39489
449.47         75.7692
449.91        76.08724
450.36        76.31959
450.80         76.4672
451.25        76.51267
451.69        76.40346
452.13        76.17084
452.58         75.8381
453.02        75.52772
453.47        75.47014
453.91        75.67281
454.36        76.10296
454.80        76.60352
455.24        76.69495
455.69         76.2942
456.13        76.05153
456.58        75.54785
457.02        74.86711
457.46        74.77682
457.91        74.97562
458.35        75.49711
458.79        75.73817
459.24        75.66307
459.68        75.48602
460.13        75.28136
460.57        75.03813
461.01        74.83997
461.46        74.39034
461.90        74.26733
462.34        74.11272
462.79        73.96604
463.23        74.04403
463.68        74.26857
464.12        74.52383
464.56        74.74528
465.01         74.9986
465.45        75.07968
465.89        75.01868
466.34        74.71339
466.78        73.62891
467.22        72.33738
467.67        71.69395
468.11        72.85796
468.55         73.6576
468.99        74.02337
469.44        73.77821
469.88        73.10943
470.32        72.96718
470.77        73.32177
471.21         73.2821
471.65        72.82671
472.10        72.62952
472.54        72.71916
472.98        72.78967
473.42        72.81483
473.87        73.04638
474.31        73.33371
474.75        73.13953
475.20        72.61348
475.64        72.50834
476.08        72.83099
476.52        72.85245
476.97        72.53024
477.41        72.54218
477.85        72.93674
478.29        72.43846
478.74        72.63333
479.18         72.9637
479.62        72.01208
480.06        72.74162
480.50        73.02503
480.95        73.40316
481.39        73.42583
481.83        72.46838
482.27        72.63742
482.72        72.40716
483.16         71.1003
483.60        71.29285
484.04        72.63184
484.48        72.99027
484.93        72.96487
485.37        73.87387
485.81         74.7598
486.25        73.83355
486.69        99.78037
487.14        81.23013
487.58        50.35583
488.02         61.9313
488.46        70.34386
488.90        69.88378
489.34        71.34019
489.79         70.7861
490.23        72.76668
490.67        73.76118
491.11        72.82967
491.55        72.66714
491.99        72.89087
492.43        72.58047
492.88        71.88944
493.32        71.96425
493.76        72.22891
494.20        72.54392
494.64        72.63654
495.08        72.67782
495.52        72.77476
495.96        72.83871
496.41        72.80547
496.85        73.33178
497.29        74.10432
497.73        72.78585
498.17        70.49937
498.61        70.80159
499.05        73.62627
499.49        74.21445
499.93        74.09132
500.37        73.55785
500.82        72.66115
501.26        72.70554
501.70        73.40988
502.14        73.81596
502.58        73.71291
503.02        73.63039
503.46        73.54934
503.90        73.12217
504.34        72.53867
504.78        72.28724
505.22        72.43897
505.66         72.8364
506.10         73.3231
506.54        73.59874
506.98        73.54213
507.42        73.31705
507.86        73.09721
508.30        72.48972
508.74        72.71516
509.18        72.73559
509.62        72.83463
510.06        72.91772
510.50        72.96321
510.94        72.98919
511.38        73.01052
511.82        73.07017
512.26        73.17204
512.70        73.29642
513.14        73.41165
513.58        73.47523
514.02        73.47295
514.46        73.41193
514.90        73.33355
515.34        73.28938
515.78        73.28251
516.22        73.35637
516.66        73.46203
517.10        73.36457
517.54        73.04996
517.98        73.10816
518.42        72.83126
518.86        72.87583
519.30        73.02466
519.74        73.30162
520.18        73.62333
520.62        73.84858
521.06        73.94424
521.50         73.9435
521.93        73.87777
522.37        73.79862
522.81        73.73491
523.25          73.674
523.69          73.631
524.13        73.63002
524.57        73.67577
525.01        73.76846
525.45        73.88605
525.89         73.9893
526.32        74.05245
526.76        74.07085
527.20        74.05377
527.64        74.03791
528.08        74.04671
528.52        74.01546
528.96        73.87896
529.40        73.74532
529.83         73.6563
530.27        72.84514
530.71        72.86122
531.15        72.71258
531.59        72.85802
532.03        73.19752
532.46        73.65072
532.90        74.04405
533.34        74.29663
533.78        74.45174
534.22        74.50415
534.66        74.46044
535.09        74.32587
535.53        74.12165
535.97        73.88658
536.41        73.71064
536.85        73.62276
537.28        73.61495
537.72        73.64715
538.16        73.65984
538.60        73.63548
539.04         73.5324
539.47        73.38544
539.91        73.44457
540.35        73.63707
540.79        73.63692
541.22        73.44655
541.66        73.36622
542.10        73.39898
542.54        73.36882
542.97        73.30306
543.41        73.35778
543.85        73.52126
544.29        73.75849
544.72        73.96629
545.16        73.97953
545.60        73.75491
546.04         73.4531
546.47        73.18989
546.91        72.90166
547.35        72.75522
547.79        73.30385
548.22        74.21996
548.66        74.47625
549.10        73.96301
549.53        73.14719
549.97        72.37882
550.41        72.00061
550.84        72.11866
551.28        72.61629
551.72        73.28581
552.15        73.70921
552.59         73.7608
553.03        73.83507
553.46        73.52613
553.90        73.42244
554.34        73.42543
554.77        73.39566
555.21         73.3157
555.65        73.38375
556.08        73.63078
556.52        73.19666
556.96        73.72729
557.39        73.51935
557.83        73.19531
558.27        73.17162
558.70        73.46629
559.14        73.70043
559.57        73.81801
560.01        74.05206
560.45        74.31758
560.88        74.37334
561.32        74.21609
561.75        73.90437
562.19         73.5553
562.63        73.11903
563.06        72.72931
563.50        72.77619
563.93        73.15758
564.37        73.40888
564.80        73.44182
565.24        73.49763
565.68        73.56488
566.11        73.57612
566.55        73.58366
566.98        73.52911
567.42        73.44741
567.85        73.55611
568.29        73.89565
568.72        73.92694
569.16        73.78371
569.60        74.60371
570.03        74.78952
570.47        74.76172
570.90        74.52644
571.34        72.58501
571.77         73.7933
572.21        73.70675
572.64        73.53771
573.08         72.1893
573.51        69.32053
573.95        71.92271
574.38        76.33991
574.82        74.33816
