SpectraSmart Spectrum 2.9.0.0
--------- Device Information -----------
Spectrum Name :  反射率_0
Saving Time :  2024/04/26 02:07:23
Spectro-Module Model Name : SE2030-DUVN
Spectro-Module Serial Number : OS361AC55029948
Wavelength Start : 200
Wavelength End : 1025
Wavelength Unit : Wavelength(nm)
Spectrum Unit : Reflectance(%)
-----------Spectrum Setting ------------
Integration Time : 20ms
Average : 10
Boxcar : 0
Background removal :  enabled
linearity correction :  enabled
SC :  disabled
Intensity correction :  disabled
DWT denoise :  enabled
savitzky-golay :  disabled
FFT :  disabled
Running average :  disabled
Kalman :  disabled
High pass :  disabled
---------------BEGIN--------------------
Wavelength(nm)             Reflectance(%)
200.29               0
200.75        95.18077
201.21        86.65571
201.67          76.651
202.13        69.68871
202.58        66.37977
203.04        65.76701
203.50        66.98769
203.96        68.55356
204.42        69.72049
204.88        70.82729
205.34        71.90575
205.80        73.15674
206.26        74.99374
206.72        78.05222
207.18        83.31597
207.64        87.98389
208.10        85.19947
208.55        78.81185
209.01        74.57685
209.47        72.91391
209.93        72.70097
210.39        73.60182
210.85        74.56783
211.31        73.55836
211.77        70.24599
212.23        65.41831
212.69        61.46828
213.14        62.20226
213.60        67.85734
214.06        77.37766
214.52        87.39645
214.98        92.80834
215.44        92.41269
215.90        87.79585
216.36        81.72777
216.81         78.0556
217.27        77.85277
217.73         79.7789
218.19        81.56401
218.65        80.18496
219.11         74.5258
219.57        63.86716
220.02        49.80795
220.48        41.49835
220.94        44.08811
221.40        55.12514
221.86        65.48682
222.32        65.66819
222.77        56.90903
223.23         44.6672
223.69        34.34229
224.15        31.37751
224.61        35.11249
225.06        42.68253
225.52        50.33402
225.98        53.33247
226.44         50.8765
226.90        45.13528
227.36        38.61115
227.81        34.62218
228.27        34.23233
228.73        36.01851
229.19        39.02558
229.65        41.86742
230.10         43.8862
230.56        45.45258
231.02        46.51075
231.48        46.92964
231.93        46.80321
232.39         46.1954
232.85        45.33188
233.31        44.66294
233.77        44.30233
234.22        44.14314
234.68        44.14524
235.14        44.12539
235.60        44.03578
236.05        44.02198
236.51        44.03485
236.97        43.92315
237.43         43.7175
237.88        43.49811
238.34        43.54493
238.80          44.676
239.26        47.12894
239.71         50.6461
240.17        54.44733
240.63        57.67821
241.08        60.02646
241.54        61.55002
242.00        62.35306
242.46        62.67208
242.91        62.78328
243.37        62.06213
243.83        61.57286
244.28        74.46503
244.74        115.6598
245.20        126.1288
245.66        119.4985
246.11        116.4992
246.57        116.7861
247.03        120.0121
247.48           120.2
247.94        82.41582
248.40         72.9842
248.85        74.14578
249.31        76.69019
249.77        80.13454
250.22        85.10278
250.68        93.11764
251.14        103.8181
251.59         109.313
252.05        102.7478
252.51        88.20216
252.96         73.8096
253.42          66.897
253.88        66.61725
254.33        70.17233
254.79         75.9933
255.25        81.23288
255.70        84.62648
256.16        87.22823
256.62        88.12031
257.07         86.2415
257.53        82.53213
257.99        77.32191
258.44        72.26728
258.90        70.25069
259.35        70.27361
259.81        71.18118
260.27        71.10905
260.72         68.2694
261.18        63.42548
261.63        57.40878
262.09        51.75342
262.55        47.55923
263.00        44.88126
263.46        43.33074
263.91        42.13816
264.37        40.71422
264.83        38.86408
265.28        36.69157
265.74        34.73495
266.19        33.57066
266.65        33.34015
267.11        33.65382
267.56         33.9405
268.02        33.52378
268.47        32.29975
268.93        30.50997
269.38        28.51843
269.84        27.18768
270.30        26.75566
270.75        26.97926
271.21        27.43914
271.66        27.50611
272.12        27.00591
272.57        26.14921
273.03        25.22423
273.48        24.58148
273.94        24.32799
274.39        24.28034
274.85        24.27049
275.31        24.06343
275.76        23.59442
276.22        22.98619
276.67         22.3186
277.13        21.77734
277.58        21.37157
278.04        21.07545
278.49        20.80512
278.95        20.48905
279.40         20.0886
279.86         19.6787
280.31        19.27736
280.77        19.00643
281.22        18.84553
281.68        18.77205
282.13        18.73323
282.59        18.68004
283.04        18.59782
283.50        18.53321
283.95        18.46535
284.41        18.37631
284.86        18.26387
285.32        18.13207
285.77        18.06127
286.22        18.22778
286.68        18.61758
287.13        19.14803
287.59        19.61402
288.04        19.70977
288.50        19.41378
288.95        18.82318
289.41        18.17562
289.86        17.73068
290.32        17.60663
290.77        17.71152
291.22        17.97598
291.68        18.25261
292.13        18.51119
292.59        18.81267
293.04        19.21069
293.50        19.78177
293.95        20.52507
294.40        21.37193
294.86        22.26549
295.31        23.14052
295.77        23.98282
296.22         24.8243
296.68        25.66044
297.13         26.4473
297.58        27.21141
298.04        27.99011
298.49        28.88078
298.95        30.07926
299.40        31.60603
299.85        33.39011
300.31        35.29325
300.76        37.09097
301.21        38.68004
301.67        40.13343
302.12        41.44099
302.58        42.68263
303.03        43.87914
303.48        45.04111
303.94        46.28671
304.39        47.74516
304.84        49.44389
305.30        51.33918
305.75        53.25549
306.20        54.93467
306.66        56.33471
307.11        57.48731
307.57        58.55599
308.02        59.68727
308.47        60.97204
308.93        62.35756
309.38        63.77014
309.83        65.14289
310.29        66.43047
310.74        67.62488
311.19        68.73191
311.65        69.75929
312.10         70.7064
312.55        71.58391
313.00        72.35207
313.46        72.95631
313.91        73.38315
314.36        73.67212
314.82         73.9598
315.27        74.40998
315.72        75.08955
316.18        75.95621
316.63        76.89249
317.08        77.65897
317.53        78.18155
317.99        78.50343
318.44        78.77757
318.89        79.26469
319.35        79.99959
319.80        80.92525
320.25        81.79951
320.70        82.22425
321.16        82.12274
321.61        81.63492
322.06         81.0594
322.51        80.86473
322.97        81.14496
323.42        81.79265
323.87        82.57109
324.32        83.06979
324.78        83.15353
325.23        82.98344
325.68        82.69889
326.13        82.55087
326.59        82.60539
327.04        82.81056
327.49        83.10963
327.94        83.44324
328.39        83.77872
328.85        84.12486
329.30        84.51514
329.75        84.84565
330.20        85.11209
330.66        85.32162
331.11        85.57718
331.56        85.98061
332.01        86.57056
332.46         87.2942
332.92        88.09499
333.37        89.03592
333.82        90.00873
334.27        91.00003
334.72        91.83886
335.17        92.25472
335.63        92.20691
336.08        91.82124
336.53        91.35192
336.98         91.2521
337.43        91.64339
337.88        92.40147
338.34        93.33784
338.79        94.21909
339.24         94.9052
339.69        95.48793
340.14        95.93559
340.59        96.18989
341.05        96.27609
341.50        96.19205
341.95        96.10414
342.40        96.29527
342.85         96.8206
343.30        97.60709
343.75        98.47895
344.20        99.11003
344.66        99.40232
345.11        99.42247
345.56        99.28368
346.01        99.16302
346.46         99.1282
346.91        99.13656
347.36        99.16254
347.81        99.17097
348.26        99.16248
348.72        99.18514
349.17        99.25101
349.62        99.42062
350.07        99.68568
350.52        99.99359
350.97         100.286
351.42        100.4847
351.87        100.5643
352.32        100.5535
352.77        100.4343
353.22        100.1841
353.67        99.82324
354.13        99.37827
354.58        98.93094
355.03        98.66792
355.48        98.61033
355.93        98.69556
356.38        98.77763
356.83        98.61844
357.28        98.16119
357.73        97.48801
358.18        96.70045
358.63        95.96083
359.08        95.33434
359.53        94.78384
359.98        94.29868
360.43         93.8616
360.88        93.44838
361.33        93.05224
361.78        92.65941
362.23        92.24139
362.68        91.78817
363.13        91.31457
363.58        90.77346
364.03        90.09401
364.48        89.28369
364.93        88.37184
365.38        87.49503
365.83         86.8745
366.28        86.54295
366.73        86.41595
367.18        86.33547
367.63        86.04047
368.08        85.46609
368.53        84.71513
368.98        83.86462
369.43        83.02512
369.88        82.24898
370.33        81.50137
370.78        80.85063
371.23         80.4158
371.68        80.20962
372.13          80.205
372.58        80.27242
373.03        80.18015
373.48        79.86635
373.93        79.39297
374.38        78.86015
374.83        78.42902
375.28        78.13715
375.72        77.91248
376.17        77.72379
376.62        77.49863
377.07        77.20583
377.52        76.86537
377.97         76.4754
378.42        76.02821
378.87        75.54243
379.32         75.0437
379.77        74.54091
380.22         74.0418
380.67        73.54419
381.11        73.03455
381.56        72.56277
382.01        72.21552
382.46        72.01166
382.91        71.94981
383.36         71.8869
383.81        71.59584
384.26        71.04781
384.71        70.30438
385.15        69.58563
385.60        69.28625
386.05        69.41499
386.50        69.83393
386.95        70.24235
387.40        70.13654
387.85        69.45183
388.29        68.40215
388.74          67.365
389.19        66.59553
389.64        66.14818
390.09        65.88586
390.54        65.82356
390.98        65.98782
391.43        66.32532
391.88        66.80028
392.33        67.17461
392.78        67.04708
393.23        66.40805
393.67        65.50953
394.12        64.70073
394.57        64.00777
395.02        63.63735
395.47         64.0715
395.91        65.11361
396.36        65.74175
396.81        65.77752
397.26        65.66892
397.71         65.4871
398.15        65.08186
398.60        64.58015
399.05        64.13609
399.50         63.7556
399.95        63.03017
400.39        62.37774
400.84        62.15367
401.29        62.39236
401.74        62.54184
402.18        62.53359
402.63        62.53314
403.08        62.61662
403.53        62.83068
403.97        63.16729
404.42        63.54825
404.87        63.79041
405.32        63.62963
405.76        63.03642
406.21         62.1664
406.66        61.28875
407.11        60.83896
407.55        60.91887
408.00        61.26884
408.45        61.72684
408.90        62.23462
409.34         62.5204
409.79         62.0612
410.24        61.14599
410.68        60.71806
411.13        60.88344
411.58        61.15444
412.03        61.43307
412.47        61.75089
412.92         62.0014
413.37         62.2092
413.81        62.32872
414.26        62.32395
414.71        62.18253
415.15        61.90623
415.60        61.58297
416.05        61.37743
416.49        61.33783
416.94        61.44808
417.39        61.58214
417.83        61.50607
418.28        61.19065
418.73        60.71516
419.17        60.28787
419.62         60.2432
420.07        60.60372
420.51         61.2506
420.96        61.93171
421.41        62.18183
421.85        61.87893
422.30        61.39349
422.74        60.86537
423.19        60.31305
423.64        59.91175
424.08        60.24457
424.53        61.14316
424.98        61.72531
425.42        61.85376
425.87         62.1116
426.31        62.48613
426.76         62.4232
427.21         62.1013
427.65        62.28704
428.10        62.93242
428.54         63.5026
428.99        63.95733
429.44        64.22594
429.88        64.29623
430.33         64.8736
430.77        65.45306
431.22        64.46536
431.66        62.39314
432.11        61.20938
432.56         61.1915
433.00        62.08561
433.45        63.72929
433.89        65.25102
434.34        65.53286
434.78        67.24173
435.23        63.69017
435.67        62.09235
436.12        63.90377
436.57        65.03754
437.01        65.99587
437.46        66.36877
437.90         66.2599
438.35        66.14457
438.79        66.33138
439.24        66.31429
439.68        66.20499
440.13        66.04716
440.57        66.06528
441.02        66.80694
441.46        67.98344
441.91        68.84873
442.35        69.09145
442.80         68.3396
443.24        67.03065
443.69         67.4287
444.13         69.1926
444.58        69.15331
445.02          67.537
445.47         67.3339
445.91        68.45441
446.36        68.86221
446.80        68.48345
447.24        68.36495
447.69        68.58495
448.13        68.83952
448.58        69.13843
449.02        69.50611
449.47        69.88383
449.91        70.19365
450.36        70.41022
450.80        70.53261
451.25        70.56773
451.69        70.50313
452.13        70.36935
452.58         70.1735
453.02        69.98697
453.47         69.9603
453.91        70.09833
454.36        70.36884
454.80        70.65079
455.24        70.65993
455.69        70.36666
456.13        69.97147
456.58        69.64668
457.02         69.2436
457.46        68.98457
457.91        69.44624
458.35        70.35112
458.79        70.74387
459.24        70.57213
459.68        70.20146
460.13        69.72392
460.57        69.42503
461.01         69.4804
461.46        68.65445
461.90        68.29102
462.34        69.22166
462.79        68.31525
463.23        68.66707
463.68        69.12877
464.12        69.43259
464.56        69.47092
465.01        69.49646
465.45        69.39304
465.89        69.18726
466.34        68.85936
466.78        67.87239
467.22         66.6875
467.67        66.62427
468.11        67.64348
468.55        68.41585
468.99         68.6189
469.44        68.40137
469.88        67.95515
470.32        68.01384
470.77        68.49814
471.21        68.53571
471.65        68.08149
472.10         67.7721
472.54         67.7094
472.98        67.69804
473.42        67.72965
473.87        68.10538
474.31        68.58189
474.75        68.27411
475.20        67.41195
475.64        67.25543
476.08        67.81152
476.52        67.91504
476.97        67.52431
477.41        67.58895
477.85         68.2009
478.29         67.4922
478.74        68.49405
479.18        68.19415
479.62        67.27325
480.06        67.73799
480.50        68.09983
480.95        68.46991
481.39        68.37054
481.83        67.69958
482.27        67.96297
482.72        67.42516
483.16        66.50627
483.60        66.67906
484.04        68.17991
484.48        68.60116
484.93        68.47019
485.37        69.78848
485.81        70.31817
486.25        68.92679
486.69        92.64716
487.14        75.10455
487.58        47.04023
488.02        57.79741
488.46        65.96437
488.90        65.92542
489.34        67.23589
489.79        66.44361
490.23        68.61475
490.67        69.48022
491.11        68.49299
491.55        68.41343
491.99        68.84774
492.43        68.64274
492.88        67.89971
493.32        67.82893
493.76        67.94925
494.20        68.17177
494.64        68.25837
495.08        68.41718
495.52        68.66763
495.96        68.65894
496.41         68.3897
496.85        68.82584
497.29         69.6794
497.73        68.56596
498.17        66.47697
498.61         66.6741
499.05        69.15368
499.49        69.69328
499.93        69.74754
500.37        69.47826
500.82        68.83591
501.26        68.88115
501.70        69.37362
502.14        69.66479
502.58        69.58043
503.02        69.45149
503.46        69.26812
503.90        68.82368
504.34        68.29556
504.78        68.04803
505.22        68.11648
505.66        68.50136
506.10         69.0641
506.54        69.22855
506.98         68.8356
507.42        69.32848
507.86        68.52911
508.30        68.55126
508.74        68.75155
509.18        69.13699
509.62        69.52704
510.06        69.60425
510.50        69.37346
510.94        69.08332
511.38        68.86165
511.82         68.7407
512.26        68.76956
512.70        68.98114
513.14        69.28538
513.58        69.52184
514.02        69.64148
514.46        69.62542
514.90        69.50484
515.34        69.63393
515.78        69.50862
516.22        69.58122
516.66        69.66012
517.10         69.5275
517.54        69.17364
517.98        69.27013
518.42        69.00237
518.86        69.09482
519.30        69.29211
519.74         69.6272
520.18        70.00111
520.62        70.24547
521.06        70.32526
521.50        70.28451
521.93        70.16767
522.37        70.05021
522.81         69.9698
523.25        69.90379
523.69        69.87518
524.13        69.92146
524.57        70.03996
525.01        70.22117
525.45        70.40899
525.89        70.50706
526.32        70.48397
526.76        70.36482
527.20        70.19188
527.64        70.05375
528.08        69.99335
528.52        69.93127
528.96         69.8217
529.40        69.78936
529.83        69.86292
530.27        69.30078
530.71        69.50771
531.15        69.43557
531.59        69.50336
532.03        69.64589
532.46        69.85951
532.90        70.10589
533.34        70.34404
533.78        70.57803
534.22        70.75153
534.66        70.79012
535.09        70.67701
535.53        70.46114
535.97        70.20148
536.41        70.01587
536.85        69.94126
537.28        69.95247
537.72        70.00533
538.16        70.03726
538.60         70.0279
539.04        69.94382
539.47        69.81029
539.91        69.85252
540.35        70.00191
540.79        69.94859
541.22         69.7146
541.66         69.6319
542.10        69.68347
542.54        69.70896
542.97        69.70433
543.41        69.77296
543.85        69.88551
544.29        70.07087
544.72        70.25758
545.16         70.2003
545.60        69.83953
546.04        69.84217
546.47        69.39078
546.91        69.25025
547.35        69.27014
547.79        69.91013
548.22        70.82623
548.66         71.0427
549.10        70.49257
549.53        69.69778
549.97        69.00761
550.41        68.68483
550.84        68.83704
551.28        69.39396
551.72        70.10989
552.15        70.53262
552.59        70.53981
553.03        70.29989
553.46        69.95439
553.90         69.7365
554.34        69.69933
554.77        69.88355
555.21        69.79836
555.65        70.03295
556.08        70.41271
556.52        69.89722
556.96         70.1352
557.39        69.87602
557.83        69.71363
558.27        69.74986
558.70        69.97449
559.14        70.16539
559.57        70.26492
560.01        70.41811
560.45        70.58926
560.88        70.64575
561.32        70.58187
561.75        70.44515
562.19        70.29324
562.63        69.88985
563.06        69.40556
563.50        69.51815
563.93         70.0801
564.37        70.30241
564.80         70.1061
565.24        69.96207
565.68         69.9101
566.11        69.83298
566.55        69.79018
566.98        69.78186
567.42        69.82763
567.85        69.95599
568.29         70.2024
568.72        70.34873
569.16        70.49429
569.60        70.89931
570.03        71.22964
570.47        70.93176
570.90        70.34503
571.34        68.66637
571.77        69.82346
572.21        69.70657
572.64        69.21906
573.08        68.81255
573.51        65.60001
573.95        68.06255
574.38        72.10646
574.82        69.96251
