SpectraSmart Spectrum 2.9.0.0
--------- Device Information -----------
Spectrum Name :  反射率_0
Saving Time :  2024/04/26 01:28:49
Spectro-Module Model Name : SE2030-DUVN
Spectro-Module Serial Number : OS361AC55029948
Wavelength Start : 200
Wavelength End : 1025
Wavelength Unit : Wavelength(nm)
Spectrum Unit : Reflectance(%)
-----------Spectrum Setting ------------
Integration Time : 20ms
Average : 10
Boxcar : 0
Background removal :  enabled
linearity correction :  enabled
SC :  disabled
Intensity correction :  disabled
DWT denoise :  enabled
savitzky-golay :  disabled
FFT :  disabled
Running average :  disabled
Kalman :  disabled
High pass :  disabled
---------------BEGIN--------------------
Wavelength(nm)             Reflectance(%)
200.29               0
200.75         95.4449
201.21        86.98142
201.67         77.4762
202.13        72.26221
202.58        71.89491
203.04         75.0453
203.50        79.34375
203.96         80.7905
204.42        78.68853
204.88        74.92696
205.34        71.29481
205.80         69.3227
206.26        69.24242
206.72        71.05968
207.18         75.8036
207.64        80.98347
208.10         79.5571
208.55        74.79943
209.01        71.41228
209.47        69.97181
209.93        69.61482
210.39        69.80327
210.85        69.98733
211.31        69.21627
211.77         67.4754
212.23        65.46311
212.69        64.17256
213.14        65.25591
213.60        68.62507
214.06        73.65189
214.52        79.49338
214.98        84.98843
215.44        89.17251
215.90        91.87415
216.36         92.4749
216.81        89.95264
217.27        85.22219
217.73        79.42174
218.19        73.02541
218.65        66.07404
219.11        58.02331
219.57        47.35447
220.02        35.67146
220.48         31.3651
220.94        38.13738
221.40        53.19933
221.86        66.39311
222.32        67.63144
222.77        58.56401
223.23        45.01772
223.69        33.08927
224.15        28.96175
224.61           32.07
225.06        39.40695
225.52        47.04182
225.98        50.00608
226.44        47.42091
226.90        41.46686
227.36        34.84381
227.81        31.12673
228.27        31.35842
228.73        34.03596
229.19        37.66058
229.65        40.09408
230.10        40.78407
230.56        40.53436
231.02        40.07233
231.48        40.15615
231.93        40.86041
232.39        41.85247
232.85        42.72216
233.31        42.93861
233.77        42.37656
234.22        41.21064
234.68        39.86267
235.14        39.06038
235.60         39.0997
236.05        39.84414
236.51        40.85376
236.97        41.45679
237.43        41.53438
237.88        41.27846
238.34        41.16971
238.80        42.45515
239.26         45.5595
239.71        50.09996
240.17        54.77408
240.63        57.86963
241.08        58.92667
241.54        58.32856
242.00        56.97914
242.46        56.09195
242.91        56.31836
243.37        57.97363
243.83        65.63009
244.28        99.76951
244.74        155.3299
245.20        146.0987
245.66        128.3843
246.11        125.9607
246.57        136.2805
247.03        169.9693
247.48        269.3087
247.94        229.6454
248.40        126.5583
248.85        93.66594
249.31        83.62408
249.77        82.52044
250.22        86.45443
250.68        95.40046
251.14        109.0562
251.59        118.5865
252.05        114.9899
252.51        102.0254
252.96        87.90095
253.42        80.59501
253.88        79.51118
254.33        81.59646
254.79        85.36723
255.25         88.3272
255.70        89.57784
256.16        90.34479
256.62         89.9463
257.07        87.50411
257.53        83.74471
257.99        78.72049
258.44        73.75922
258.90        71.39234
259.35        70.70268
259.81        70.83267
260.27        70.03558
260.72        66.60739
261.18        61.34227
261.63        55.04169
262.09        49.32834
262.55        45.43104
263.00        43.30614
263.46        42.40033
263.91        41.78627
264.37         40.7216
264.83        39.01468
265.28        36.83397
265.74        34.75479
266.19        33.41481
266.65        32.99667
267.11        33.11086
267.56        33.20671
268.02        32.61779
268.47        31.23518
268.93        29.30136
269.38        27.17613
269.84        25.71464
270.30        25.16398
270.75        25.29364
271.21        25.68917
271.66        25.72974
272.12        25.23312
272.57        24.38947
273.03        23.49445
273.48        22.91226
273.94        22.74343
274.39         22.8106
274.85        22.87674
275.31        22.60903
275.76        21.94637
276.22        21.04733
276.67        20.13064
277.13        19.58012
277.58        19.41856
278.04        19.52982
278.49        19.66507
278.95        19.51792
279.40        19.01862
279.86        18.32956
280.31        17.59539
280.77        17.12619
281.22        16.94484
281.68        16.95151
282.13        17.02597
282.59        17.02148
283.04        16.89917
283.50        16.74559
283.95        16.55457
284.41        16.32047
284.86        16.05914
285.32        15.77212
285.77        15.56663
286.22        15.66028
286.68        16.04147
287.13        16.61263
287.59        17.14417
288.04        17.29437
288.50         17.0274
288.95        16.45575
289.41        15.80583
289.86        15.32686
290.32        15.13991
290.77        15.15581
291.22        15.34157
291.68        15.60864
292.13         15.9308
292.59        16.34284
293.04        16.84237
293.50        17.41526
293.95        18.04003
294.40        18.67669
294.86        19.30936
295.31        19.93825
295.77        20.56778
296.22        21.20906
296.68        21.84376
297.13        22.40904
297.58        22.92342
298.04        23.43106
298.49        24.02941
298.95        24.90542
299.40        26.07972
299.85        27.48619
300.31         28.9917
300.76        30.38536
301.21        31.58281
301.67        32.66694
302.12        33.65024
302.58        34.62526
303.03        35.61624
303.48        36.61544
303.94        37.73111
304.39        39.08581
304.84        40.69551
305.30        42.51927
305.75        44.36279
306.20        45.93127
306.66        47.18959
307.11        48.20392
307.57        49.18709
308.02         50.3724
308.47        51.86348
308.93        53.57838
309.38        55.41367
309.83        57.24421
310.29        58.99178
310.74         60.6516
311.19        62.21427
311.65        63.67539
312.10        65.03424
312.55        66.29562
313.00        67.42146
313.46        68.36235
313.91        69.10311
314.36        69.67898
314.82        70.23196
315.27        70.94184
315.72        71.87788
316.18        72.99422
316.63         74.1624
317.08        75.11974
317.53        75.78774
317.99         76.2243
318.44        76.58559
318.89         77.1384
319.35        77.92493
319.80        78.88069
320.25        79.79366
320.70        80.31501
321.16        80.36745
321.61        80.07205
322.06        79.65878
322.51        79.48948
322.97        79.64178
323.42        80.04388
323.87        80.53574
324.32        80.84104
324.78        80.87042
325.23        80.75032
325.68        80.57345
326.13        80.50909
326.59        80.59261
327.04        80.79266
327.49        81.06564
327.94        81.37205
328.39        81.68603
328.85        82.00499
329.30        82.34962
329.75          82.606
330.20        82.77144
330.66        82.86311
331.11        83.00761
331.56        83.34076
332.01        83.90725
332.46        84.64519
332.92        85.47258
333.37        86.39924
333.82        87.30219
334.27        88.18118
334.72        88.88934
335.17        89.19888
335.63        89.08633
336.08        88.66724
336.53        88.18423
336.98        88.07012
337.43         88.4379
337.88        89.16606
338.34        90.07555
338.79        90.94425
339.24        91.63384
339.69         92.2314
340.14        92.67941
340.59        92.88058
341.05         92.8531
341.50         92.6058
341.95        92.35123
342.40        92.43687
342.85        92.92568
343.30        93.72884
343.75        94.61511
344.20        95.16203
344.66        95.26101
345.11        95.02708
345.56        94.64939
346.01        94.41674
346.46        94.41707
346.91        94.55757
347.36        94.77086
347.81        94.95887
348.26        95.09004
348.72        95.22827
349.17        95.35138
349.62        95.46558
350.07        95.56891
350.52        95.63593
350.97        95.68445
351.42        95.75663
351.87        95.85066
352.32        95.95159
352.77         95.9981
353.22        95.89317
353.67        95.62385
354.13        95.23921
354.58        94.79348
355.03        94.42828
355.48        94.17443
355.93        93.99062
356.38        93.81175
356.83        93.53242
357.28         93.1217
357.73        92.61504
358.18        92.04776
358.63        91.47299
359.08        90.91508
359.53         90.3651
359.98        89.81355
360.43        89.24671
360.88        88.65693
361.33        88.04256
361.78        87.43307
362.23        86.87318
362.68        86.37413
363.13        85.93666
363.58        85.48711
364.03        84.90609
364.48        84.17858
364.93        83.33734
365.38        82.51263
365.83        81.91872
366.28        81.58566
366.73        81.42641
367.18        81.28116
367.63        80.89234
368.08        80.20444
368.53        79.32864
368.98        78.36552
369.43        77.45696
369.88        76.66141
370.33        75.93723
370.78        75.32928
371.23        74.91631
371.68        74.69602
372.13        74.64533
372.58        74.65244
373.03         74.5175
373.48        74.18909
373.93        73.72588
374.38         73.2009
374.83        72.73325
375.28        72.35773
375.72        72.01659
376.17        71.73275
376.62        71.51987
377.07        71.35703
377.52        71.22637
377.97        71.05104
378.42        70.70474
378.87        70.17844
379.32        69.54109
379.77        68.85264
380.22        68.19408
380.67        67.58811
381.11        67.00115
381.56        66.48387
382.01        66.12516
382.46        65.93862
382.91        65.92442
383.36        65.92193
383.81        65.67036
384.26        65.13153
384.71        64.37364
385.15        63.62618
385.60        63.29509
386.05        63.39719
386.50        63.78959
386.95        64.18111
387.40        64.08365
387.85        63.43323
388.29        62.44376
388.74        61.46212
389.19        60.72565
389.64        60.28452
390.09        60.00322
390.54        59.91822
390.98        60.09361
391.43         60.4883
391.88        61.05812
392.33        61.52328
392.78        61.45659
393.23        60.84611
393.67        59.85995
394.12        58.91295
394.57        58.35326
395.02         58.2922
395.47        58.69758
395.91        59.39459
396.36        59.86527
396.81        59.97029
397.26        59.87444
397.71         59.6423
398.15         59.2516
398.60        58.81881
399.05         58.4486
399.50        58.15565
399.95        57.57178
400.39        57.07505
400.84        57.02114
401.29        57.39651
401.74        57.54861
402.18        57.41723
402.63        57.30118
403.08         57.2963
403.53         57.3874
403.97        57.58003
404.42        57.84992
404.87        58.05667
405.32        57.94963
405.76          57.492
406.21        56.88216
406.66        56.29119
407.11        55.86856
407.55        55.75304
408.00        56.05881
408.45        56.65321
408.90        57.15701
409.34        57.33979
409.79        57.02565
410.24         56.4239
410.68        56.13063
411.13        56.23196
411.58        56.39696
412.03        56.58728
412.47        56.88503
412.92        57.21479
413.37        57.57254
413.81        57.87445
414.26        58.02962
414.71        58.00747
415.15        57.82427
415.60        57.57024
416.05        57.41553
416.49         57.4124
416.94        57.54072
417.39        57.69028
417.83        57.65387
418.28        57.41333
418.73         57.0539
419.17        56.76129
419.62         56.8311
420.07        57.28096
420.51        57.99704
420.96        58.77462
421.41        59.20346
421.85        59.15387
422.30        59.00669
422.74        58.81078
423.19        58.34882
423.64        57.83923
424.08        58.16148
424.53        59.17175
424.98        59.77488
425.42        59.84162
425.87        60.12792
426.31        60.61267
426.76        60.61702
427.21        60.32905
427.65        60.61259
428.10        61.43626
428.54        62.20518
428.99        62.85482
429.44        63.38171
429.88        63.72222
430.33        64.32569
430.77        64.76246
431.22        63.89132
431.66        62.10045
432.11        60.88666
432.56        60.58743
433.00        61.30265
433.45        62.94949
433.89        64.87173
434.34         65.6686
434.78        67.48632
435.23        63.52567
435.67        62.38014
436.12        64.34315
436.57         65.5431
437.01        66.17744
437.46         66.5301
437.90        66.76733
438.35        66.55376
438.79        67.10718
439.24        67.18261
439.68        67.12974
440.13        66.91891
440.57        66.83768
441.02        67.48264
441.46        68.60129
441.91        69.65978
442.35        70.22873
442.80        69.44389
443.24        67.85911
443.69        68.41776
444.13        70.72785
444.58        70.95236
445.02        69.28027
445.47        69.09128
445.91        70.29987
446.36        70.68996
446.80        70.19724
447.24        69.94456
447.69        70.03337
448.13         70.1881
448.58        70.43059
449.02        70.76723
449.47        71.15398
449.91        71.52937
450.36        71.85626
450.80        72.14533
451.25        72.33027
451.69        72.23386
452.13        71.90352
452.58        71.50406
453.02        71.17764
453.47         71.0933
453.91        71.28056
454.36        71.72296
454.80        72.25963
455.24        72.50751
455.69        72.39742
456.13        72.14047
456.58        71.88433
457.02        71.47253
457.46        71.12272
457.91        71.36218
458.35        72.00343
458.79        72.28028
459.24        72.14755
459.68        71.96722
460.13        71.79599
460.57        71.56477
461.01        71.35787
461.46        71.00411
461.90        70.48655
462.34        70.96371
462.79        70.48923
463.23        70.87828
463.68        71.39861
464.12        71.77699
464.56        71.89854
465.01        71.78678
465.45        71.46207
465.89        71.42599
466.34        71.50091
466.78        70.66908
467.22        69.39782
467.67        68.66017
468.11        69.56326
468.55        70.29187
468.99        70.78442
469.44        70.63121
469.88        70.01585
470.32        70.05261
470.77        70.65491
471.21        70.74685
471.65        70.27124
472.10        69.93543
472.54         69.8704
472.98         69.9079
473.42        70.04053
473.87        70.56527
474.31        71.18082
474.75        70.88326
475.20        69.91106
475.64         69.6299
476.08        70.06821
476.52        70.09589
476.97        69.66769
477.41        69.69681
477.85        70.24045
478.29        69.92213
478.74        70.10806
479.18        70.73712
479.62         69.2151
480.06        69.81818
480.50        70.15642
480.95        70.57706
481.39        70.63599
481.83          69.646
482.27        70.02406
482.72        69.60539
483.16         68.7831
483.60        68.58692
484.04        70.45104
484.48        70.68095
484.93        70.18234
485.37        72.03965
485.81        72.48077
486.25        71.15514
486.69        96.81561
487.14        78.50834
487.58        48.64585
488.02        59.67394
488.46         68.0649
488.90        67.66766
489.34        69.44464
489.79          68.411
490.23        70.63831
490.67        71.31499
491.11        70.12199
491.55        70.08537
491.99        70.75516
492.43        70.65401
492.88        69.85285
493.32        69.79674
493.76        70.00658
494.20        70.29193
494.64        70.39642
495.08        70.61573
495.52        70.93365
495.96        70.78714
496.41        70.24198
496.85        70.64082
497.29        71.65006
497.73        70.48846
498.17         68.1798
498.61        68.21248
499.05        70.63611
499.49        71.30724
499.93        71.63866
500.37        71.38264
500.82        70.50903
501.26        70.51309
501.70        71.14445
502.14        71.44222
502.58        71.25106
503.02        71.10265
503.46        70.99463
503.90        70.67705
504.34        70.26453
504.78        69.97605
505.22        69.87729
505.66        70.11967
506.10        70.61449
506.54        70.79317
506.98        70.51707
507.42        70.83102
507.86        70.54266
508.30        70.16611
508.74        70.55231
509.18        70.69832
509.62         70.8605
510.06        70.88404
510.50        70.76591
510.94        70.54403
511.38        70.30914
511.82        70.22216
512.26        70.31725
512.70        70.54168
513.14        70.82607
513.58        71.05598
514.02        71.18192
514.46        71.22847
514.90        71.21272
515.34        71.14707
515.78        71.03877
516.22         70.9502
516.66        70.88908
517.10        70.70371
517.54        70.40051
517.98        70.59231
518.42        70.46144
518.86        70.63145
519.30        70.83321
519.74        71.19269
520.18        71.59958
520.62        71.68739
521.06        71.51315
521.50        71.53271
521.93        71.73372
522.37        71.73118
522.81        71.53379
523.25         71.3812
523.69        71.32948
524.13         71.3558
524.57        71.46741
525.01        71.66329
525.45        71.88549
525.89        72.03699
526.32         72.0807
526.76        72.03774
527.20        71.92514
527.64        71.80264
528.08        71.71316
528.52        71.56329
528.96        71.34444
529.40        71.30911
529.83        71.46867
530.27        70.90113
530.71        71.06104
531.15        71.02303
531.59        71.21423
532.03        71.48517
532.46        71.78655
532.90        72.04234
533.34        72.19946
533.78        72.27447
534.22        72.27053
534.66         72.2042
535.09        72.07853
535.53        71.92159
535.97        71.74111
536.41        71.57069
536.85        71.43021
537.28        71.32433
537.72        71.26168
538.16        71.26334
538.60        71.32542
539.04        71.37849
539.47        71.39697
539.91        71.53632
540.35        71.70693
540.79        71.61813
541.22        71.32084
541.66         71.1838
542.10         71.2288
542.54        71.25898
542.97         71.2644
543.41        71.34104
543.85         71.4657
544.29        71.62729
544.72        71.75208
545.16        71.72482
545.60        71.51668
546.04        71.24815
546.47        71.02148
546.91        70.81123
547.35        70.75047
547.79        71.26592
548.22        72.06734
548.66        72.31738
549.10        71.90697
549.53        71.15992
549.97        70.41542
550.41        70.08221
550.84        70.26617
551.28         70.8056
551.72        71.47614
552.15        71.89893
552.59        71.95967
553.03        71.84963
553.46        71.55133
553.90         71.4115
554.34        71.44521
554.77        71.49528
555.21        71.51265
555.65        71.63634
556.08        71.87661
556.52        71.39462
556.96        71.83367
557.39        71.61803
557.83        71.35866
558.27        71.39053
558.70         71.6919
559.14        71.91269
559.57        71.99242
560.01        72.05981
560.45        72.12964
560.88        72.27728
561.32        72.42441
561.75        72.28539
562.19        71.92866
562.63        71.36481
563.06        70.82034
563.50         70.9248
563.93        71.54333
564.37        71.92641
564.80        71.94344
565.24        71.92461
565.68        71.87995
566.11        71.81816
566.55        71.80714
566.98        71.64594
567.42        71.44085
567.85        71.68033
568.29        72.29233
568.72        72.39778
569.16        72.18081
569.60        72.53398
570.03        73.12482
570.47        73.02258
570.90        72.54092
571.34        70.89565
571.77        72.01115
572.21        71.86388
572.64        71.36365
573.08        70.65504
573.51        67.58144
573.95        70.17899
574.38        74.26954
574.82        72.67154
