SpectraSmart Spectrum 2.9.0.0
--------- Device Information -----------
Spectrum Name :  反射率_0
Saving Time :  2024/04/26 01:41:05
Spectro-Module Model Name : SE2030-DUVN
Spectro-Module Serial Number : OS361AC55029948
Wavelength Start : 200
Wavelength End : 1025
Wavelength Unit : Wavelength(nm)
Spectrum Unit : Reflectance(%)
-----------Spectrum Setting ------------
Integration Time : 20ms
Average : 10
Boxcar : 0
Background removal :  enabled
linearity correction :  enabled
SC :  disabled
Intensity correction :  disabled
DWT denoise :  enabled
savitzky-golay :  disabled
FFT :  disabled
Running average :  disabled
Kalman :  disabled
High pass :  disabled
---------------BEGIN--------------------
Wavelength(nm)             Reflectance(%)
200.29               0
200.75        86.48344
201.21         82.9024
201.67        78.90126
202.13        76.40137
202.58        75.60102
203.04        76.27031
203.50        77.49454
203.96        77.83646
204.42        77.03404
204.88        75.64063
205.34        74.49671
205.80        74.47723
206.26        76.02984
206.72        80.29732
207.18           88.99
207.64        96.68189
208.10        91.66479
208.55        80.89388
209.01         74.4849
209.47        73.56103
209.93         76.0925
210.39        81.18595
210.85        86.42174
211.31        86.42716
211.77        79.79001
212.23        68.79036
212.69        57.95588
213.14        54.18523
213.60        58.62796
214.06        69.43211
214.52        82.41269
214.98        91.02932
215.44        93.28245
215.90        90.93739
216.36        86.45402
216.81        83.16994
217.27        82.26251
217.73        82.68491
218.19        82.45824
218.65         78.8287
219.11        70.62437
219.57        56.79219
220.02        39.44555
220.48        29.86434
220.94         34.4059
221.40        49.85839
221.86        64.72165
222.32        67.13992
222.77        58.42664
223.23        44.98055
223.69        33.25794
224.15        29.73475
224.61        33.81191
225.06        42.29647
225.52        50.84595
225.98        53.92488
226.44        50.61535
226.90        43.31417
227.36        35.35521
227.81        31.21499
228.27        32.02993
228.73        35.95494
229.19        40.77409
229.65        43.29997
230.10         42.9432
230.56        41.08978
231.02        39.07038
231.48        38.29513
231.93        38.88604
232.39        40.22794
232.85        41.67542
233.31        42.35899
233.77        42.05886
234.22        41.09481
234.68        39.94272
235.14        39.39997
235.60        39.77248
236.05        40.80328
236.51        42.12668
236.97        43.26083
237.43        44.15192
237.88        45.07082
238.34        46.25019
238.80        48.17329
239.26        50.88524
239.71        54.16936
240.17        57.34237
240.63        59.90358
241.08         61.7491
241.54        62.84692
242.00        63.70201
242.46        65.23839
242.91        68.57683
243.37        75.98888
243.83         97.2827
244.28        160.6055
244.74        222.1781
245.20        175.3174
245.66        139.2276
246.11        131.1163
246.57        140.2387
247.03        176.7765
247.48        290.4083
247.94        253.2804
248.40        136.8526
248.85        98.84058
249.31        86.86131
249.77        85.04745
250.22        88.82719
250.68        97.87619
251.14        111.9731
251.59        122.4024
252.05        119.9886
252.51        108.3814
252.96        95.52068
253.42        89.43941
253.88        89.66522
254.33        92.97408
254.79        97.99079
255.25        102.3223
255.70        104.8389
256.16        106.7158
256.62        107.0288
257.07        104.6415
257.53        100.5065
257.99        94.87728
258.44        89.24996
258.90        86.46285
259.35        85.53039
259.81        85.54784
260.27        84.71046
260.72        81.26513
261.18        76.03965
261.63        69.75242
262.09        63.96669
262.55        59.74358
263.00        57.05389
263.46        55.49397
263.91        54.23715
264.37        52.73635
264.83        50.75011
265.28        48.38382
265.74        46.09485
266.19        44.31779
266.65        43.30275
267.11        42.76796
267.56        42.31224
268.02         41.4593
268.47        40.06831
268.93        38.31049
269.38        36.41414
269.84        35.00965
270.30        34.27356
270.75        34.03212
271.21        33.98204
271.66        33.66426
272.12        32.94546
272.57        31.97428
273.03        30.96888
273.48        30.16489
273.94        29.65746
274.39        29.32026
274.85        29.04105
275.31        28.65079
275.76        28.10086
276.22         27.4804
276.67        26.86299
277.13        26.44246
277.58        26.19635
278.04        26.08446
278.49        25.95288
278.95        25.65048
279.40        25.12458
279.86        24.48847
280.31        23.81389
280.77        23.32023
281.22        23.01093
281.68        22.84605
282.13        22.74644
282.59        22.63175
283.04        22.47548
283.50        22.34824
283.95        22.23319
284.41        22.12046
284.86        22.01018
285.32        21.90423
285.77        21.88532
286.22        22.14214
286.68        22.65646
287.13        23.32758
287.59        23.93694
288.04        24.15408
288.50        23.94968
288.95        23.41839
289.41        22.79839
289.86        22.34111
290.32        22.17875
290.77        22.23409
291.22        22.45693
291.68        22.72415
292.13        23.01868
292.59        23.40498
293.04        23.95657
293.50        24.77723
293.95        25.86138
294.40        27.12631
294.86        28.47124
295.31        29.76423
295.77         30.9742
296.22         32.1401
296.68        33.28608
297.13        34.41935
297.58        35.56951
298.04        36.74853
298.49        38.01606
298.95        39.52076
299.40        41.27547
299.85        43.23829
300.31         45.2963
300.76        47.25607
301.21        49.02995
301.67         50.6879
302.12        52.22206
302.58        53.73875
303.03        55.24443
303.48        56.74032
303.94        58.31937
304.39        60.05856
304.84        61.97831
305.30        64.05527
305.75        66.11018
306.20        67.89346
306.66        69.37573
307.11        70.57394
307.57        71.70235
308.02         72.9608
308.47        74.45263
308.93        76.11704
309.38        77.80002
309.83        79.31365
310.29        80.59816
310.74        81.68088
311.19        82.67595
311.65        83.75784
312.10        84.95107
312.55        86.20741
313.00        87.37761
313.46        88.22783
313.91        88.69337
314.36        88.87516
314.82        88.98544
315.27        89.29122
315.72        89.90366
316.18        90.74938
316.63        91.70686
317.08        92.52757
317.53        93.12748
317.99        93.55711
318.44        93.95285
318.89         94.5461
319.35        95.35579
319.80        96.32445
320.25        97.20727
320.70        97.61245
321.16        97.46706
321.61        96.91149
322.06        96.24451
322.51        95.93485
322.97        96.07999
323.42        96.59025
323.87        97.24662
324.32        97.66473
324.78        97.72099
325.23        97.58002
325.68         97.3728
326.13        97.34061
326.59        97.53184
327.04        97.88534
327.49        98.33055
327.94        98.79557
328.39        99.23539
328.85         99.6534
329.30        100.0618
329.75         100.299
330.20         100.369
330.66        100.3138
331.11        100.3247
331.56        100.6317
332.01        101.3087
332.46        102.2662
332.92        103.3902
333.37        104.6649
333.82        105.9161
334.27        107.1422
334.72        108.1339
335.17        108.5659
335.63        108.4022
336.08        107.7986
336.53        107.0868
336.98        106.8578
337.43        107.2719
337.88        108.1668
338.34        109.3266
338.79        110.4735
339.24        111.4288
339.69        112.2942
340.14        112.9601
340.59        113.2397
341.05        113.1443
341.50        112.7075
341.95         112.225
342.40        112.1754
342.85        112.6564
343.30        113.5476
343.75        114.5818
344.20        115.2681
344.66        115.4689
345.11        115.3126
345.56        114.9858
346.01        114.7721
346.46        114.7668
346.91        114.8815
347.36        115.0561
347.81        115.2099
348.26        115.3179
348.72        115.4319
349.17        115.5582
349.62        115.7414
350.07         115.973
350.52        116.2105
350.97        116.3937
351.42        116.4464
351.87        116.3526
352.32        116.1418
352.77        115.8493
353.22        115.5333
353.67        115.2219
354.13        114.9202
354.58        114.6103
355.03        114.3237
355.48         114.053
355.93        113.7835
356.38        113.4851
356.83        113.1065
357.28        112.6323
357.73        112.0823
358.18        111.4528
358.63        110.7416
359.08        109.9694
359.53        109.1524
359.98        108.3532
360.43         107.664
360.88         107.095
361.33         106.611
361.78        106.1504
362.23        105.6134
362.68        104.9741
363.13         104.269
363.58        103.5145
364.03        102.7333
364.48        101.9426
364.93        101.1358
365.38        100.3495
365.83         99.6476
366.28        99.03242
366.73        98.47281
367.18        97.92903
367.63        97.33438
368.08        96.68033
368.53        96.01707
368.98        95.32777
369.43        94.57451
369.88        93.76699
370.33         92.9097
370.78        92.13215
371.23        91.65563
371.68        91.51307
372.13        91.63023
372.58        91.80785
373.03        91.70514
373.48        91.23883
373.93         90.5268
374.38        89.72696
374.83        89.08065
375.28        88.65501
375.72        88.35154
376.17        88.14919
376.62        87.99442
377.07        87.83942
377.52        87.68709
377.97        87.46282
378.42        87.04294
378.87        86.42558
379.32        85.67763
379.77        84.87499
380.22        84.12368
380.67        83.45244
381.11        82.82755
381.56         82.2886
382.01        81.90321
382.46        81.68137
382.91        81.62885
383.36        81.59924
383.81        81.35522
384.26        80.85761
384.71        80.15789
385.15        79.45783
385.60        79.14172
386.05        79.21351
386.50        79.54205
386.95        79.84205
387.40         79.6412
387.85        78.88895
388.29        77.78436
388.74        76.71783
389.19        75.92595
389.64        75.45654
390.09        75.17466
390.54        75.08298
390.98        75.18935
391.43        75.43752
391.88        75.79482
392.33        76.04805
392.78        75.82098
393.23        75.11307
393.67        74.20298
394.12        73.41514
394.57        72.64944
395.02        72.14007
395.47        72.52427
395.91        73.64059
396.36        74.38406
396.81        74.56732
397.26        74.67892
397.71        74.71883
398.15        74.38406
398.60        73.80284
399.05        73.21022
399.50        72.64826
399.95        71.72638
400.39        70.95139
400.84        70.60802
401.29        70.77184
401.74        71.14492
402.18        71.52647
402.63        71.46411
403.08        71.11759
403.53        71.22411
403.97        71.80347
404.42        72.35828
404.87        72.67484
405.32         72.5807
405.76        72.01646
406.21        71.25661
406.66        70.49285
407.11        69.74306
407.55        69.25281
408.00        69.48357
408.45        70.27173
408.90        70.89457
409.34        71.01637
409.79        70.46021
410.24        69.51815
410.68        69.02428
411.13        69.08535
411.58        69.19495
412.03        69.31734
412.47        69.63192
412.92        70.04566
413.37        70.52627
413.81        70.89919
414.26        70.94221
414.71        70.60843
415.15        69.96386
415.60        69.22345
416.05        68.75791
416.49        68.67316
416.94        68.88823
417.39        69.19991
417.83        69.23879
418.28         68.9295
418.73        68.40164
419.17        67.88695
419.62          67.757
420.07        68.04701
420.51        68.61394
420.96        69.22428
421.41        69.46174
421.85        69.20153
422.30        68.78709
422.74        68.30322
423.19        67.73651
423.64        67.22961
424.08        67.30959
424.53        67.86772
424.98        68.22454
425.42         68.2911
425.87         68.5826
426.31        69.05614
426.76        69.06482
427.21        68.80594
427.65        69.20914
428.10        70.13586
428.54         70.8569
428.99        71.32002
429.44        71.31168
429.88        70.96967
430.33        71.76167
430.77        72.94522
431.22        71.68232
431.66         68.6433
432.11        67.19003
432.56        67.56838
433.00        68.35777
433.45         69.4604
433.89        71.09375
434.34        71.89349
434.78        73.98544
435.23        69.80479
435.67        67.38074
436.12         69.5691
436.57        70.88788
437.01        72.10699
437.46        72.68429
437.90        72.79713
438.35        71.45741
438.79        72.13846
439.24        71.80983
439.68        71.52739
440.13        71.24438
440.57        71.20441
441.02        72.00578
441.46        73.24738
441.91        74.01852
442.35        74.06076
442.80        73.10735
443.24        71.69807
443.69        72.41992
444.13        74.77119
444.58         74.8991
445.02        72.98694
445.47        72.49599
445.91        73.43439
446.36        73.65617
446.80        73.12289
447.24        73.15563
447.69        73.41517
448.13        73.70563
448.58        73.92728
449.02        74.25348
449.47        74.64415
449.91        74.96232
450.36         75.1881
450.80        75.35489
451.25        75.43307
451.69        75.32825
452.13        75.06782
452.58        74.69667
453.02         74.3364
453.47        74.21642
453.91        74.36012
454.36        74.70425
454.80        75.10149
455.24        75.23404
455.69        75.05153
456.13        74.71935
456.58        74.39706
457.02        74.00919
457.46        73.73782
457.91        73.95168
458.35        74.47054
458.79        74.71646
459.24        74.66211
459.68        74.47314
460.13        74.17083
460.57        74.12775
461.01         73.8138
461.46        73.27935
461.90        72.79459
462.34        73.18124
462.79        72.78423
463.23        72.96521
463.68         73.1375
464.12        73.47272
464.56        73.82681
465.01        73.81194
465.45        73.42002
465.89        73.32882
466.34        73.35179
466.78        72.39561
467.22        71.12465
467.67        70.06738
468.11        72.22368
468.55        72.84136
468.99        72.53415
469.44        72.04384
469.88        71.62188
470.32        71.68639
470.77        72.11879
471.21         72.1582
471.65         71.7556
472.10        71.55813
472.54        71.61584
472.98        71.67156
473.42        71.71149
473.87        71.92648
474.31        72.17609
474.75        72.04464
475.20        71.62916
475.64        71.45259
476.08        71.57528
476.52         71.5073
476.97        71.22797
477.41        71.29623
477.85        71.78925
478.29        71.08485
478.74        71.96976
479.18        71.81561
479.62        70.79108
480.06        71.31079
480.50        71.63539
480.95        72.13202
481.39        72.33042
481.83        71.10786
482.27        71.56187
482.72        71.12516
483.16        69.79787
483.60        70.05277
484.04        71.62829
484.48        72.04361
484.93        71.73837
485.37        73.54986
485.81        74.00259
486.25        72.46147
486.69        97.87497
487.14        78.85818
487.58        49.53239
488.02        60.99825
488.46        69.30463
488.90        69.18278
489.34        70.52503
489.79        69.78001
490.23        71.89733
490.67         72.5875
491.11        71.28246
491.55        71.23504
491.99        71.98984
492.43        71.92366
492.88        71.10119
493.32        71.02269
493.76        71.20364
494.20        71.44398
494.64        71.49599
495.08        71.67534
495.52        71.95632
495.96        71.78133
496.41        71.22063
496.85        71.54379
497.29        72.48566
497.73        71.49879
498.17        69.51389
498.61        69.72797
499.05        72.14697
499.49        72.56328
499.93        72.56507
500.37        72.33884
500.82        71.82059
501.26        71.83842
501.70        72.55621
502.14        72.72415
502.58        72.38393
503.02        72.19025
503.46        72.16101
503.90        71.89559
504.34        71.49643
504.78        71.30766
505.22        71.33961
505.66        71.58772
506.10        71.96494
506.54        71.98965
506.98        71.53743
507.42        71.96332
507.86         71.2868
508.30         71.1315
508.74        71.33992
509.18        71.56069
509.62        71.81477
510.06        71.96555
510.50        71.99593
510.94        71.92963
511.38         71.8246
511.82        71.77818
512.26        71.81972
512.70        71.89806
513.14        71.98192
513.58        72.07802
514.02         72.1768
514.46        72.08205
514.90        72.15199
515.34        72.09052
515.78        71.99691
516.22        71.92584
516.66        71.88693
517.10        71.72825
517.54        71.45429
517.98        71.66004
518.42        71.53831
518.86        71.69011
519.30        71.86201
519.74        72.10464
520.18        72.36393
520.62        72.54472
521.06        72.63024
521.50        72.64115
521.93        72.59187
522.37        72.50819
522.81        72.41584
523.25        72.31563
523.69        72.24763
524.13        72.27275
524.57        72.39722
525.01        72.59952
525.45        72.82879
525.89        73.00018
526.32        73.07699
526.76        73.07457
527.20         73.0054
527.64        72.92248
528.08        72.86147
528.52        72.72434
528.96        72.49186
529.40        72.40553
529.83        72.48017
530.27        71.79536
530.71        71.83947
531.15        71.70184
531.59        71.82613
532.03        72.04977
532.46        72.35363
532.90        72.70856
533.34        73.05623
533.78        73.39149
534.22        73.63532
534.66        73.68362
535.09        73.51888
535.53        73.20211
535.97        72.82883
536.41          72.577
536.85        72.49856
537.28        72.55318
537.72        72.66758
538.16         72.7295
538.60        72.70468
539.04        72.57483
539.47        72.38228
539.91        72.38255
540.35          72.511
540.79        72.43966
541.22        72.18751
541.66        72.08142
542.10        72.12345
542.54        72.12511
542.97        72.08974
543.41        72.13179
543.85        72.24146
544.29        72.41131
544.72        72.54141
545.16        72.50947
545.60        72.29011
546.04        71.91225
546.47        71.55766
546.91         71.5356
547.35        71.87608
547.79        72.50301
548.22        73.12444
548.66          73.249
549.10        72.81707
549.53        72.08033
549.97        71.35317
550.41        70.96651
550.84        71.02122
551.28         71.4481
551.72        72.04903
552.15        72.39954
552.59        72.38008
553.03        72.34065
553.46        72.02207
553.90          71.877
554.34        71.83972
554.77        71.97612
555.21        71.88584
555.65        72.02537
556.08        72.30773
556.52        71.83945
556.96        72.27989
557.39        72.15986
557.83        72.04316
558.27         72.0383
558.70        72.15398
559.14        72.26864
559.57        72.34036
560.01        72.40107
560.45        72.44553
560.88        72.52724
561.32        72.59191
561.75        72.43853
562.19         72.1404
562.63        71.65477
563.06        71.17005
563.50        71.29438
563.93        71.87419
564.37        72.12129
564.80        71.95802
565.24        71.87177
565.68        71.88675
566.11        71.88391
566.55         71.9268
566.98        71.91055
567.42        71.87943
567.85        72.16357
568.29        72.67682
568.72        72.59904
569.16        72.17605
569.60        72.42143
570.03        73.02645
570.47        72.96938
570.90        72.50344
571.34        71.07909
571.77        71.97739
572.21        71.80495
572.64        71.50527
573.08        70.46268
573.51        67.57059
573.95        70.06821
574.38        74.32938
574.82        72.57577
