SpectraSmart Spectrum 2.9.0.0
--------- Device Information -----------
Spectrum Name :  反射率_0
Saving Time :  2024/04/26 01:20:52
Spectro-Module Model Name : SE2030-DUVN
Spectro-Module Serial Number : OS361AC55029948
Wavelength Start : 200
Wavelength End : 1025
Wavelength Unit : Wavelength(nm)
Spectrum Unit : Reflectance(%)
-----------Spectrum Setting ------------
Integration Time : 20ms
Average : 10
Boxcar : 0
Background removal :  enabled
linearity correction :  enabled
SC :  disabled
Intensity correction :  disabled
DWT denoise :  enabled
savitzky-golay :  disabled
FFT :  disabled
Running average :  disabled
Kalman :  disabled
High pass :  disabled
---------------BEGIN--------------------
Wavelength(nm)             Reflectance(%)
200.29               0
200.75        87.42558
201.21        86.37701
201.67        83.98634
202.13        80.99764
202.58        77.76388
203.04        74.72673
203.50        71.89388
203.96        69.67369
204.42        68.38925
204.88        67.73566
205.34        68.15401
205.80         70.4911
206.26        75.70598
206.72        86.92995
207.18        108.3639
207.64        126.4503
208.10        113.2061
208.55        87.00101
209.01         70.6226
209.47        65.42777
209.93        66.75164
210.39         72.3063
210.85        79.19942
211.31        81.15394
211.77        76.20254
212.23        66.92219
212.69        57.74232
213.14        55.44446
213.60        61.08717
214.06         72.4027
214.52        85.38306
214.98        93.97648
215.44        96.31496
215.90        94.31177
216.36        89.78028
216.81        85.10541
217.27        81.65716
217.73        78.85157
218.19        76.00211
218.65         72.0072
219.11        66.08759
219.57        57.41592
220.02        46.97068
220.48        41.11606
220.94        43.21727
221.40        51.77648
221.86        59.71658
222.32        59.67352
222.77        52.65267
223.23        42.85412
223.69        34.73214
224.15        32.87758
224.61         36.7108
225.06        43.89309
225.52        51.09449
225.98        54.12386
226.44        52.27363
226.90        47.41282
227.36        41.86744
227.81          38.747
228.27        39.01218
228.73        41.31775
229.19        44.54494
229.65        47.06303
230.10        48.33526
230.56        48.98133
231.02        49.27253
231.48        49.45784
231.93        49.63583
232.39        49.70258
232.85        49.73516
233.31        49.96436
233.77        50.41475
234.22        51.06117
234.68        51.77266
235.14        52.16913
235.60        52.17921
236.05        52.01288
236.51        51.84021
236.97        51.88997
237.43        52.31445
237.88        53.14694
238.34        54.70308
238.80          57.669
239.26         62.0337
239.71        67.65504
240.17        73.02678
240.63        76.25353
241.08        76.93837
241.54        75.30444
242.00        73.05646
242.46        72.78693
242.91        76.17191
243.37         86.1822
243.83        115.5856
244.28        193.4293
244.74        247.2134
245.20        176.3607
245.66        131.3204
246.11        119.2137
246.57        124.1084
247.03        151.7667
247.48        244.8698
247.94        228.7448
248.40        136.3574
248.85        104.4641
249.31        94.30598
249.77         93.1267
250.22        97.16635
250.68        106.1845
251.14        119.8251
251.59        129.3022
252.05        125.7008
252.51        113.0484
252.96        99.79913
253.42         94.2706
253.88         95.8017
254.33        100.9742
254.79        107.7958
255.25        112.9284
255.70        115.2516
256.16        116.5725
256.62        116.4144
257.07        114.0648
257.53        110.5188
257.99        105.7307
258.44        101.0618
258.90        99.28462
259.35        99.18845
259.81        99.88629
260.27        99.46446
260.72        96.06422
261.18        90.67866
261.63        84.08765
262.09        77.94679
262.55        73.32589
263.00        70.20987
263.46        68.23667
263.91        66.64246
264.37        65.05569
264.83        63.15722
265.28        60.97657
265.74         58.7766
266.19        56.64801
266.65        54.91967
267.11        53.51654
267.56        52.25902
268.02        50.94049
268.47        49.40349
268.93        47.71154
269.38        46.03321
269.84        44.89016
270.30        44.39319
270.75         44.3982
271.21        44.51194
271.66        44.13379
272.12        43.13838
272.57        41.71053
273.03         40.2506
273.48        39.27048
273.94        38.91234
274.39        38.93467
274.85        39.06703
275.31        38.88325
275.76        38.27343
276.22        37.43502
276.67        36.50448
277.13        35.79241
277.58        35.30938
278.04        34.98919
278.49        34.69379
278.95        34.32891
279.40        33.81836
279.86        33.26754
280.31         32.6626
280.77        32.11086
281.22        31.59157
281.68        31.12059
282.13        30.68105
282.59         30.3049
283.04           29.98
283.50         29.7506
283.95        29.56076
284.41        29.35608
284.86        29.11734
285.32        28.86894
285.77        28.70126
286.22        28.82194
286.68         29.2174
287.13        29.77123
287.59        30.26287
288.04        30.34764
288.50        30.00461
288.95        29.33823
289.41        28.59415
289.86        28.02045
290.32        27.75705
290.77        27.71649
291.22        27.87153
291.68        28.13418
292.13        28.47745
292.59        28.94463
293.04        29.55022
293.50        30.31131
293.95        31.20327
294.40        32.17426
294.86        33.17402
295.31         34.1457
295.77        35.08408
296.22        36.00975
296.68         36.9315
297.13        37.83271
297.58         38.7314
298.04        39.64285
298.49        40.62768
298.95        41.83499
299.40        43.26679
299.85        44.87128
300.31        46.51623
300.76        47.98429
301.21        49.20452
301.67        50.28508
302.12        51.25133
302.58        52.24696
303.03        53.29205
303.48        54.37222
303.94        55.59835
304.39        57.07796
304.84        58.81405
305.30        60.75405
305.75        62.64666
306.20        64.13249
306.66        65.16594
307.11        65.81348
307.57        66.34674
308.02        67.05708
308.47         68.0743
308.93        69.31133
309.38        70.62373
309.83        71.83451
310.29        72.87574
310.74        73.77751
311.19        74.60632
311.65         75.4556
312.10        76.33996
312.55        77.23791
313.00        78.05363
313.46        78.64762
313.91        78.98347
314.36        79.12619
314.82          79.262
315.27        79.62554
315.72        80.29841
316.18        81.20916
316.63        82.19416
317.08        82.94141
317.53        83.35712
317.99        83.50817
318.44        83.58702
318.89        83.91385
319.35        84.54113
319.80        85.40132
320.25        86.22434
320.70        86.56703
321.16         86.3446
321.61         85.7134
322.06        85.01269
322.51        84.76958
322.97        85.08609
323.42        85.83744
323.87        86.72922
324.32        87.25591
324.78        87.25615
325.23        86.91495
325.68        86.44025
326.13        86.19766
326.59        86.28117
327.04        86.61224
327.49        87.05777
327.94        87.42992
328.39        87.66634
328.85         87.8172
329.30        88.00676
329.75        88.27911
330.20        88.66965
330.66         89.1313
331.11        89.68691
331.56        90.31322
332.01        91.00523
332.46        91.73824
332.92        92.48203
333.37        93.35975
333.82        94.28677
334.27        95.23872
334.72        96.02979
335.17        96.36861
335.63        96.21566
336.08        95.71317
336.53        95.16399
336.98        95.09087
337.43        95.62081
337.88        96.60221
338.34        97.76077
338.79        98.72679
339.24        99.32371
339.69         99.6786
340.14        99.84258
340.59         99.9092
341.05        99.95387
341.50        99.93065
341.95        99.94409
342.40        100.1839
342.85        100.6797
343.30        101.3896
343.75        102.1693
344.20         102.742
344.66        103.0289
345.11        103.0799
345.56        102.9829
346.01         102.881
346.46        102.8345
346.91        102.8088
347.36        102.8085
347.81        102.8464
348.26        102.9224
348.72        103.0569
349.17         103.215
349.62        103.3774
350.07        103.5285
350.52        103.6689
350.97        103.7704
351.42        103.7998
351.87        103.7535
352.32        103.6319
352.77        103.4851
353.22         103.398
353.67        103.3811
354.13        103.4206
354.58         103.411
355.03        103.2417
355.48        102.8897
355.93        102.3974
356.38        101.8439
356.83        101.3556
357.28        100.9641
357.73        100.6274
358.18        100.2943
358.63        99.88232
359.08        99.37158
359.53        98.80236
359.98        98.19215
360.43        97.56146
360.88        96.92213
361.33         96.2597
361.78        95.60909
362.23          95.034
362.68        94.54401
363.13         94.1271
363.58        93.71215
364.03        93.17815
364.48        92.50419
364.93        91.73192
365.38        90.93997
365.83        90.26072
366.28        89.72124
366.73        89.26028
367.18         88.8382
367.63        88.39381
368.08        87.90611
368.53        87.42058
368.98         86.8868
369.43        86.21188
369.88        85.39951
370.33        84.47701
370.78        83.60502
371.23        83.05824
371.68        82.89352
372.13          83.026
372.58        83.26594
373.03        83.28387
373.48        82.98471
373.93        82.47236
374.38        81.86564
374.83        81.34711
375.28         80.9725
375.72         80.6632
376.17        80.41664
376.62        80.21249
377.07        80.02223
377.52         79.8425
377.97        79.62808
378.42        79.29819
378.87        78.84909
379.32        78.33057
379.77        77.76038
380.22        77.16022
380.67        76.54398
381.11        75.89942
381.56         75.3161
382.01        74.94626
382.46         74.8205
382.91        74.91774
383.36        75.04523
383.81        74.89193
384.26        74.40131
384.71        73.65211
385.15         72.8904
385.60        72.55642
386.05        72.67203
386.50        73.08942
386.95        73.49317
387.40        73.35826
387.85        72.62081
388.29        71.50504
388.74        70.42156
389.19        69.65639
389.64        69.26197
390.09        69.08332
390.54        69.10081
390.98        69.28339
391.43        69.56853
391.88        69.94672
392.33        70.20674
392.78        70.00233
393.23        69.34269
393.67        68.41693
394.12        67.58904
394.57        67.00722
395.02        66.81928
395.47        67.25217
395.91        68.14511
396.36        68.75968
396.81        68.94387
397.26        68.98929
397.71        68.89057
398.15        68.48983
398.60        67.92218
399.05        67.24838
399.50        66.59974
399.95        65.99272
400.39        65.75748
400.84        65.59321
401.29        65.54232
401.74        65.66813
402.18        65.88459
402.63        65.83247
403.08        65.62138
403.53        65.69029
403.97        66.05825
404.42        66.47396
404.87        66.74969
405.32        66.66927
405.76        66.18793
406.21         65.4482
406.66        64.68317
407.11        64.27931
407.55        64.33149
408.00        64.57799
408.45        64.88847
408.90        65.30021
409.34        65.55566
409.79        65.05372
410.24        64.07764
410.68        63.61638
411.13        63.76962
411.58        64.01086
412.03        64.25845
412.47        64.59137
412.92        64.90089
413.37        65.19336
413.81        65.36866
414.26        65.31109
414.71        65.00072
415.15        64.47369
415.60         63.8923
416.05        63.53874
416.49        63.49403
416.94        63.70803
417.39        64.00435
417.83        64.06156
418.28         63.8122
418.73        63.34981
419.17        62.90143
419.62        62.83385
420.07        63.18157
420.51        63.81918
420.96        64.46667
421.41        64.64039
421.85        64.22533
422.30        63.55491
422.74        62.83944
423.19        62.31934
423.64        62.11251
424.08        62.49021
424.53        63.25904
424.98        63.75279
425.42        63.83615
425.87        63.98085
426.31        64.20198
426.76        63.97072
427.21        63.52776
427.65        63.83283
428.10        64.76429
428.54        65.46835
428.99        65.87469
429.44        66.03535
429.88        65.97115
430.33        66.53219
430.77        67.18246
431.22         65.9827
431.66        63.52182
432.11         62.4114
432.56        62.83381
433.00        63.68336
433.45        64.84859
433.89        66.34435
434.34        66.82932
434.78        68.68258
435.23        65.31948
435.67        62.63375
436.12        65.62018
436.57        66.49812
437.01          66.873
437.46         66.9952
437.90        67.07166
438.35        66.67556
438.79        66.99301
439.24        66.89265
439.68        66.76388
440.13        66.49521
440.57        66.36119
441.02        67.25568
441.46        68.77081
441.91        69.44529
442.35        69.09895
442.80        68.28883
443.24         67.4053
443.69        67.80744
444.13        69.09152
444.58        69.53228
445.02        67.65395
445.47        67.58031
445.91        68.70541
446.36        69.09175
446.80        68.65318
447.24        68.44663
447.69        68.57672
448.13        68.72948
448.58        68.93259
449.02        69.20463
449.47        69.49498
449.91         69.7298
450.36        69.88577
450.80        69.96776
451.25        69.96566
451.69        69.83986
452.13        69.62746
452.58        69.32351
453.02        69.02921
453.47           68.99
453.91        69.30407
454.36        69.49458
454.80         70.1041
455.24         70.1619
455.69        69.78934
456.13        69.41068
456.58        69.30554
457.02        68.22926
457.46        68.58846
457.91        68.81455
458.35        69.36057
458.79         69.6067
459.24        69.51884
459.68        69.27737
460.13        68.94893
460.57        68.66775
461.01        68.54266
461.46        68.07655
461.90        67.79488
462.34        68.13575
462.79        67.68171
463.23        67.83927
463.68         68.0975
464.12        68.31019
464.56        68.40871
465.01        68.59852
465.45        68.67627
465.89        68.45839
466.34        67.97665
466.78         67.0492
467.22        66.11802
467.67        66.03946
468.11         67.1172
468.55        67.68484
468.99        67.60212
469.44        67.20627
469.88        66.71291
470.32        66.71765
470.77         67.1325
471.21        67.15218
471.65        66.73546
472.10        66.50266
472.54        66.50674
472.98        66.53371
473.42        66.57673
473.87        66.78371
474.31        67.02723
474.75        66.96167
475.20        66.63145
475.64        66.47752
476.08        66.58247
476.52        66.45491
476.97        66.03403
477.41        66.56609
477.85        66.64956
478.29        66.25845
478.74        66.69251
479.18        66.90503
479.62        65.87272
480.06        66.41151
480.50        66.66434
480.95        66.89926
481.39        66.70951
481.83        66.14167
482.27        65.99822
482.72        66.24258
483.16        65.01971
483.60        65.41063
484.04        66.72077
484.48        67.14151
484.93        67.22723
485.37        67.95625
485.81        68.65359
486.25        67.75204
486.69        91.51318
487.14        73.97005
487.58        46.07624
488.02        56.92861
488.46        64.63705
488.90        64.34605
489.34        65.49958
489.79        64.78175
490.23        66.84526
490.67        67.68287
491.11        66.65221
491.55        66.55424
491.99        67.00081
492.43         66.8084
492.88        66.07586
493.32        66.00998
493.76        66.13611
494.20         66.3418
494.64        66.39562
495.08         66.5107
495.52        66.71861
495.96        66.70139
496.41        66.46415
496.85        66.92167
497.29        67.78277
497.73        66.75403
498.17        64.76546
498.61        64.89716
499.05        67.17018
499.49        67.60416
499.93        67.66064
500.37        67.49639
500.82        67.01427
501.26        67.16178
501.70        67.66364
502.14        67.84683
502.58          67.603
503.02        67.42442
503.46        67.32442
503.90        67.01163
504.34         66.6103
504.78        66.44838
505.22        66.56413
505.66        66.88695
506.10        67.28016
506.54        67.43475
506.98        67.26752
507.42        67.10191
507.86         66.7744
508.30        66.52172
508.74        66.74171
509.18        67.01298
509.62        67.32821
510.06        67.46056
510.50        67.36429
510.94        67.11111
511.38        66.82226
511.82        66.69339
512.26        66.77099
512.70        66.98528
513.14         67.2464
513.58         67.4118
514.02         67.4309
514.46        67.34837
514.90        67.21019
515.34        67.06908
515.78        66.94032
516.22        66.87549
516.66        66.87231
517.10        66.74572
517.54        66.49084
517.98        66.78936
518.42        66.69142
518.86        66.90511
519.30        67.13205
519.74         67.4277
520.18        67.71972
520.62         67.8893
521.06        67.92017
521.50        67.83874
521.93         67.6979
522.37        67.58717
522.81        67.54213
523.25         67.5421
523.69        67.57807
524.13        67.63331
524.57        67.69889
525.01        67.78282
525.45        67.87263
525.89        67.94495
526.32        67.98416
526.76        67.98789
527.20        67.95983
527.64        67.92809
528.08        67.91453
528.52         67.8578
528.96        67.72484
529.40        67.65433
529.83        67.68479
530.27        67.09623
530.71        67.25291
531.15        67.14704
531.59        67.18684
532.03         67.3086
532.46        67.51645
532.90          67.783
533.34        68.06427
533.78        68.35641
534.22        68.57792
534.66        68.61797
535.09        68.45424
535.53         68.1462
535.97        67.77993
536.41        67.51653
536.85        67.40555
537.28        67.41245
537.72         67.4761
538.16        67.50414
538.60        67.47016
539.04        67.35599
539.47        67.20348
539.91        67.25207
540.35        67.44045
540.79        67.46223
541.22        67.32436
541.66         67.3135
542.10        67.42754
542.54        67.49374
542.97        67.52028
543.41        67.62359
543.85        67.78683
544.29        68.00191
544.72        68.17798
545.16        68.15343
545.60        67.89285
546.04        67.63043
546.47        67.24349
546.91        67.09254
547.35        67.17724
547.79        67.66991
548.22        68.30722
548.66        68.45117
549.10        68.04759
549.53        67.45226
549.97        66.91357
550.41        66.60741
550.84        66.61719
551.28        66.90134
551.72        67.33215
552.15        67.65427
552.59        67.77781
553.03        67.81664
553.46        67.79684
553.90        67.70552
554.34        67.54222
554.77        67.70078
555.21        67.33432
555.65        67.36572
556.08        67.58153
556.52        67.17151
556.96        67.64952
557.39        67.53757
557.83        67.36969
558.27        67.40682
558.70        67.57709
559.14        67.76623
559.57        67.89787
560.01        68.11162
560.45        68.33191
560.88        68.33911
561.32        68.14634
561.75        67.91476
562.19        67.74034
562.63        67.33662
563.06        66.85561
563.50        67.04668
563.93        67.77445
564.37        67.77975
564.80        67.81124
565.24        67.64428
565.68        67.56956
566.11         67.4936
566.55        67.48615
566.98        67.47084
567.42        67.46195
567.85        67.63621
568.29        67.96359
568.72        67.94603
569.16        67.77023
569.60        68.05143
570.03        68.46682
570.47        68.34097
570.90         67.9789
571.34        66.34121
571.77        67.57066
572.21        67.41505
572.64        67.11786
573.08        66.39678
573.51        63.32784
573.95        65.85331
574.38         70.0964
574.82        68.06264
