SpectraSmart Spectrum 2.9.0.0
--------- Device Information -----------
Spectrum Name :  反射率_0
Saving Time :  2024/04/26 01:24:21
Spectro-Module Model Name : SE2030-DUVN
Spectro-Module Serial Number : OS361AC55029948
Wavelength Start : 200
Wavelength End : 1025
Wavelength Unit : Wavelength(nm)
Spectrum Unit : Reflectance(%)
-----------Spectrum Setting ------------
Integration Time : 20ms
Average : 10
Boxcar : 0
Background removal :  enabled
linearity correction :  enabled
SC :  disabled
Intensity correction :  disabled
DWT denoise :  enabled
savitzky-golay :  disabled
FFT :  disabled
Running average :  disabled
Kalman :  disabled
High pass :  disabled
---------------BEGIN--------------------
Wavelength(nm)             Reflectance(%)
200.29               0
200.75         98.3624
201.21        92.81894
201.67         85.7185
202.13        80.97422
202.58        79.27616
203.04        79.93179
203.50        81.71953
203.96        82.73779
204.42        82.49832
204.88        81.59388
205.34        81.30839
205.80        83.32887
206.26        88.87592
206.72        101.0385
207.18        124.1804
207.64        143.0394
208.10        127.4702
208.55        98.63354
209.01        80.97763
209.47        75.32513
209.93        76.66466
210.39        82.61396
210.85        90.23908
211.31        93.20034
211.77        89.24705
212.23        80.59053
212.69        71.81777
213.14        69.99593
213.60        76.16724
214.06        88.18623
214.52        100.8872
214.98        106.4838
215.44        103.4347
215.90        94.66921
216.36        84.67625
216.81        79.64764
217.27        80.85417
217.73         85.7105
218.19        90.83244
218.65        92.01852
219.11        87.96046
219.57        78.45555
220.02        64.91512
220.48        55.80921
220.94        56.25161
221.40        64.01276
221.86        71.56738
222.32        70.90629
222.77        62.89109
223.23        52.32571
223.69         43.3753
224.15        40.17944
224.61        42.22554
225.06        47.25137
225.52         52.4309
225.98        54.41798
226.44        52.57393
226.90        48.40403
227.36        43.62091
227.81        40.43392
228.27        39.67084
228.73         40.3923
229.19        41.94195
229.65        43.36868
230.10        44.31958
230.56        45.10096
231.02        45.81768
231.48        46.57211
231.93        47.35007
232.39        48.01714
232.85         48.5444
233.31        48.97248
233.77        49.27317
234.22        49.47843
234.68        49.40245
235.14        48.65471
235.60        47.29606
236.05        45.63103
236.51        44.16656
236.97        43.52127
237.43        43.90427
237.88        45.35731
238.34        47.91713
238.80        51.32755
239.26        55.08616
239.71        59.14357
240.17        62.68111
240.63         65.0946
241.08        66.36317
241.54        66.35963
242.00        66.01417
242.46        66.92489
242.91         70.4126
243.37        79.12443
243.83        104.4749
244.28        176.0803
244.74        237.4713
245.20        180.2732
245.66        139.0865
246.11        127.8697
246.57        132.9633
247.03        159.6886
247.48        248.5217
247.94        230.4948
248.40        141.8343
248.85        111.6877
249.31        102.1104
249.77         100.561
250.22        103.3679
250.68        109.8588
251.14        119.4672
251.59        125.1423
252.05        120.2398
252.51        108.6611
252.96        96.30441
253.42        88.50241
253.88        84.70645
254.33        82.98496
254.79        83.84318
255.25        87.30764
255.70        92.07185
256.16        97.49767
256.62        101.0647
257.07        100.2642
257.53        96.10522
257.99        89.55283
258.44        82.82738
258.90        79.49921
259.35        78.64478
259.81        78.98694
260.27        78.39205
260.72        74.81441
261.18        69.12231
261.63        62.26429
262.09        56.04653
262.55        51.84191
263.00        49.57818
263.46        48.62583
263.91        47.94141
264.37        46.70901
264.83        44.72415
265.28         42.2139
265.74        39.80342
266.19        38.19609
266.65        37.62152
267.11        37.64653
267.56         37.7306
268.02        37.24491
268.47        36.05711
268.93        34.40762
269.38        32.56202
269.84        31.20097
270.30        30.52892
270.75        30.35775
271.21        30.41517
271.66         30.2977
272.12        29.86915
272.57        29.25475
273.03        28.61437
273.48         28.0958
273.94        27.76862
274.39        27.53445
274.85         27.2981
275.31        26.92348
275.76        26.37861
276.22        25.74048
276.67        25.10684
277.13        24.70351
277.58        24.51056
278.04        24.47866
278.49        24.41916
278.95        24.12127
279.40        23.53337
279.86          22.796
280.31        22.02316
280.77        21.49348
281.22        21.22312
281.68        21.13998
282.13        21.14542
282.59        21.13064
283.04        21.05237
283.50        20.97787
283.95        20.87184
284.41        20.69522
284.86        20.44797
285.32        20.14528
285.77        19.89328
286.22        19.91389
286.68        20.20718
287.13        20.67924
287.59        21.12141
288.04        21.21635
288.50        20.93394
288.95          20.368
289.41         19.7409
289.86        19.28629
290.32        19.11839
290.77        19.14831
291.22        19.31679
291.68        19.49563
292.13        19.65644
292.59        19.84956
293.04         20.1279
293.50        20.56751
293.95        21.16761
294.40        21.86907
294.86        22.59793
295.31        23.25824
295.77        23.83573
296.22        24.37067
296.68        24.90556
297.13        25.47625
297.58        26.11851
298.04        26.83456
298.49        27.65576
298.95        28.67353
299.40        29.88304
299.85        31.25075
300.31        32.67992
300.76         34.0178
301.21        35.19902
301.67        36.28608
302.12        37.28458
302.58        38.28336
303.03         39.3015
303.48        40.34698
303.94        41.50765
304.39        42.86784
304.84        44.44096
305.30        46.18722
305.75        47.95938
306.20         49.5443
306.66        50.90647
307.11        52.06757
307.57        53.15638
308.02        54.27541
308.47        55.51194
308.93        56.84014
309.38        58.22747
309.83        59.66432
310.29        61.11695
310.74        62.55287
311.19        63.95742
311.65        65.31168
312.10        66.59993
312.55        67.83459
313.00        68.94722
313.46        69.83413
313.91        70.46943
314.36        70.89954
314.82        71.29964
315.27        71.90424
315.72        72.79593
316.18        73.91211
316.63        75.10357
317.08        76.07428
317.53        76.73235
317.99        77.14218
318.44        77.47188
318.89        78.00515
319.35        78.78987
319.80        79.76218
320.25        80.68871
320.70         81.1872
321.16        81.17857
321.61        80.79488
322.06        80.32024
322.51        80.19844
322.97         80.5207
323.42         81.1951
323.87        81.98328
324.32        82.47233
324.78        82.53552
325.23        82.33398
325.68        82.05224
326.13        82.01377
326.59        82.29308
327.04        82.81516
327.49        83.44473
327.94        83.98976
328.39        84.38168
328.85        84.66265
329.30        84.93734
329.75         85.2298
330.20        85.57658
330.66        85.94627
331.11        86.39734
331.56        86.95988
332.01        87.65067
332.46        88.44522
332.92        89.29977
333.37        90.29771
333.82        91.33743
334.27         92.3881
334.72        93.28402
335.17         93.7704
335.63        93.80556
336.08        93.51598
336.53        93.12944
336.98        93.05303
337.43        93.40815
337.88        94.09471
338.34        94.96759
338.79        95.86629
339.24        96.66864
339.69        97.43652
340.14        98.11526
340.59        98.60159
341.05        98.88738
341.50        98.97215
341.95         98.9837
342.40        99.15557
342.85        99.54398
343.30        100.0886
343.75        100.6875
344.20        101.1463
344.66        101.4107
345.11        101.5263
345.56        101.5307
346.01        101.4765
346.46        101.4066
346.91        101.3152
347.36        101.2575
347.81        101.3243
348.26        101.5355
348.72        101.8876
349.17        102.2938
349.62        102.6551
350.07        102.9259
350.52        103.1126
350.97        103.2417
351.42         103.366
351.87        103.4955
352.32        103.6107
352.77        103.6649
353.22        103.5914
353.67        103.3856
354.13         103.092
354.58        102.7616
355.03        102.5286
355.48        102.4147
355.93        102.3756
356.38        102.3264
356.83        102.1309
357.28        101.7541
357.73        101.2433
358.18        100.6537
358.63        100.0728
359.08         99.5361
359.53        99.02431
359.98        98.52921
360.43        98.03738
360.88        97.53631
361.33        97.02602
361.78        96.51215
362.23        95.99963
362.68        95.49402
363.13        95.00701
363.58        94.49992
364.03        93.91124
364.48        93.23651
364.93        92.48788
365.38        91.76493
365.83        91.23063
366.28        90.90264
366.73        90.71746
367.18        90.52828
367.63        90.09771
368.08        89.38443
368.53        88.49374
368.98        87.54913
369.43        86.72881
369.88        86.09129
370.33        85.58102
370.78        85.19727
371.23        84.94182
371.68        84.78839
372.13         84.7293
372.58        84.68517
373.03        84.51629
373.48        84.19271
373.93        83.75953
374.38        83.27374
374.83        82.82795
375.28        82.45484
375.72        82.11502
376.17        81.84848
376.62        81.69369
377.07        81.63278
377.52        81.63031
377.97        81.59363
378.42        81.37424
378.87        80.94819
379.32         80.3851
379.77        79.73657
380.22        79.07227
380.67        78.42171
381.11        77.76507
381.56        77.17146
382.01        76.76086
382.46        76.55859
382.91        76.55341
383.36        76.59258
383.81        76.42542
384.26        76.00173
384.71        75.37838
385.15        74.73456
385.60        74.41444
386.05         74.4249
386.50        74.65071
386.95        74.85197
387.40        74.63416
387.85        73.96317
388.29        73.01089
388.74        72.11926
389.19        71.48325
389.64        71.14073
390.09        70.96902
390.54        70.97427
390.98        71.16473
391.43        71.48188
391.88        71.89325
392.33        72.18115
392.78        71.95701
393.23        71.22322
393.67        70.29337
394.12        69.50816
394.57        68.73721
395.02         68.2476
395.47        68.81592
395.91        70.20563
396.36        71.03617
396.81        71.08733
397.26         70.9956
397.71        70.84222
398.15        70.41824
398.60        69.86829
399.05         69.3475
399.50        68.88804
399.95        68.13309
400.39        67.50835
400.84        67.28542
401.29        67.49732
401.74        67.59607
402.18        67.54126
402.63        67.58228
403.08        67.76808
403.53        68.02126
403.97        68.31874
404.42        68.63879
404.87         68.8588
405.32        68.72885
405.76        68.20625
406.21        67.58532
406.66        67.00959
407.11        66.34669
407.55        65.83709
408.00        66.18901
408.45        67.18938
408.90        67.64459
409.34        67.33932
409.79        66.80851
410.24        66.29181
410.68        65.99928
411.13        66.01785
411.58        66.20037
412.03        66.48113
412.47        66.80552
412.92        67.06953
413.37        67.31418
413.81        67.45684
414.26        67.41547
414.71        67.17147
415.15        66.73676
415.60        66.25178
416.05        65.97011
416.49        65.95799
416.94        66.16926
417.39        66.42168
417.83        66.38599
418.28         66.0085
418.73        65.40361
419.17         64.8271
419.62        64.68618
420.07        65.02399
420.51        65.69874
420.96        66.43938
421.41        66.76624
421.85        66.54203
422.30        66.09619
422.74         65.5694
423.19        65.09488
423.64        64.79157
424.08        65.00056
424.53        65.59724
424.98        65.99977
425.42        66.10819
425.87        66.41013
426.31        66.85282
426.76        66.71529
427.21        66.24994
427.65        66.61751
428.10        67.68119
428.54        68.47532
428.99        68.92622
429.44        69.00013
429.88         68.8122
430.33        69.59296
430.77        70.64063
431.22        69.46263
431.66        66.66286
432.11        65.12941
432.56        65.22601
433.00        66.10508
433.45        67.59226
433.89        69.49654
434.34        70.33899
434.78        71.58785
435.23         67.9449
435.67        65.40531
436.12        67.93275
436.57        69.10326
437.01        70.02135
437.46        70.39967
437.90        70.32902
438.35        70.37372
438.79        70.52153
439.24        70.43839
439.68        70.15994
440.13        69.76284
440.57        69.54881
441.02        70.21616
441.46        71.48512
441.91        72.48063
442.35        72.85027
442.80        72.25244
443.24        71.10941
443.69        71.66907
444.13         73.5526
444.58        73.52219
445.02        71.80556
445.47        71.45186
445.91        72.40501
446.36        72.66814
446.80        72.19395
447.24        72.03006
447.69        72.24452
448.13        72.50833
448.58        72.81853
449.02        73.20112
449.47        73.58773
449.91        73.88399
450.36           74.06
450.80        74.11934
451.25        74.06824
451.69        73.89331
452.13        73.63822
452.58        73.32397
453.02        73.04887
453.47        73.00651
453.91         73.2063
454.36        73.59122
454.80        74.02167
455.24        74.18849
455.69        74.03872
456.13        73.74078
456.58        73.43501
457.02        72.99288
457.46        72.61086
457.91        72.73969
458.35        73.21671
458.79        73.39358
459.24        73.22993
459.68        73.01188
460.13        72.79214
460.57        72.53555
461.01        72.33276
461.46        72.01073
461.90        71.46769
462.34        72.00925
462.79        71.07439
463.23        71.34221
463.68        71.93812
464.12        72.48399
464.56        72.76638
465.01        72.75215
465.45        72.40359
465.89        72.12691
466.34        71.89516
466.78        70.99034
467.22        69.87663
467.67        69.53951
468.11         70.7137
468.55        71.35728
468.99        71.40611
469.44        71.05491
469.88        70.52475
470.32        70.55872
470.77        71.06586
471.21        71.14375
471.65        70.74181
472.10        70.52423
472.54        70.56939
472.98        70.65723
473.42         70.7719
473.87        71.13541
474.31        71.54221
474.75        71.35126
475.20        70.71164
475.64         70.4697
476.08        70.68298
476.52        70.60152
476.97        70.19734
477.41        70.21677
477.85        70.76565
478.29        70.02813
478.74        70.93381
479.18        70.98903
479.62        69.82809
480.06        70.38409
480.50        70.76902
480.95        71.17258
481.39        71.11222
481.83        70.39806
482.27          70.087
482.72        70.41867
483.16        68.65108
483.60         69.0076
484.04        70.58326
484.48        70.94915
484.93        70.49998
485.37        72.50944
485.81        72.48436
486.25        71.29132
486.69        95.95369
487.14        77.72249
487.58        48.62936
488.02        60.43462
488.46        67.79102
488.90        67.58886
489.34        69.28048
489.79        68.81637
490.23        70.84453
490.67        71.55444
491.11        70.34707
491.55        70.37216
491.99        71.16673
492.43        71.08449
492.88        70.19518
493.32        70.02699
493.76        70.13577
494.20        70.36934
494.64        70.50063
495.08        70.77526
495.52        71.14033
495.96        71.14804
496.41        70.77913
496.85        70.95354
497.29        71.51899
497.73        70.43565
498.17        68.64799
498.61        69.09758
499.05        71.72069
499.49        72.13991
499.93        71.91684
500.37        71.64131
500.82         71.2714
501.26        70.83668
501.70        71.33186
502.14         71.5001
502.58        71.53426
503.02        71.49972
503.46        71.38057
503.90        71.06757
504.34        70.68685
504.78        70.52589
505.22        70.62593
505.66        70.91666
506.10        71.28258
506.54        71.39821
506.98        71.17625
507.42        70.98186
507.86        70.93029
508.30        70.21676
508.74        70.75758
509.18        70.96712
509.62        71.27853
510.06        71.44212
510.50        71.41747
510.94        71.25148
511.38         71.0359
511.82        70.96161
512.26        71.06712
512.70        71.29185
513.14        71.54295
513.58        71.67325
514.02        71.63895
514.46        71.48675
514.90        71.29682
515.34        71.17648
515.78        71.14687
516.22        71.23391
516.66        71.37955
517.10        71.32627
517.54        71.05054
517.98        71.18531
518.42        70.95579
518.86         71.0399
519.30        71.20168
519.74        71.47559
520.18        71.78242
520.62        71.99002
521.06        72.07098
521.50        72.05429
521.93        71.98561
522.37        71.93822
522.81         71.9414
523.25        71.97685
523.69        72.02549
524.13        72.05918
524.57        72.07332
525.01        72.08083
525.45        72.10365
525.89        72.17455
526.32        72.28441
526.76        72.40902
527.20         72.5069
527.64        72.53406
528.08        72.49749
528.52        72.36036
528.96        72.11393
529.40        71.94823
529.83        71.92162
530.27        71.25505
530.71        71.40944
531.15        71.33405
531.59        71.45707
532.03        71.70342
532.46        72.03946
532.90        72.36297
533.34         72.6047
533.78        72.81731
534.22        72.95966
534.66         72.8856
535.09        72.56994
535.53        72.45728
535.97        71.94755
536.41        71.75847
536.85        71.73016
537.28        71.84596
537.72        72.00703
538.16        72.07321
538.60        72.01391
539.04        71.81108
539.47        71.55172
539.91        71.55744
540.35         71.7751
540.79         71.8594
541.22         71.7729
541.66        71.75235
542.10        71.77951
542.54        71.69016
542.97         71.5427
543.41        71.53995
543.85        71.68985
544.29        71.95406
544.72        72.18115
545.16        72.17037
545.60        71.88753
546.04        71.39587
546.47        70.91984
546.91        70.86877
547.35         71.2967
547.79        71.98841
548.22        72.64588
548.66        73.01521
549.10        72.90209
549.53        72.02065
549.97        70.80103
550.41        70.22372
550.84        70.44013
551.28         71.0266
551.72        71.73259
552.15          72.203
552.59        72.29534
553.03        72.28058
553.46        72.03626
553.90         71.8207
554.34        71.86771
554.77        71.83742
555.21        71.76553
555.65        71.82722
556.08        72.04405
556.52        71.52536
556.96        71.94282
557.39        71.83014
557.83        71.69246
558.27        71.87096
558.70        71.73615
559.14        71.90305
559.57        72.13919
560.01        72.37522
560.45        72.54198
560.88        72.69276
561.32        72.76321
561.75        72.44936
562.19         71.9023
562.63        71.40977
563.06        71.10471
563.50        71.12746
563.93        71.37825
564.37         71.5855
564.80        71.63518
565.24        71.56697
565.68         71.4129
566.11        71.33663
566.55        71.41026
566.98        71.40893
567.42        71.35344
567.85         71.5927
568.29         72.1229
568.72        72.00841
569.16        71.93476
569.60        72.48015
570.03        72.72368
570.47        72.62225
570.90        72.33803
571.34        70.38232
571.77        71.49361
572.21        71.71608
572.64        71.08934
573.08        70.26556
573.51        67.19633
573.95        69.70415
574.38        73.85799
574.82        71.84097
