SpectraSmart Spectrum 2.9.0.0
--------- Device Information -----------
Spectrum Name :  反射率_0
Saving Time :  2024/04/26 02:01:52
Spectro-Module Model Name : SE2030-DUVN
Spectro-Module Serial Number : OS361AC55029948
Wavelength Start : 200
Wavelength End : 1025
Wavelength Unit : Wavelength(nm)
Spectrum Unit : Reflectance(%)
-----------Spectrum Setting ------------
Integration Time : 20ms
Average : 10
Boxcar : 0
Background removal :  enabled
linearity correction :  enabled
SC :  disabled
Intensity correction :  disabled
DWT denoise :  enabled
savitzky-golay :  disabled
FFT :  disabled
Running average :  disabled
Kalman :  disabled
High pass :  disabled
---------------BEGIN--------------------
Wavelength(nm)             Reflectance(%)
200.29               0
200.75        97.63013
201.21        86.62011
201.67        74.19638
202.13        66.97787
202.58        65.72099
203.04         68.8186
203.50        73.61584
203.96        75.59966
204.42        73.85615
204.88        70.35172
205.34        67.18563
205.80        66.40637
206.26        68.82918
206.72        75.95086
207.18        91.11691
207.64        106.6803
208.10         101.714
208.55        85.85406
209.01        75.29848
209.47        72.19299
209.93        73.65823
210.39         78.0767
210.85        82.91473
211.31        82.86597
211.77        76.51131
212.23        66.09983
212.69         56.1027
213.14        53.30215
213.60        58.68358
214.06         70.2468
214.52        83.43904
214.98        91.22237
215.44         91.7495
215.90        87.30615
216.36        80.78598
216.81        76.18077
217.27        74.80683
217.73         75.2471
218.19        75.75418
218.65        74.01641
219.11        69.13258
219.57        60.70298
220.02        49.96553
220.48        44.07533
220.94        46.79541
221.40        55.95224
221.86        64.50443
222.32        65.29276
222.77        59.09944
223.23        50.09422
223.69        42.11606
224.15        39.03544
224.61        40.45958
225.06        44.45864
225.52        48.45451
225.98        49.41739
226.44        46.85758
226.90         42.2432
227.36        37.25783
227.81        34.06623
228.27         33.4348
228.73          34.372
229.19        36.24019
229.65        38.09926
230.10        39.50513
230.56        40.68841
231.02        41.55456
231.48        41.95215
231.93        41.94331
232.39        41.57085
232.85        41.09779
233.31        41.01105
233.77        41.40427
234.22        42.15403
234.68        43.01365
235.14        43.39432
235.60        43.13138
236.05        42.47382
236.51        41.72747
236.97        41.25884
237.43        41.26279
237.88        41.82675
238.34        43.06111
238.80         45.1307
239.26        47.90819
239.71        51.23811
240.17        54.83276
240.63        58.78124
241.08         62.9534
241.54        66.94009
242.00        70.33855
242.46        73.01762
242.91        75.64105
243.37         79.0005
243.83         87.7818
244.28        121.0809
244.74        168.6772
245.20        154.1398
245.66         135.315
246.11         130.296
246.57        134.2214
247.03        151.1372
247.48        196.7773
247.94        154.5609
248.40        101.1043
248.85        86.77588
249.31        83.42973
249.77         84.0368
250.22        87.08015
250.68         93.0322
251.14        101.7732
251.59        107.5826
252.05        104.9175
252.51        96.44029
252.96        87.30046
253.42        82.82751
253.88        82.57613
254.33        84.45879
254.79        88.17447
255.25        92.65175
255.70        96.72852
256.16        100.6305
256.62        102.7659
257.07        101.4594
257.53        97.68424
257.99        92.01416
258.44        86.19251
258.90        83.28479
259.35         82.3589
259.81        82.41091
260.27        81.57958
260.72        78.06206
261.18        72.69313
261.63        66.25975
262.09        60.37267
262.55        56.16652
263.00        53.60236
263.46        52.20963
263.91        51.12156
264.37        49.72805
264.83        47.79715
265.28        45.46031
265.74        43.19542
266.19        41.47559
266.65        40.54457
267.11        40.10508
267.56        39.74386
268.02        38.96676
268.47        37.63834
268.93        35.93072
269.38        34.08159
269.84        32.73254
270.30        32.05902
270.75         31.8872
271.21        31.89005
271.66        31.57485
272.12        30.80923
272.57        29.75871
273.03        28.68724
273.48        27.90328
273.94        27.50642
274.39        27.33837
274.85        27.23469
275.31        26.95293
275.76        26.42835
276.22        25.77815
276.67        25.09831
277.13         24.6101
277.58        24.31193
278.04        24.15877
278.49        24.01631
278.95        23.75553
279.40        23.32444
279.86        22.82195
280.31        22.30024
280.77        21.94105
281.22        21.73695
281.68        21.65505
282.13        21.61419
282.59        21.53259
283.04        21.38645
283.50        21.23775
283.95        21.09381
284.41        20.98083
284.86        20.90336
285.32        20.85762
285.77        20.88021
286.22        21.08631
286.68        21.45504
287.13        21.91957
287.59         22.3363
288.04         22.4871
288.50         22.3588
288.95        22.00542
289.41        21.58993
289.86        21.25705
290.32        21.10889
290.77        21.09471
291.22        21.21155
291.68        21.40959
292.13        21.68736
292.59        22.08501
293.04        22.62687
293.50        23.34132
293.95        24.21618
294.40        25.20587
294.86        26.27745
295.31        27.39861
295.77        28.55864
296.22        29.76258
296.68        30.97979
297.13        32.12856
297.58        33.21027
298.04        34.26061
298.49        35.36407
298.95        36.70841
299.40        38.31602
299.85        40.12317
300.31        42.01311
300.76        43.79183
301.21         45.3765
301.67        46.85494
302.12        48.21044
302.58        49.52052
303.03        50.79944
303.48        52.05661
303.94        53.43398
304.39        55.08876
304.84         57.0433
305.30        59.23657
305.75        61.41851
306.20        63.22689
306.66        64.60593
307.11        65.61445
307.57        66.51254
308.02        67.57775
308.47        68.93394
308.93        70.49596
309.38        72.10641
309.83        73.56786
310.29        74.81493
310.74        75.88915
311.19        76.88687
311.65        77.95091
312.10        79.10374
312.55        80.30054
313.00        81.42448
313.46        82.29803
313.91        82.86132
314.36        83.18714
314.82        83.43921
315.27         83.8176
315.72         84.4143
316.18          85.178
316.63        86.00986
317.08        86.70212
317.53         87.1907
317.99         87.5191
318.44        87.82961
318.89        88.35968
319.35        89.13066
319.80        90.08873
320.25        90.98391
320.70        91.40818
321.16        91.28467
321.61        90.75789
322.06        90.13094
322.51        89.88179
322.97        90.11017
323.42        90.71423
323.87        91.47492
324.32        92.00898
324.78        92.18437
325.23        92.15729
325.68        92.03722
326.13         92.0295
326.59        92.18192
327.04        92.45023
327.49        92.79159
327.94        93.17955
328.39        93.58646
328.85        94.00175
329.30        94.44262
329.75        94.76345
330.20         94.9531
330.66         95.0398
331.11        95.15392
331.56        95.42844
332.01        95.92188
332.46        96.58363
332.92         97.3596
333.37        98.33793
333.82        99.40076
334.27        100.5174
334.72        101.5145
335.17        102.1119
335.63        102.2564
336.08        102.0865
336.53        101.7829
336.98        101.6949
337.43         101.936
337.88        102.3985
338.34        103.0591
338.79         103.967
339.24        105.0348
339.69        106.2855
340.14        107.4239
340.59        107.9296
341.05        107.7227
341.50        106.9501
341.95        106.0914
342.40        105.8895
342.85        106.4966
343.30        107.6971
343.75        109.0898
344.20        109.9579
344.66        110.0993
345.11        109.7342
345.56        109.1455
346.01        108.7563
346.46        108.7022
346.91        108.8356
347.36        109.0818
347.81        109.3436
348.26        109.5752
348.72        109.8421
349.17        110.0881
349.62        110.2506
350.07        110.3108
350.52        110.2608
350.97        110.1486
351.42        110.0666
351.87        110.0341
352.32        110.0311
352.77        110.0003
353.22        109.8475
353.67        109.5614
354.13        109.1963
354.58        108.7985
355.03        108.4991
355.48        108.3166
355.93        108.1947
356.38        108.0654
356.83        107.8231
357.28        107.4328
357.73        106.9337
358.18        106.3301
358.63        105.6287
359.08        104.8576
359.53        104.0284
359.98        103.2127
360.43        102.5201
360.88        101.9632
361.33        101.5039
361.78        101.0753
362.23         100.563
362.68        99.94266
363.13        99.26858
363.58        98.55253
364.03        97.81022
364.48        97.06052
364.93        96.28683
365.38        95.56922
365.83        95.04414
366.28        94.71218
366.73        94.51209
367.18        94.29288
367.63        93.80753
368.08        93.01582
368.53        92.03244
368.98        90.97124
369.43         89.9977
369.88        89.17421
370.33        88.44716
370.78        87.87239
371.23        87.54139
371.68        87.44624
372.13        87.56377
372.58        87.71473
373.03         87.5901
373.48         87.1204
373.93        86.39086
374.38        85.59307
374.83        85.02963
375.28        84.76824
375.72        84.70096
376.17        84.70913
376.62        84.57503
377.07        84.22621
377.52        83.71941
377.97        83.12913
378.42        82.57163
378.87        82.09156
379.32        81.67059
379.77         81.2394
380.22         80.6913
380.67        80.01025
381.11        79.23578
381.56        78.49501
382.01        77.99918
382.46        77.80074
382.91        77.84747
383.36        77.95444
383.81        77.82774
384.26        77.40241
384.71        76.75527
385.15        76.07462
385.60        75.71462
386.05        75.68614
386.50        75.86685
386.95        76.02256
387.40        75.77354
387.85        75.08636
388.29         74.1252
388.74        73.22015
389.19        72.54623
389.64        72.13593
390.09        71.87102
390.54        71.76949
390.98        71.86446
391.43        72.11935
391.88        72.50129
392.33        72.78307
392.78        72.60957
393.23        71.98035
393.67        71.05333
394.12        70.20451
394.57        69.65406
395.02        69.51976
395.47        69.87979
395.91        70.58573
396.36        71.07319
396.81         71.2042
397.26        71.15842
397.71        70.97913
398.15        70.57433
398.60        70.06956
399.05        69.63248
399.50        69.25233
399.95          68.456
400.39        67.71101
400.84        67.39357
401.29        67.57877
401.74        67.83091
402.18        68.02071
402.63        68.01985
403.08        67.91792
403.53        68.05063
403.97        68.42177
404.42        68.76813
404.87        68.93178
405.32        68.77165
405.76        68.25549
406.21         67.5335
406.66        66.81532
407.11        66.34919
407.55        66.26028
408.00         66.5739
408.45         67.1237
408.90        67.50351
409.34        67.50886
409.79        67.06144
410.24        66.39707
410.68        66.06709
411.13        66.15846
411.58        66.37083
412.03        66.63873
412.47        66.96475
412.92        67.24561
413.37        67.51414
413.81         67.6712
414.26        67.60459
414.71        67.29512
415.15        66.77056
415.60        66.20543
416.05        65.90354
416.49        65.94384
416.94        66.26772
417.39        66.65782
417.83        66.72333
418.28        66.38965
418.73        65.78254
419.17        65.18726
419.62        65.05767
420.07        65.44393
420.51        66.18932
420.96        66.98693
421.41        67.28793
421.85        66.94525
422.30        66.35555
422.74        65.70575
423.19        65.10228
423.64        64.72022
424.08        65.08305
424.53        65.98111
424.98        66.51106
425.42        66.52643
425.87        66.60618
426.31        66.80013
426.76        66.66026
427.21         66.3945
427.65        66.73611
428.10        67.57029
428.54        68.32111
428.99        68.92347
429.44        69.14742
429.88        69.05457
430.33        69.84706
430.77        70.87401
431.22        69.71536
431.66        66.96642
432.11        65.64233
432.56        65.96793
433.00        66.51215
433.45        67.25367
433.89          69.029
434.34         70.3147
434.78         72.4228
435.23        67.88051
435.67        66.04451
436.12        68.10859
436.57        69.39244
437.01        70.30835
437.46         70.6339
437.90         70.5056
438.35        70.19845
438.79        70.46574
439.24        70.34263
439.68         70.0873
440.13        69.67941
440.57        69.44968
441.02        70.33059
441.46        71.92276
441.91        72.85993
442.35         72.8601
442.80        72.02734
443.24        70.82668
443.69        71.39415
444.13        73.32217
444.58        73.29736
445.02        71.54944
445.47        71.23615
445.91        72.30903
446.36        72.68956
446.80        72.31358
447.24        72.26754
447.69        72.57144
448.13        72.79982
448.58        72.94752
449.02        73.08442
449.47        73.21709
449.91        73.37309
450.36        73.55624
450.80        73.72847
451.25         73.8624
451.69        73.88675
452.13        73.81311
452.58        73.67531
453.02        73.53012
453.47        73.50713
453.91        73.60522
454.36         73.7828
454.80        73.98064
455.24        73.97193
455.69        73.72789
456.13         73.5455
456.58        73.48539
457.02         72.8431
457.46        72.22166
457.91        72.45978
458.35        73.38901
458.79        73.69864
459.24        73.33757
459.68        72.93095
460.13        72.59341
460.57        72.28811
461.01        72.13949
461.46        71.62709
461.90         71.4754
462.34        71.74111
462.79        71.58395
463.23        71.68363
463.68        71.74686
464.12        72.09615
464.56        72.56358
465.01        72.72598
465.45        72.46527
465.89        72.08329
466.34        71.56889
466.78        70.62275
467.22        69.81179
467.67        68.90197
468.11        70.70506
468.55        71.29342
468.99          71.242
469.44        70.89035
469.88         70.4688
470.32        70.55042
470.77        71.01498
471.21        71.05189
471.65        70.61348
472.10        70.34888
472.54         70.3255
472.98        70.31985
473.42        70.32637
473.87        70.54402
474.31        70.82356
474.75        70.68807
475.20        70.25553
475.64        70.15617
476.08        70.40729
476.52        70.41532
476.97        70.14095
477.41        70.13482
477.85        70.49881
478.29        70.03384
478.74        70.59354
479.18        70.92121
479.62        69.47195
480.06        70.02326
480.50        70.45309
480.95         70.9073
481.39        70.89052
481.83         70.0976
482.27        70.32462
482.72        69.98052
483.16        68.77924
483.60        69.04652
484.04        70.52006
484.48        70.91154
484.93        70.70203
485.37         72.1575
485.81        72.72997
486.25        71.37012
486.69        96.13053
487.14        77.78623
487.58         48.6719
488.02        59.92296
488.46        68.30527
488.90        67.54641
489.34        69.62875
489.79        68.48589
490.23        70.72056
490.67        71.32448
491.11        70.06994
491.55        70.01501
491.99        70.70223
492.43        70.61069
492.88        69.80042
493.32        69.74612
493.76        69.94637
494.20        70.18277
494.64        70.21305
495.08        70.29432
495.52         70.4621
495.96        70.40726
496.41        70.12996
496.85        70.52477
497.29        71.33949
497.73        70.29668
498.17         68.3526
498.61        68.70067
499.05        71.28693
499.49        71.63466
499.93        71.35818
500.37        71.07766
500.82         70.6898
501.26        70.78941
501.70        71.10604
502.14        71.26105
502.58        71.10901
503.02        70.91342
503.46        70.67507
503.90        70.19118
504.34        69.65067
504.78         69.4648
505.22        69.69193
505.66        70.21002
506.10        70.80886
506.54        71.09756
506.98        70.96695
507.42        70.60595
507.86        70.22739
508.30        69.79411
508.74         69.9686
509.18        70.18729
509.62        70.49731
510.06        70.68357
510.50        70.69223
510.94         70.5932
511.38        70.46252
511.82        70.42426
512.26        70.50916
512.70        70.66534
513.14        70.84153
513.58        70.96481
514.02        71.00459
514.46        70.98222
514.90        70.92292
515.34        70.84705
515.78        70.75927
516.22        70.71971
516.66        70.71996
517.10        70.57926
517.54        70.29605
517.98        70.48798
518.42        70.33696
518.86        70.49391
519.30        70.69765
519.74        71.01818
520.18        71.35493
520.62        71.48486
521.06         71.4073
521.50        71.28793
521.93        71.18294
522.37        71.07475
522.81        70.99931
523.25        71.00449
523.69        71.07355
524.13        71.14507
524.57        71.20821
525.01        71.28345
525.45        71.37302
525.89        71.47836
526.32        71.58323
526.76        71.66663
527.20        71.71122
527.64         71.7149
528.08        71.69317
528.52        71.59787
528.96         71.3947
529.40        71.23097
529.83        71.15774
530.27        70.42181
530.71        70.49586
531.15        70.38257
531.59        70.51651
532.03        70.81203
532.46        71.21387
532.90        71.59101
533.34        71.87167
533.78         72.0816
534.22        72.18917
534.66        72.16299
535.09        71.99963
535.53        71.73206
535.97        71.41867
536.41        71.17883
536.85        71.05068
537.28        71.01968
537.72        71.03523
538.16        71.01883
538.60        70.95303
539.04        70.81261
539.47        70.64556
539.91        70.71219
540.35        70.94495
540.79        71.01352
541.22        70.91344
541.66        70.93015
542.10        71.05163
542.54        71.09505
542.97        71.06519
543.41         71.0827
543.85        71.14445
544.29        71.24452
544.72        71.29589
545.16        71.19587
545.60        70.92975
546.04        70.52841
546.47        70.16902
546.91        70.16354
547.35        70.54108
547.79        71.18087
548.22        71.80083
548.66        72.02507
549.10        71.74341
549.53        70.97849
549.97        70.08285
550.41        69.64387
550.84        69.78455
551.28        70.28234
551.72        70.91386
552.15        71.32991
552.59        71.41547
553.03        71.28429
553.46         71.0376
553.90        70.89748
554.34        70.91569
554.77        70.94091
555.21        70.92121
555.65        71.01022
556.08        71.22855
556.52        70.67936
556.96        71.01906
557.39        70.89581
557.83        70.83114
558.27        70.76971
558.70        70.76133
559.14         70.8699
559.57        71.05654
560.01        71.29659
560.45        71.50707
560.88        71.55492
561.32         71.4415
561.75         71.2252
562.19        70.98007
562.63        70.57926
563.06        70.17123
563.50        70.15353
563.93        70.46701
564.37        70.85542
564.80         71.1338
565.24        71.08568
565.68         70.7718
566.11        70.63863
566.55        70.76131
566.98        70.76682
567.42        70.68098
567.85        70.83771
568.29        71.20632
568.72         71.1883
569.16        70.98688
569.60        71.30932
570.03        71.81786
570.47        71.75797
570.90        71.42335
571.34        69.86728
571.77        70.49312
572.21        70.80212
572.64        70.30395
573.08        69.12278
573.51        66.48059
573.95         68.9356
574.38        73.14006
574.82        71.21413
