SpectraSmart Spectrum 2.9.0.0
--------- Device Information -----------
Spectrum Name :  反射率_0
Saving Time :  2024/04/26 01:58:26
Spectro-Module Model Name : SE2030-DUVN
Spectro-Module Serial Number : OS361AC55029948
Wavelength Start : 200
Wavelength End : 1025
Wavelength Unit : Wavelength(nm)
Spectrum Unit : Reflectance(%)
-----------Spectrum Setting ------------
Integration Time : 20ms
Average : 10
Boxcar : 0
Background removal :  enabled
linearity correction :  enabled
SC :  disabled
Intensity correction :  disabled
DWT denoise :  enabled
savitzky-golay :  disabled
FFT :  disabled
Running average :  disabled
Kalman :  disabled
High pass :  disabled
---------------BEGIN--------------------
Wavelength(nm)             Reflectance(%)
200.29               0
200.75        100.7354
201.21        93.87566
201.67        84.48549
202.13        77.72389
202.58        74.50434
203.04        73.76653
203.50        74.07163
203.96        73.32662
204.42         71.2565
204.88        68.85342
205.34        67.21071
205.80        67.41348
206.26        70.02753
206.72        76.59943
207.18        89.54493
207.64        100.2683
208.10        91.65475
208.55        75.59946
209.01        65.67621
209.47          62.578
209.93         63.4576
210.39        66.90424
210.85        71.19721
211.31        72.61031
211.77        69.93897
212.23        64.73348
212.69        59.63739
213.14        58.74718
213.60        62.63837
214.06        70.15549
214.52        78.84369
214.98        85.04714
215.44        87.49972
215.90         87.0033
216.36        85.00454
216.81         83.3911
217.27        82.94733
217.73        83.14358
218.19        82.44433
218.65        78.57726
219.11        70.50272
219.57        57.06198
220.02        39.91673
220.48        29.33586
220.94        31.47642
221.40         43.9039
221.86         56.7094
222.32        59.29762
222.77        52.53957
223.23        41.94101
223.69        32.76396
224.15         30.3411
224.61        34.15216
225.06        41.44955
225.52        48.79019
225.98        51.91513
226.44         50.0448
226.90         45.1166
227.36        39.33846
227.81        35.59942
228.27        34.88918
228.73        36.01395
229.19        38.12095
229.65        39.98092
230.10        41.13391
230.56        41.98139
231.02        42.65199
231.48        43.23541
231.93        43.76115
232.39        44.13021
232.85        44.34062
233.31        44.48714
233.77        44.56197
234.22        44.53949
234.68        44.36865
235.14        43.88791
235.60        43.13974
236.05        42.31926
236.51         41.5476
236.97         40.8782
237.43        40.38043
237.88        40.12418
238.34        40.42519
238.80         42.0319
239.26        45.10652
239.71        49.39592
240.17        53.94678
240.63        57.63686
241.08        60.08294
241.54         61.3236
242.00        61.75796
242.46        62.12476
242.91        63.01964
243.37        64.64398
243.83        70.70518
244.28        98.65575
244.74        145.7522
245.20         139.501
245.66        124.4915
246.11        120.5938
246.57        124.6962
247.03        140.2355
247.48        182.1092
247.94        147.0261
248.40        98.96903
248.85        85.91192
249.31        82.75208
249.77        83.01257
250.22        85.26511
250.68        89.67992
251.14        96.15378
251.59        100.3944
252.05        98.19671
252.51        91.58546
252.96        83.89194
253.42        78.63892
253.88        75.50539
254.33         73.3548
254.79        73.02681
255.25        75.09194
255.70        78.65553
256.16        82.93947
256.62        85.85672
257.07        85.33335
257.53        82.10541
257.99        76.92349
258.44        71.43787
258.90        68.46004
259.35        67.29493
259.81        67.07214
260.27        66.14597
260.72        62.92548
261.18        58.11536
261.63        52.41098
262.09          47.354
262.55        44.08905
263.00        42.50202
263.46         42.0268
263.91        41.69832
264.37        40.73542
264.83        38.98033
265.28        36.65092
265.74        34.37862
266.19        32.89418
266.65        32.41557
267.11        32.53029
267.56        32.68938
268.02        32.22782
268.47         31.0333
268.93        29.35306
269.38        27.50598
269.84        26.26167
270.30        25.83099
270.75        25.98628
271.21         26.3657
271.66        26.43875
272.12        26.04092
272.57        25.33892
273.03          24.557
273.48        23.94998
273.94        23.61556
274.39        23.43115
274.85        23.26955
275.31        22.95244
275.76        22.44087
276.22         21.8305
276.67        21.23881
277.13        20.90549
277.58        20.81516
278.04        20.89608
278.49        20.95343
278.95        20.76183
279.40        20.26722
279.86        19.60602
280.31         18.8884
280.77        18.37917
281.22        18.09943
281.68        17.98249
282.13        17.94562
282.59        17.89237
283.04        17.79131
283.50        17.70873
283.95        17.61602
284.41         17.4755
284.86        17.28905
285.32        17.06723
285.77        16.91341
286.22        17.04155
286.68        17.44301
287.13        18.01867
287.59        18.55165
288.04        18.71985
288.50        18.48945
288.95        17.96107
289.41        17.35142
289.86        16.89151
290.32        16.69888
290.77        16.69184
291.22        16.83454
291.68        17.03288
292.13        17.26533
292.59        17.57274
293.04        17.97689
293.50         18.5022
293.95        19.13453
294.40         19.8237
294.86        20.52847
295.31         21.2067
295.77        21.85312
296.22        22.49157
296.68        23.11931
297.13        23.70059
297.58        24.25851
298.04        24.82057
298.49        25.47673
298.95        26.40563
299.40        27.62166
299.85        29.06409
300.31         30.5818
300.76        31.93526
301.21        33.03999
301.67        33.98854
302.12        34.83222
302.58        35.72298
303.03        36.68964
303.48        37.70359
303.94        38.82206
304.39        40.08904
304.84        41.50315
305.30        43.04314
305.75        44.55854
306.20        45.82855
306.66        46.83047
307.11        47.59982
307.57        48.30597
308.02        49.11668
308.47        50.12154
308.93        51.26883
309.38        52.48498
309.83        53.69111
310.29        54.83668
310.74        55.91884
311.19        56.93865
311.65        57.89856
312.10        58.79866
312.55        59.64669
313.00        60.40133
313.46        61.00726
313.91        61.44689
314.36         61.7489
314.82        62.04986
315.27        62.52636
315.72        63.23557
316.18        64.12896
316.63        65.05737
317.08        65.73336
317.53        66.08198
317.99        66.17432
318.44        66.20699
318.89        66.50494
319.35        67.12697
319.80        67.99443
320.25        68.86598
320.70        69.33886
321.16        69.31978
321.61        68.94405
322.06        68.46832
322.51        68.29417
322.97        68.50912
323.42        69.02206
323.87        69.64249
324.32        70.04364
324.78        70.12193
325.23        70.01132
325.68        69.83859
326.13        69.82714
326.59        70.02545
327.04          70.376
327.49        70.80113
327.94        71.20158
328.39         71.5359
328.85        71.82858
329.30        72.11459
329.75        72.32267
330.20        72.46634
330.66        72.54733
331.11        72.70118
331.56        73.08382
332.01          73.738
332.46         74.6059
332.92        75.56203
333.37        76.50886
333.82        77.30838
334.27        77.98305
334.72         78.4727
335.17         78.7032
335.63        78.68812
336.08        78.48734
336.53        78.25778
336.98         78.2882
337.43        78.65339
337.88        79.28603
338.34        80.04748
338.79        80.77386
339.24        81.36045
339.69        81.86907
340.14        82.28285
340.59        82.57492
341.05          82.756
341.50         82.8072
341.95        82.84008
342.40        83.05113
342.85        83.47934
343.30        84.08561
343.75        84.72185
344.20        85.11507
344.66        85.20696
345.11        85.06809
345.56         84.8577
346.01         84.8168
346.46         85.0077
346.91        85.35255
347.36        85.75304
347.81        86.06011
348.26        86.23537
348.72        86.35168
349.17        86.43384
349.62        86.57177
350.07        86.78855
350.52        87.04458
350.97         87.3101
351.42        87.55326
351.87        87.75548
352.32        87.91631
352.77        88.03321
353.22        88.10086
353.67        88.11581
354.13        88.09333
354.58        87.98997
355.03        87.79345
355.48        87.51119
355.93        87.15842
356.38        86.79021
356.83        86.49204
357.28        86.27605
357.73        86.11134
358.18        85.94051
358.63        85.66785
359.08        85.27536
359.53        84.80937
359.98        84.29552
360.43        83.77278
360.88        83.26019
361.33        82.73553
361.78        82.25383
362.23        81.90478
362.68        81.69697
363.13        81.61524
363.58        81.52781
364.03        81.22222
364.48        80.66164
364.93        79.90221
365.38        79.11954
365.83        78.60498
366.28        78.41438
366.73        78.44389
367.18        78.50644
367.63        78.29763
368.08        77.74819
368.53        76.98312
368.98        76.13454
369.43        75.39218
369.88        74.82234
370.33        74.36555
370.78        74.02129
371.23        73.79467
371.68        73.66553
372.13        73.63419
372.58        73.63646
373.03        73.55209
373.48        73.35295
373.93        73.07336
374.38        72.75197
374.83        72.45766
375.28        72.21146
375.72         71.9706
376.17        71.77808
376.62        71.67657
377.07        71.65165
377.52        71.67535
377.97        71.64414
378.42        71.39185
378.87        70.90394
379.32        70.26477
379.77        69.57579
380.22        68.97796
380.67        68.50655
381.11        68.11292
381.56        67.80447
382.01        67.59701
382.46        67.48344
382.91        67.48114
383.36        67.47518
383.81          67.279
384.26        66.86794
384.71        66.28372
385.15        65.70382
385.60        65.46102
386.05         65.5649
386.50        65.90866
386.95        66.24905
387.40        66.17652
387.85        65.63803
388.29        64.79577
388.74        63.97928
389.19        63.40445
389.64         63.1122
390.09        62.98277
390.54        62.99783
390.98        63.12619
391.43        63.32027
391.88        63.57615
392.33        63.73848
392.78         63.5346
393.23        62.97222
393.67        62.23907
394.12        61.62295
394.57        61.11241
395.02        60.87785
395.47        61.34512
395.91        62.33634
396.36        62.95169
396.81        63.02401
397.26        62.92101
397.71        62.75309
398.15        62.41905
398.60        62.03075
399.05        61.84473
399.50        61.75549
399.95        60.92894
400.39        59.89721
400.84        59.68666
401.29        60.30267
401.74        60.58557
402.18         60.4184
402.63        60.28614
403.08        60.31668
403.53        60.52754
403.97        60.91814
404.42        61.37719
404.87        61.73617
405.32        61.73968
405.76        61.33512
406.21         60.7596
406.66        60.17119
407.11        59.63165
407.55        59.34285
408.00        59.58034
408.45        60.22105
408.90        60.86338
409.34        61.17739
409.79        60.70409
410.24        59.75942
410.68         59.3778
411.13        59.66314
411.58        60.02918
412.03        60.35407
412.47        60.69104
412.92        60.92798
413.37        61.08149
413.81        61.11575
414.26        61.01498
414.71        60.77882
415.15        60.40903
415.60        60.01909
416.05        59.81164
416.49        59.83804
416.94        60.07129
417.39         60.3445
417.83        60.35072
418.28        60.04282
418.73        59.52465
419.17        59.03664
419.62        58.96291
420.07         59.3409
420.51        60.03227
420.96        60.78457
421.41        61.12745
421.85        60.92368
422.30        60.54866
422.74        60.11533
423.19        59.57626
423.64        59.12154
424.08         59.4111
424.53        60.28266
424.98         60.8278
425.42        60.91853
425.87        61.11522
426.31        61.44103
426.76        61.48565
427.21        61.38818
427.65        61.67002
428.10          62.244
428.54        62.77419
428.99        63.22577
429.44        63.29469
429.88        63.08494
430.33        63.75426
430.77        64.69347
431.22        63.81494
431.66        61.58914
432.11        60.27238
432.56        60.22336
433.00        61.12186
433.45        62.82048
433.89        64.57561
434.34        65.07015
434.78         66.2921
435.23        63.59047
435.67        60.91001
436.12        63.87904
436.57        64.75963
437.01        65.14481
437.46        65.42355
437.90        65.83402
438.35        64.81106
438.79        65.56688
439.24        65.43595
439.68        65.38974
440.13        65.26662
440.57        65.29394
441.02        66.14175
441.46        67.43798
441.91        68.11821
442.35        68.00011
442.80        67.24093
443.24        66.22672
443.69        66.73287
444.13        68.39856
444.58        68.37347
445.02        66.87305
445.47        66.69827
445.91        67.77066
446.36        68.15476
446.80        67.78596
447.24        67.69633
447.69        67.96162
448.13        68.23946
448.58        68.56364
449.02        69.03638
449.47        69.55575
449.91        69.96605
450.36        70.17516
450.80        70.04305
451.25        69.68406
451.69        69.42261
452.13        69.33056
452.58        69.25477
453.02        69.18767
453.47        69.21462
453.91        69.31389
454.36        69.47497
454.80        69.65091
455.24        69.65329
455.69        69.46655
456.13        69.27297
456.58         69.1918
457.02        68.70803
457.46        68.64645
457.91        68.77988
458.35         69.1755
458.79        69.32812
459.24        69.22865
459.68        69.05295
460.13        68.82951
460.57        68.61314
461.01        68.50163
461.46        67.92782
461.90        67.62518
462.34        67.98179
462.79        67.65768
463.23        67.96444
463.68        68.34794
464.12        68.64402
464.56        68.76554
465.01        68.84581
465.45        68.76598
465.89        68.56004
466.34        68.16292
466.78        67.13634
467.22        66.05946
467.67        65.35366
468.11        67.02838
468.55        67.68584
468.99        67.63987
469.44        67.32481
469.88        66.95265
470.32        67.03006
470.77        67.46681
471.21        67.53457
471.65         67.1874
472.10         67.0171
472.54        67.07982
472.98        67.12723
473.42        67.14068
473.87        67.39364
474.31        67.70453
474.75        67.39464
475.20        66.65077
475.64        66.46373
476.08        66.84618
476.52        66.86581
476.97        66.48608
477.41        66.64139
477.85        66.95356
478.29        66.57546
478.74        67.25536
479.18        67.04707
479.62        66.29523
480.06        66.80376
480.50        67.10228
480.95        67.38155
481.39         67.2211
481.83        66.54815
482.27        66.74564
482.72        66.32133
483.16         65.4965
483.60        65.52199
484.04         67.0947
484.48        67.27562
484.93        66.84273
485.37        68.43663
485.81        69.17751
486.25        67.71109
486.69        91.36272
487.14        73.31521
487.58         46.3499
488.02        56.78736
488.46        65.21593
488.90        64.43056
489.34        66.03618
489.79        65.50193
490.23        67.63065
490.67        68.30463
491.11        66.87866
491.55        66.67301
491.99        67.28373
492.43        67.14848
492.88        66.35463
493.32        66.35117
493.76        66.66501
494.20        67.04436
494.64        67.22888
495.08        67.50765
495.52        67.86054
495.96        67.75713
496.41        67.24558
496.85        67.58427
497.29        68.51052
497.73         67.3316
498.17        65.25024
498.61         65.5098
499.05        68.15141
499.49        68.81286
499.93        68.88088
500.37        68.62192
500.82        67.97374
501.26        67.84107
501.70        68.06283
502.14        68.30531
502.58        68.38266
503.02        68.32403
503.46        68.10748
503.90        67.70842
504.34        67.28165
504.78        67.09206
505.22        67.18309
505.66        67.47979
506.10        67.87649
506.54        68.09019
506.98        67.94956
507.42        67.96357
507.86        67.45958
508.30        66.89278
508.74         67.5242
509.18         67.9404
509.62        68.38104
510.06        68.59212
510.50        68.51939
510.94         68.2232
511.38        67.84249
511.82        67.62812
512.26        67.64491
512.70        67.81917
513.14        68.06544
513.58        68.24488
514.02        68.30474
514.46        68.28581
514.90        68.23251
515.34        68.19209
515.78        68.17156
516.22        68.21876
516.66         68.2988
517.10        68.17971
517.54        67.85481
517.98        68.01098
518.42        67.78612
518.86        67.93004
519.30        68.17276
519.74        68.55135
520.18        68.95821
520.62        69.21289
521.06        69.27774
521.50         69.1948
521.93        69.02874
522.37        68.88801
522.81        68.81786
523.25        68.79398
523.69        68.80268
524.13         68.8223
524.57        68.84544
525.01        68.88355
525.45        68.94497
525.89        69.03703
526.32         69.1453
526.76        69.25425
527.20        69.32752
527.64        69.33185
528.08        69.27701
528.52        69.11943
528.96        68.86584
529.40        68.72149
529.83        68.74257
530.27        68.18021
530.71        68.39196
531.15          68.309
531.59         68.3351
532.03         68.4202
532.46         68.5913
532.90        68.85609
533.34        69.17734
533.78        69.53604
534.22        69.82531
534.66        69.89834
535.09        69.72628
535.53        69.38319
535.97        68.97581
536.41        68.69784
536.85        68.60696
537.28        68.65549
537.72        68.77094
538.16        68.84329
538.60        68.83838
539.04        68.74281
539.47         68.5943
539.91        68.63126
540.35        68.79327
540.79        68.76478
541.22        68.56804
541.66         68.5338
542.10        68.65694
542.54        68.72209
542.97        68.73289
543.41        68.82623
543.85        68.98795
544.29        69.19098
544.72        69.32924
545.16         69.2711
545.60        68.99311
546.04        68.55389
546.47        68.13952
546.91        68.02407
547.35         68.2739
547.79        68.89484
548.22        69.58482
548.66        69.81487
549.10        69.47555
549.53        68.70265
549.97          67.862
550.41        67.47903
550.84        67.64007
551.28        68.23987
551.72        69.05625
552.15         69.3916
552.59        69.05576
553.03        69.54015
553.46        68.71319
553.90         68.5736
554.34        68.48819
554.77        68.59377
555.21        68.91756
555.65          68.396
556.08        69.35387
556.52        68.79446
556.96        69.03092
557.39        68.81303
557.83         68.7129
558.27        68.72874
558.70        68.84865
559.14        68.99348
559.57        69.12008
560.01        69.28896
560.45        69.44754
560.88        69.55183
561.32        69.56265
561.75        69.29761
562.19        68.89436
562.63         68.5475
563.06        68.35637
563.50        68.47941
563.93        68.80627
564.37        68.99413
564.80        68.97639
565.24        68.97626
565.68        68.99225
566.11        68.95925
566.55        68.93253
566.98        68.86089
567.42        68.79877
567.85        68.92268
568.29        69.27439
568.72        69.26964
569.16        69.14381
569.60        69.44238
570.03        69.81654
570.47        69.83058
570.90         69.7875
571.34        67.56364
571.77        68.51653
572.21        68.49525
572.64         68.2911
573.08        67.15215
573.51        64.40786
573.95        66.79671
574.38        70.88212
574.82        68.78668
