SpectraSmart Spectrum 2.9.0.0
--------- Device Information -----------
Spectrum Name :  反射率_0
Saving Time :  2024/04/26 23:41:13
Spectro-Module Model Name : SE2030-DUVN
Spectro-Module Serial Number : OS361AC55029948
Wavelength Start : 200
Wavelength End : 1025
Wavelength Unit : Wavelength(nm)
Spectrum Unit : Reflectance(%)
-----------Spectrum Setting ------------
Integration Time : 20ms
Average : 10
Boxcar : 0
Background removal :  enabled
linearity correction :  enabled
SC :  disabled
Intensity correction :  disabled
DWT denoise :  enabled
savitzky-golay :  disabled
FFT :  disabled
Running average :  disabled
Kalman :  disabled
High pass :  disabled
---------------BEGIN--------------------
Wavelength(nm)             Reflectance(%)
200.29               0
200.75        75.77048
201.21        66.91382
201.67        59.37963
202.13         56.2424
202.58        57.45141
203.04        62.77403
203.50        71.74326
203.96        80.52947
204.42        85.90562
204.88         88.2567
205.34        87.41077
205.80        84.82304
206.26        81.68684
206.72        77.24389
207.18        73.79545
207.64        73.53713
208.10        76.65354
208.55        84.84184
209.01        95.45131
209.47        96.67431
209.93        85.82494
210.39        71.96803
210.85        63.19805
211.31        63.52024
211.77         74.0838
212.23        102.4514
212.69        176.4113
213.14          301.99
213.60        299.4608
214.06          213.79
214.52        154.1904
214.98        125.1471
215.44        109.9993
215.90        98.37388
216.36        90.88261
216.81        90.89626
217.27        100.0266
217.73        122.3982
218.19        155.6088
218.65        172.3066
219.11        160.1494
219.57        136.0515
220.02        118.7786
220.48        118.8712
220.94        135.1398
221.40        168.6357
221.86        218.9296
222.32        254.9071
222.77        247.3122
223.23        216.3298
223.69        184.0192
224.15        163.0385
224.61        152.1113
225.06        145.4503
225.52         142.839
225.98        143.4967
226.44        146.7031
226.90        152.7481
227.36        159.6169
227.81        163.3184
228.27        163.3215
228.73        160.4974
229.19        157.8001
229.65        158.9541
230.10        163.9927
230.56        171.7333
231.02        178.9976
231.48        180.8421
231.93        176.5977
232.39        169.2405
232.85        161.8678
233.31        158.4846
233.77         159.491
234.22        163.2687
234.68        168.1447
235.14        171.5309
235.60        172.4701
236.05        171.9235
236.51        169.6378
236.97        165.8766
237.43        161.1048
237.88        155.3575
238.34        149.5956
238.80        145.8243
239.26        144.6288
239.71        146.8758
240.17         151.376
240.63        155.6187
241.08        158.1151
241.54        157.8457
242.00        157.2722
242.46        161.7667
242.91        175.5772
243.37        200.5292
243.83        236.6804
244.28        265.3909
244.74        259.7138
245.20        221.1491
245.66        176.8195
246.11        149.0991
246.57        137.7188
247.03        135.9098
247.48        135.5906
247.94        125.7206
248.40        109.3018
248.85        93.75975
249.31        82.99929
249.77        77.88343
250.22        77.18632
250.68        79.50802
251.14         85.0957
251.59        92.84174
252.05        100.4955
252.51        107.9604
252.96        112.3322
253.42        112.4463
253.88        109.4826
254.33        104.0536
254.79        101.2416
255.25        105.2772
255.70        115.4329
256.16        130.0878
256.62        142.9453
257.07        144.3458
257.53        136.9767
257.99        126.9156
258.44        119.0496
258.90        117.8945
259.35         121.434
259.81        127.7973
260.27        134.1642
260.72        137.0796
261.18        136.7728
261.63        134.2111
262.09        131.5963
262.55        130.1329
263.00        129.6546
263.46        129.9187
263.91        129.7291
264.37         128.416
264.83        125.9192
265.28        122.7313
265.74         119.968
266.19        118.2986
266.65        117.9562
267.11        118.3992
267.56        119.1439
268.02        119.4803
268.47         119.141
268.93        118.4454
269.38        117.3873
269.84        116.1192
270.30        114.6877
270.75        112.9562
271.21        111.3053
271.66        110.1925
272.12        109.6751
272.57        109.5666
273.03        109.3073
273.48         107.915
273.94        105.4155
274.39        102.1608
274.85        99.00638
275.31        96.79495
275.76        95.61235
276.22        95.21497
276.67        95.10111
277.13        94.85377
277.58        94.15599
278.04         93.2054
278.49        91.93999
278.95        90.54564
279.40        88.97279
279.86        87.37825
280.31        85.60754
280.77         83.7519
281.22        81.77142
281.68        79.87737
282.13         78.2096
282.59        77.18834
283.04        76.71798
283.50        76.70733
283.95        76.77613
284.41        76.40305
284.86        75.44848
285.32        74.14691
285.77        72.74115
286.22        71.72666
286.68        71.18517
287.13        70.87481
287.59        70.62032
288.04        70.05158
288.50        69.15556
288.95         68.0161
289.41        66.82629
289.86         65.6952
290.32        64.75048
290.77        63.90116
291.22        63.16694
291.68        62.54436
292.13        61.99226
292.59        61.54998
293.04        61.20651
293.50        60.98622
293.95        60.86362
294.40        60.82345
294.86        60.83205
295.31        60.81898
295.77        60.78619
296.22        60.73727
296.68         60.7108
297.13        60.72753
297.58        60.81427
298.04        60.96761
298.49        61.18547
298.95        61.49961
299.40        61.88242
299.85        62.31208
300.31        62.75526
300.76        63.12889
301.21        63.41367
301.67        63.63826
302.12        63.76264
302.58        63.83215
303.03        63.82472
303.48        63.78597
303.94        63.76379
304.39        63.75386
304.84        63.78913
305.30        63.87449
305.75        63.99104
306.20        64.19547
306.66        64.49043
307.11        64.81811
307.57         65.1087
308.02        65.16673
308.47        64.99091
308.93        64.65431
309.38        64.25918
309.83        64.04709
310.29        64.06668
310.74        64.23637
311.19        64.43484
311.65        64.45488
312.10        64.23295
312.55        63.83585
313.00        63.37813
313.46        63.02413
313.91        62.79314
314.36        62.65212
314.82        62.50745
315.27        62.23354
315.72         61.8048
316.18        61.29332
316.63        60.79264
317.08        60.46846
317.53        60.34717
317.99        60.35406
318.44        60.40026
318.89        60.32589
319.35        60.08085
319.80        59.71697
320.25        59.27275
320.70        58.81245
321.16        58.36649
321.61         57.9383
322.06        57.54601
322.51        57.22943
322.97         56.9851
323.42        56.80682
323.87        56.67994
324.32        56.58278
324.78        56.47579
325.23        56.39692
325.68        56.24894
326.13        55.89737
326.59        55.33596
327.04        54.62778
327.49        53.94401
327.94        53.56226
328.39         53.5346
328.85        53.76499
329.30        54.12088
329.75        54.23868
330.20        54.00952
330.66        53.52049
331.11        52.95694
331.56        52.58116
332.01        52.46838
332.46        52.52089
332.92        52.60822
333.37        52.59509
333.82        52.40073
334.27        52.10541
334.72        51.75777
335.17        51.42202
335.63         51.1343
336.08        50.90361
336.53        50.76674
336.98        50.80812
337.43        51.02848
337.88        51.38467
338.34        51.78648
338.79        52.13035
339.24        52.33916
339.69        52.43583
340.14        52.38886
340.59        52.16767
341.05        51.81033
341.50        51.33357
341.95        50.87634
342.40        50.64772
342.85        50.68976
343.30        50.94962
343.75        51.29463
344.20        51.49502
344.66        51.48906
345.11        51.33954
345.56         51.1319
346.01         51.0088
346.46         51.0132
346.91        51.09324
347.36        51.20498
347.81        51.28941
348.26        51.32341
348.72        51.32896
349.17        51.31401
349.62        51.30656
350.07        51.31068
350.52        51.31629
350.97        51.28806
351.42        51.17583
351.87         50.9784
352.32        50.72113
352.77        50.46867
353.22         50.3085
353.67        50.25623
354.13        50.28591
354.58        50.33902
355.03        50.31063
355.48        50.17183
355.93        49.94909
356.38        49.70893
356.83        49.55181
357.28        49.49166
357.73        49.48785
358.18        49.46125
358.63        49.29052
359.08        48.95146
359.53        48.49036
359.98        47.98689
360.43        47.55258
360.88        47.21402
361.33        46.94148
361.78        46.68505
362.23        46.36601
362.68        45.97411
363.13        45.54805
363.58        45.13601
364.03        44.80629
364.48        44.56811
364.93        44.38339
365.38        44.22434
365.83        44.05094
366.28        43.84635
366.73        43.63011
367.18        43.37782
367.63        43.04907
368.08        42.65036
368.53         42.1978
368.98        41.76913
369.43        41.48911
369.88        41.37923
370.33        41.39948
370.78        41.46183
371.23         41.4164
371.68        41.21877
372.13         40.9115
372.58        40.55001
373.03        40.22707
373.48        39.97061
373.93        39.74384
374.38         39.5331
374.83        39.32167
375.28        39.09935
375.72        38.87199
376.17         38.6427
376.62        38.36095
377.07        38.03101
377.52        37.67573
377.97        37.33968
378.42        37.10397
378.87        36.98323
379.32        36.93317
379.77        36.93309
380.22        36.95062
380.67        36.96099
381.11        36.98671
381.56        36.93151
382.01        36.68283
382.46        36.24706
382.91        35.68254
383.36        35.15086
383.81         34.8725
384.26        34.87632
384.71        35.09647
385.15        35.38899
385.60        35.50496
386.05        35.37509
386.50        35.07033
386.95        34.70602
387.40        34.46411
387.85        34.38708
388.29        34.38747
388.74        34.42295
389.19        34.35474
389.64        34.15933
390.09        33.88078
390.54        33.58761
390.98        33.38103
391.43        33.30714
391.88         33.3208
392.33        33.35902
392.78        33.33402
393.23        33.22821
393.67        33.05804
394.12          32.898
394.57        32.79021
395.02        32.74405
395.47        32.72892
395.91        32.72287
396.36        32.67696
396.81        32.59702
397.26          32.508
397.71        32.41167
398.15        32.32766
398.60        32.29956
399.05        32.18553
399.50         32.0361
399.95        32.16314
400.39        32.46425
400.84        32.35186
401.29        31.86844
401.74         31.5911
402.18        31.56255
402.63        31.44572
403.08        31.26022
403.53         31.1747
403.97        31.19234
404.42        31.27577
404.87        31.36196
405.32        31.34563
405.76        31.20316
406.21         30.9796
406.66        30.75826
407.11        30.67364
407.55        30.76146
408.00        30.96858
408.45        31.20513
408.90        31.29481
409.34        31.18701
409.79        30.94578
410.24        30.67391
410.68        30.50834
411.13        30.48832
411.58        30.56922
412.03        30.68246
412.47          30.713
412.92        30.61952
413.37        30.45684
413.81        30.28374
414.26        30.20947
414.71        30.24197
415.15        30.35211
415.60        30.47983
416.05        30.55467
416.49        30.55374
416.94        30.50124
417.39        30.42023
417.83        30.34062
418.28        30.27609
418.73        30.20995
419.17        30.16642
419.62        30.18705
420.07        30.27299
420.51        30.40598
420.96        30.53254
421.41        30.56049
421.85        30.46527
422.30        30.26506
422.74        30.02007
423.19        29.95296
423.64        30.03895
424.08        30.06343
424.53        29.99028
424.98        29.98774
425.42        30.06659
425.87        30.04649
426.31        29.95577
426.76         30.0539
427.21        30.26194
427.65        30.14045
428.10        29.78763
428.54        29.67442
428.99        29.83451
429.44        30.11728
429.88        30.38533
430.33        30.30473
430.77        29.95831
431.22        29.94532
431.66          30.242
432.11        30.33236
432.56         30.2242
433.00         30.2214
433.45         30.2421
433.89         30.2108
434.34        30.19933
434.78        29.49585
435.23        29.70418
435.67        29.68196
436.12         29.8311
436.57        29.90156
437.01        29.86989
437.46        29.84797
437.90         29.8135
438.35        29.66982
438.79        29.46271
439.24        29.35211
439.68        29.35596
440.13        29.43281
440.57        29.53783
441.02        29.60974
441.46        29.62095
441.91        29.55456
442.35        29.43802
442.80        29.51829
443.24        29.71676
443.69        29.70534
444.13        29.50069
444.58        29.43018
445.02        29.49984
445.47        29.53049
445.91        29.51339
446.36        29.52774
446.80        29.56407
447.24        29.60199
447.69        29.62684
448.13        29.60443
448.58        29.53765
449.02        29.43531
449.47        29.32713
449.91        29.24254
450.36        29.20125
450.80        29.18878
451.25        29.20181
451.69        29.21257
452.13        29.21727
452.58        29.21572
453.02        29.21231
453.47        29.21834
453.91        29.23394
454.36        29.25947
454.80        29.26788
455.24        29.21771
455.69        29.11596
456.13        28.96154
456.58        28.82913
457.02        28.78535
457.46        28.85179
457.91         29.0011
458.35         29.1497
458.79         29.1757
459.24        29.07946
459.68        28.88954
460.13        28.70609
460.57        28.60982
461.01        28.64325
461.46        28.75113
461.90        28.91514
462.34        29.08458
462.79        29.22247
463.23        29.34994
463.68        29.41812
464.12        29.36548
464.56        29.18915
465.01        28.95357
465.45        28.69264
465.89         28.5304
466.34        28.48465
466.78        28.51533
467.22        28.60133
467.67        28.67456
468.11         28.7259
468.55        28.76271
468.99        28.78009
469.44        28.76615
469.88        28.72655
470.32        28.65828
470.77         28.5898
471.21        28.57556
471.65        28.62224
472.10         28.7164
472.54        28.81988
472.98        28.87945
473.42        28.88128
473.87        28.85246
474.31        28.79474
474.75        28.73863
475.20        28.70157
475.64        28.66309
476.08        28.63914
476.52        28.63994
476.97        28.66437
477.41        28.72498
477.85        28.80563
478.29        28.83506
478.74        28.82754
479.18        28.86773
479.62        28.94779
480.06        29.00481
480.50        29.04511
480.95        29.07651
481.39        29.07356
481.83        29.27261
482.27        29.23799
482.72        29.32704
483.16        29.43619
483.60        29.50244
484.04        29.51785
484.48         29.7059
484.93        30.03904
485.37        29.69699
485.81        29.88908
486.25        29.80409
486.69        30.48348
487.14        30.86798
487.58        30.63893
488.02        30.72509
488.46        30.15858
488.90        30.25617
489.34        30.44993
489.79        30.68655
490.23        30.78478
490.67         30.8148
491.11        30.81551
491.55         30.8333
491.99        30.90241
492.43        30.98403
492.88        31.09281
493.32        31.28933
493.76        31.52876
494.20        31.72037
494.64        31.85227
495.08        31.88657
495.52        31.87163
495.96        32.06084
496.41        32.39476
496.85        32.45328
497.29        32.24786
497.73        32.35582
498.17        32.37836
498.61        32.57886
499.05        32.76939
499.49        32.84502
499.93        32.73333
500.37        32.86037
500.82        33.16811
501.26        33.35076
501.70        33.38488
502.14        33.42866
502.58        33.52146
503.02        33.65718
503.46        33.84037
503.90         34.0629
504.34           34.27
504.78        34.37498
505.22        34.36045
505.66        34.25602
506.10         34.1211
506.54        34.05143
506.98        34.07508
507.42        34.16528
507.86        34.29498
508.30        34.41785
508.74        34.51465
509.18        34.59913
509.62        34.67102
510.06        34.72848
510.50         34.7734
510.94        34.80266
511.38        34.82358
511.82        34.85117
512.26        34.89164
512.70        34.94534
513.14        35.00941
513.58        35.07821
514.02         35.1459
514.46        35.20539
514.90        35.25991
515.34        35.31529
515.78        35.36882
516.22        35.42082
516.66        35.44262
517.10        35.38907
517.54        35.26142
517.98         35.0815
518.42        34.91076
518.86        34.84582
519.30        34.90498
519.74         35.0538
520.18          35.234
520.62        35.35239
521.06        35.38137
521.50        35.34899
521.93        35.27863
522.37         35.1991
522.81        35.13233
523.25        35.06602
523.69        35.01098
524.13        34.98769
524.57        34.99289
525.01        35.01658
525.45        35.03794
525.89        35.01876
526.32         34.9469
526.76        34.84937
527.20         34.7236
527.64         34.5705
528.08        34.40213
528.52        34.21981
528.96        34.07275
529.40        34.03704
529.83        34.11697
530.27        34.28812
530.71        34.46816
531.15        34.52688
531.59        34.43534
532.03        34.23319
532.46        33.98683
532.90        33.82768
533.34         33.7838
533.78        33.79693
534.22        33.82957
534.66        33.86585
535.09        33.86366
535.53        33.76696
535.97         33.6045
536.41        33.50574
536.85        33.48761
537.28        33.48136
537.72        33.49038
538.16        33.54813
538.60        33.64895
539.04          33.782
539.47        33.91137
539.91        34.00255
540.35        34.04149
540.79        34.04294
541.22          34.032
541.66        34.06152
542.10        34.14116
542.54        34.25621
542.97        34.38766
543.41        34.52073
543.85        34.64343
544.29        34.76601
544.72        34.88284
545.16        35.00737
545.60        35.13702
546.04        35.27164
546.47        35.42096
546.91         35.6005
547.35        35.80616
547.79        36.01861
548.22        36.21891
548.66         36.4007
549.10        36.58534
549.53         36.6992
549.97        36.76868
550.41        36.81542
550.84        36.89192
551.28        37.05216
551.72        37.25743
552.15        37.49378
552.59        37.79491
553.03        37.60837
553.46         38.0641
553.90         38.1754
554.34        38.27306
554.77        38.35867
555.21        38.45607
555.65        38.57194
556.08        38.69453
556.52        38.80219
556.96        38.88322
557.39        39.02472
557.83        39.19388
558.27        39.16695
558.70        38.99274
559.14        38.98426
559.57        39.13396
560.01        39.24417
560.45        39.29768
560.88         39.3913
561.32         39.5395
561.75        39.66845
562.19         39.7931
562.63        39.93024
563.06        40.06977
563.50        40.21073
563.93        40.30118
564.37        40.36549
564.80        40.42139
565.24        40.37704
565.68        40.18811
566.11        40.66566
566.55        40.36393
566.98        40.45334
567.42        40.56368
567.85        40.81156
568.29        41.16804
568.72        41.50413
569.16        41.85239
569.60        42.05448
570.03        42.23803
570.47        42.48517
570.90        42.87627
571.34        42.40493
571.77        43.00547
572.21        43.22087
572.64        43.12098
573.08        43.73692
573.51         43.2935
573.95        43.52956
574.38        43.85882
574.82        44.14769
