SpectraSmart Spectrum 2.9.0.0
--------- Device Information -----------
Spectrum Name :  反射率_0
Saving Time :  2024/04/26 23:30:37
Spectro-Module Model Name : SE2030-DUVN
Spectro-Module Serial Number : OS361AC55029948
Wavelength Start : 200
Wavelength End : 1025
Wavelength Unit : Wavelength(nm)
Spectrum Unit : Reflectance(%)
-----------Spectrum Setting ------------
Integration Time : 20ms
Average : 10
Boxcar : 0
Background removal :  enabled
linearity correction :  enabled
SC :  disabled
Intensity correction :  disabled
DWT denoise :  enabled
savitzky-golay :  disabled
FFT :  disabled
Running average :  disabled
Kalman :  disabled
High pass :  disabled
---------------BEGIN--------------------
Wavelength(nm)             Reflectance(%)
200.29               0
200.75         45.2822
201.21        43.86882
201.67        42.76178
202.13        42.02959
202.58        41.56046
203.04        41.76049
203.50        42.80518
203.96        44.63038
204.42        47.11544
204.88        49.96178
205.34        53.06241
205.80         56.4729
206.26        59.54082
206.72        61.39714
207.18        61.93148
207.64         61.2221
208.10        59.34024
208.55        56.60579
209.01        51.89688
209.47        46.36716
209.93        43.14795
210.39        42.56264
210.85        43.85702
211.31        46.95967
211.77        52.99493
212.23        66.15297
212.69        99.37211
213.14        159.4323
213.60        164.1871
214.06        127.5814
214.52        100.0444
214.98        85.51078
215.44        76.66315
215.90        68.55359
216.36        62.28394
216.81        60.58326
217.27         64.7709
217.73        77.19366
218.19        95.52518
218.65        102.1885
219.11        91.34615
219.57        74.74051
220.02        64.40688
220.48        67.00638
220.94        82.21419
221.40        111.8527
221.86         155.786
222.32        187.4991
222.77         181.535
223.23        154.4213
223.69        125.8709
224.15        107.4262
224.61        97.94044
225.06        92.59113
225.52        90.23756
225.98        89.44121
226.44         89.6846
226.90        91.42326
227.36        94.28618
227.81        97.19582
228.27        99.73305
228.73        101.4829
229.19        102.8607
229.65        104.6884
230.10        106.9463
230.56        109.4777
231.02        111.2191
231.48        110.6001
231.93        107.6119
232.39        103.6202
232.85        99.91708
233.31        98.21486
233.77        98.62178
234.22        100.4169
234.68        102.8983
235.14        105.0373
235.60        106.3858
236.05        107.3689
236.51        107.4005
236.97        105.6919
237.43        102.1914
237.88        97.17648
238.34        91.91147
238.80        88.79714
239.26        88.63726
239.71        91.92053
240.17        97.71446
240.63        103.2892
241.08        106.7948
241.54        107.5839
242.00        107.4599
242.46         110.802
242.91        120.8817
243.37        138.3461
243.83        163.2087
244.28        182.9389
244.74        179.1537
245.20        153.6234
245.66        122.9938
246.11        99.99719
246.57        85.11039
247.03        74.61073
247.48        67.25575
247.94        62.73248
248.40        60.98297
248.85        61.12935
249.31        62.33614
249.77         63.6504
250.22        64.76608
250.68        65.55854
251.14        65.74849
251.59        64.75352
252.05        63.14191
252.51        62.38228
252.96        61.54346
253.42        59.91513
253.88        57.91371
254.33        55.59348
254.79        56.04881
255.25        62.04581
255.70        72.81361
256.16         86.8652
256.62        98.80408
257.07        100.3434
257.53        93.72535
257.99        84.47123
258.44        76.85123
258.90         74.4693
259.35        75.85755
259.81        79.44823
260.27        83.33455
260.72        85.22168
261.18          85.166
261.63         83.8121
262.09        82.44074
262.55        81.68439
263.00        81.46297
263.46        81.66103
263.91        81.61571
264.37        81.01302
264.83        79.80265
265.28        78.19576
265.74        76.85696
266.19        76.15532
266.65        76.21807
267.11        76.71622
267.56        77.28279
268.02        77.35786
268.47        76.78373
268.93        75.82374
269.38        74.61157
269.84        73.44842
270.30        72.42487
270.75        71.42186
271.21        70.60506
271.66        70.13736
272.12        70.01132
272.57        70.12533
273.03        70.16443
273.48         69.5741
273.94        68.35036
274.39        66.64411
274.85        64.89713
275.31        63.50507
275.76        62.52335
276.22        61.88076
276.67        61.37296
277.13         60.8882
277.58        60.27387
278.04        59.62291
278.49        58.85957
278.95        58.05392
279.40        57.14476
279.86        56.24037
280.31        55.23501
280.77        54.18017
281.22        53.03341
281.68        51.90907
282.13        50.87758
282.59         50.1864
283.04        49.77977
283.50        49.62072
283.95        49.48359
284.41        49.05833
284.86        48.28297
285.32        47.31199
285.77         46.3349
286.22        45.71512
286.68         45.4954
287.13        45.48772
287.59        45.51992
288.04        45.25953
288.50        44.67651
288.95        43.85862
289.41        42.95413
289.86        42.06907
290.32        41.31018
290.77        40.61531
291.22        40.03298
291.68        39.61587
292.13        39.33751
292.59        39.19969
293.04        39.14099
293.50        39.08765
293.95        38.99999
294.40        38.89963
294.86        38.78759
295.31        38.65941
295.77        38.53688
296.22        38.41032
296.68        38.33266
297.13        38.36264
297.58        38.51649
298.04         38.7785
298.49        39.08704
298.95        39.36379
299.40        39.57132
299.85        39.72589
300.31        39.86145
300.76        40.01784
301.21        40.20401
301.67        40.41051
302.12        40.57362
302.58        40.66925
303.03        40.66364
303.48        40.59793
303.94        40.51897
304.39        40.45264
304.84        40.42028
305.30        40.41569
305.75        40.40076
306.20        40.37625
306.66        40.35197
307.11        40.32876
307.57        40.29965
308.02        40.19715
308.47        40.03273
308.93        39.82403
309.38        39.64304
309.83        39.65421
310.29        39.87101
310.74        40.23316
311.19        40.57764
311.65        40.63387
312.10        40.34586
312.55        39.80695
313.00         39.2132
313.46        38.85943
313.91        38.79717
314.36        38.94202
314.82        39.14718
315.27        39.18309
315.72        38.98167
316.18        38.63539
316.63         38.2299
317.08           37.91
317.53        37.71659
317.99        37.59035
318.44        37.49971
318.89        37.38854
319.35         37.2347
319.80        37.06154
320.25        36.87151
320.70        36.66254
321.16        36.43703
321.61        36.20615
322.06        35.97434
322.51        35.75713
322.97        35.55722
323.42        35.37609
323.87        35.23149
324.32        35.15624
324.78        35.13717
325.23        35.18283
325.68        35.21376
326.13        35.10776
326.59        34.84036
327.04        34.45856
327.49        34.05953
327.94        33.80444
328.39         33.7279
328.85        33.77066
329.30        33.87645
329.75        33.87266
330.20        33.70851
330.66        33.42841
331.11        33.11947
331.56         32.8932
332.01        32.78397
332.46        32.75115
332.92        32.73199
333.37         32.6756
333.82        32.54441
334.27        32.37332
334.72        32.19788
335.17        32.06763
335.63         32.0004
336.08        32.00055
336.53         32.0527
336.98        32.14633
337.43        32.26816
337.88        32.40266
338.34        32.54901
338.79        32.73993
339.24        32.95288
339.69        33.17676
340.14         33.3252
340.59         33.2692
341.05         33.0082
341.50        32.58839
341.95         32.1647
342.40        31.97047
342.85        32.05773
343.30        32.36329
343.75        32.74658
344.20        32.97149
344.66        32.97408
345.11        32.81739
345.56        32.61018
346.01        32.52871
346.46        32.61581
346.91        32.80717
347.36        33.01123
347.81        33.09373
348.26        33.02613
348.72        32.86599
349.17        32.68414
349.62        32.60094
350.07        32.64727
350.52        32.78161
350.97         32.9444
351.42        33.04365
351.87        33.04792
352.32        32.98157
352.77        32.88254
353.22        32.80293
353.67        32.75747
354.13        32.73499
354.58        32.69829
355.03        32.59158
355.48        32.40893
355.93        32.17081
356.38          31.953
356.83        31.86455
357.28        31.91613
357.73        32.06791
358.18        32.21055
358.63        32.16798
359.08        31.90282
359.53        31.47409
359.98        30.99588
360.43        30.63761
360.88         30.4383
361.33        30.34748
361.78        30.28758
362.23         30.1354
362.68        29.86444
363.13        29.52605
363.58         29.1833
364.03        28.92569
364.48        28.77553
364.93        28.69867
365.38        28.65724
365.83         28.5949
366.28        28.49135
366.73        28.36201
367.18        28.21964
367.63        28.08409
368.08        27.95753
368.53        27.82534
368.98        27.67749
369.43        27.50052
369.88        27.29354
370.33        27.07037
370.78        26.83387
371.23        26.58912
371.68        26.34457
372.13        26.09822
372.58        25.88136
373.03        25.74003
373.48        25.67553
373.93        25.67371
374.38        25.66885
374.83        25.55597
375.28        25.31789
375.72        24.98404
376.17         24.6495
376.62        24.42784
377.07        24.34589
377.52        24.36807
377.97        24.43327
378.42        24.44409
378.87        24.37091
379.32        24.23833
379.77        24.09351
380.22        24.00438
380.67        23.98152
381.11        24.00789
381.56        24.01279
382.01        23.90822
382.46        23.68711
382.91        23.39925
383.36        23.12613
383.81        22.97482
384.26        22.96081
384.71        23.04333
385.15           23.17
385.60        23.25434
386.05        23.26244
386.50        23.21801
386.95        23.12885
387.40        23.00979
387.85          22.876
388.29        22.71269
388.74        22.56779
389.19        22.45521
389.64        22.37532
390.09         22.3181
390.54        22.27282
390.98        22.21308
391.43        22.14618
391.88        22.08139
392.33        22.01003
392.78        21.91912
393.23        21.81145
393.67        21.67821
394.12        21.57326
394.57        21.53493
395.02        21.56393
395.47        21.63699
395.91        21.70879
396.36        21.69004
396.81        21.57638
397.26        21.40758
397.71        21.22172
398.15        21.08684
398.60        21.04543
399.05        20.98563
399.50        20.93008
399.95        21.06865
400.39        21.32768
400.84        21.32632
401.29        21.07407
401.74        20.92119
402.18        20.89033
402.63        20.76558
403.08        20.58545
403.53        20.50547
403.97        20.53835
404.42         20.6452
404.87        20.76585
405.32         20.7992
405.76        20.71935
406.21        20.56739
406.66        20.40456
407.11        20.32851
407.55        20.36766
408.00        20.48325
408.45        20.61988
408.90        20.66982
409.34        20.60165
409.79        20.45567
410.24        20.29452
410.68        20.19943
411.13         20.1941
411.58        20.25078
412.03        20.32395
412.47        20.33821
412.92        20.26724
413.37        20.14698
413.81        20.02041
414.26        19.96434
414.71        19.98594
415.15        20.06649
415.60        20.16287
416.05         20.2196
416.49        20.21885
416.94        20.17658
417.39        20.11772
417.83        20.07835
418.28        20.06792
418.73         20.0695
419.17        20.07899
419.62        20.09132
420.07         20.1037
420.51        20.11933
420.96        20.12832
421.41         20.1085
421.85        20.05302
422.30        19.96077
422.74         19.8569
423.19        19.87016
423.64        19.97542
424.08        20.03281
424.53        20.01428
424.98        20.02732
425.42        20.07846
425.87        20.04926
426.31        19.95744
426.76        19.97655
427.21        20.05805
427.65        19.91544
428.10        19.63739
428.54        19.56496
428.99        19.72488
429.44        20.01013
429.88        20.29682
430.33        20.31143
430.77        20.09358
431.22        20.05388
431.66        20.21154
432.11        20.25267
432.56        20.19094
433.00        20.29062
433.45         20.4446
433.89        20.32052
434.34        20.04988
434.78        19.55162
435.23        19.95702
435.67        20.01268
436.12        20.00314
436.57        19.97538
437.01        19.93372
437.46        19.89658
437.90        19.85476
438.35        19.74881
438.79        19.62044
439.24        19.59878
439.68         19.6965
440.13        19.87613
440.57        20.06776
441.02        20.17443
441.46        20.16667
441.91        20.02515
442.35        19.82843
442.80        19.88095
443.24        20.11414
443.69        20.15497
444.13        19.99629
444.58        19.94564
445.02         20.0017
445.47        19.98674
445.91        19.91223
446.36        19.89147
446.80        19.92584
447.24        19.98104
447.69        20.03817
448.13        20.06005
448.58        20.04322
449.02         20.0018
449.47        19.95048
449.91        19.90007
450.36        19.86339
450.80         19.8301
451.25        19.81588
451.69        19.83212
452.13        19.87894
452.58        19.94787
453.02        20.01011
453.47        20.02189
453.91         19.9746
454.36        19.88638
454.80        19.77858
455.24        19.68554
455.69         19.6273
456.13        19.58281
456.58        19.57044
457.02        19.58647
457.46        19.63351
457.91        19.70795
458.35        19.77267
458.79        19.77345
459.24        19.71865
459.68          19.616
460.13        19.52056
460.57        19.46845
461.01        19.48551
461.46        19.53982
461.90        19.63215
462.34        19.74701
462.79        19.86391
463.23        19.99154
463.68        20.07959
464.12        20.05935
464.56        19.92328
465.01        19.72463
465.45        19.50607
465.89        19.37859
466.34        19.35793
466.78        19.40901
467.22        19.49979
467.67        19.55314
468.11        19.55636
468.55        19.52681
468.99         19.4827
469.44        19.44967
469.88        19.43931
470.32        19.43717
470.77        19.44827
471.21         19.4872
471.65        19.54934
472.10        19.63273
472.54        19.70924
472.98        19.74042
473.42        19.71951
473.87        19.66512
474.31        19.59146
474.75        19.54069
475.20        19.52837
475.64        19.53568
476.08        19.55831
476.52        19.57768
476.97        19.58876
477.41        19.60922
477.85        19.64248
478.29        19.66405
478.74        19.68814
479.18        19.75958
479.62        19.86287
480.06        19.94189
480.50        19.99254
480.95        20.01979
481.39        20.00229
481.83        20.10028
482.27        20.01835
482.72        20.00378
483.16        19.99958
483.60        19.99837
484.04        19.99029
484.48        20.12343
484.93        20.40691
485.37        20.26673
485.81        20.38322
486.25        20.68355
486.69        20.46881
487.14        20.71029
487.58        21.22669
488.02        21.12706
488.46        20.72679
488.90        21.06147
489.34        20.93022
489.79        21.09231
490.23         21.0953
490.67        21.19202
491.11        21.32845
491.55        21.28955
491.99        21.13677
492.43        21.11452
492.88        21.24855
493.32        21.40262
493.76        21.53956
494.20        21.66967
494.64         21.7856
495.08        21.85031
495.52         21.8703
495.96        21.98414
496.41        22.15815
496.85        22.08989
497.29        21.84653
497.73        22.01056
498.17        22.26332
498.61        22.47299
499.05        22.50912
499.49        22.57279
499.93        22.61715
500.37        22.75972
500.82        22.96437
501.26        23.11298
501.70        23.19109
502.14        23.27873
502.58         23.3818
503.02        23.46243
503.46        23.52101
503.90        23.57411
504.34        23.61173
504.78        23.61617
505.22         23.5907
505.66        23.54257
506.10          23.508
506.54        23.54403
506.98        23.65844
507.42        23.83119
507.86        24.01624
508.30        24.13722
508.74        24.17361
509.18        24.14858
509.62        24.09418
510.06         24.0645
510.50        24.07787
510.94        24.11713
511.38        24.17575
511.82        24.24266
512.26        24.31164
512.70        24.39043
513.14         24.4675
513.58        24.52159
514.02        24.54853
514.46         24.5486
514.90        24.54209
515.34        24.56516
515.78        24.62284
516.22        24.70271
516.66        24.77474
517.10         24.7905
517.54        24.74133
517.98        24.64677
518.42        24.53718
518.86        24.46028
519.30        24.43074
519.74        24.43428
520.18        24.45815
520.62         24.4812
521.06        24.49542
521.50        24.50943
521.93        24.52191
522.37        24.52051
522.81        24.50833
523.25        24.48448
523.69        24.46061
524.13        24.45787
524.57         24.4774
525.01        24.50888
525.45        24.53721
525.89        24.53737
526.32        24.50071
526.76        24.44449
527.20        24.37125
527.64        24.28731
528.08        24.20013
528.52        24.10894
528.96        24.03395
529.40        24.00618
529.83          24.027
530.27         24.0875
530.71        24.15199
531.15        24.16484
531.59        24.11331
532.03        24.01254
532.46        23.89001
532.90        23.80744
533.34        23.77575
533.78        23.76506
534.22        23.75578
534.66        23.74686
535.09        23.71433
535.53        23.61582
535.97        23.47874
536.41        23.40528
536.85         23.4086
537.28        23.43869
537.72         23.4858
538.16        23.55227
538.60         23.6284
539.04        23.71055
539.47        23.78535
539.91        23.84816
540.35        23.89254
540.79        23.92185
541.22         23.9403
541.66        23.96452
542.10        23.99763
542.54        24.03823
542.97        24.08705
543.41         24.1544
543.85        24.23794
544.29         24.3388
544.72        24.44456
545.16        24.55187
545.60        24.65438
546.04        24.75617
546.47         24.8681
546.91        25.00368
547.35        25.16084
547.79        25.33294
548.22        25.50204
548.66         25.6364
549.10        25.76021
549.53           25.87
549.97        25.97717
550.41        26.04137
550.84        26.09511
551.28        26.20792
551.72         26.3538
552.15        26.51161
552.59        26.70898
553.03        26.56251
553.46        26.87718
553.90        26.96636
554.34        27.06431
554.77        27.16396
555.21        27.28023
555.65        27.41444
556.08        27.55209
556.52        27.67746
556.96        27.76471
557.39        27.84987
557.83         27.9103
558.27        27.79946
558.70         27.5843
559.14        27.53658
559.57        27.66029
560.01        27.79673
560.45        27.91216
560.88        28.03843
561.32        28.17377
561.75        28.28666
562.19        28.38086
562.63         28.4376
563.06        28.46414
563.50        28.50752
563.93        28.54872
564.37        28.59572
564.80        28.66396
565.24        28.70159
565.68        28.65069
566.11        29.03736
566.55        28.82037
566.98        28.85109
567.42        28.88157
567.85        29.02655
568.29        29.27533
568.72         29.5091
569.16        29.73436
569.60        29.91336
570.03         30.1371
570.47        30.30411
570.90        30.44633
571.34        30.51227
571.77        30.47529
572.21        30.85526
572.64        30.78802
573.08        30.86243
573.51        30.71222
573.95        30.85464
574.38        31.23249
574.82        31.47804
