SpectraSmart Spectrum 2.9.0.0
--------- Device Information -----------
Spectrum Name :  反射率_0
Saving Time :  2024/04/26 23:39:37
Spectro-Module Model Name : SE2030-DUVN
Spectro-Module Serial Number : OS361AC55029948
Wavelength Start : 200
Wavelength End : 1025
Wavelength Unit : Wavelength(nm)
Spectrum Unit : Reflectance(%)
-----------Spectrum Setting ------------
Integration Time : 20ms
Average : 10
Boxcar : 0
Background removal :  enabled
linearity correction :  enabled
SC :  disabled
Intensity correction :  disabled
DWT denoise :  enabled
savitzky-golay :  disabled
FFT :  disabled
Running average :  disabled
Kalman :  disabled
High pass :  disabled
---------------BEGIN--------------------
Wavelength(nm)             Reflectance(%)
200.29               0
200.75        26.13479
201.21        27.14905
201.67        29.15583
202.13         31.2831
202.58        33.43436
203.04        36.71085
203.50        41.24179
203.96        45.83039
204.42        49.12807
204.88         50.1081
205.34        49.07227
205.80        47.98668
206.26        47.35129
206.72        46.71254
207.18        45.05167
207.64        40.63075
208.10        32.77462
208.55        20.69545
209.01        4.888234
209.47       -3.385655
209.93        2.216334
210.39        13.99485
210.85        24.70827
211.31        32.40798
211.77        39.42444
212.23        50.20217
212.69        73.27912
213.14        111.2961
213.60        108.7866
214.06        80.17385
214.52        60.92319
214.98        52.41917
215.44        48.81682
215.90        46.95006
216.36        45.99148
216.81        44.86399
217.27        43.45968
217.73        42.54571
218.19        41.54967
218.65        39.24754
219.11        36.70984
219.57        34.70676
220.02        34.67757
220.48        38.17406
220.94        45.58943
221.40        58.53543
221.86        76.48758
222.32        87.30441
222.77         81.1132
223.23         66.2323
223.69        52.57065
224.15        45.70142
224.61        44.17495
225.06         45.0911
225.52        46.79636
225.98           47.53
226.44        47.14408
226.90         46.3624
227.36        45.63782
227.81        45.58544
228.27        46.31462
228.73        47.16732
229.19        47.92039
229.65        48.43402
230.10        48.65199
230.56         48.7961
231.02        48.48798
231.48        47.17788
231.93          45.007
232.39        42.54507
232.85        40.60889
233.31        40.31318
233.77        41.65207
234.22        44.21324
234.68        47.14188
235.14        49.17382
235.60         49.9213
236.05         49.7428
236.51         48.9294
236.97        48.21104
237.43        47.95288
237.88        47.93054
238.34        48.21039
238.80        49.16873
239.26        50.99159
239.71        54.30832
240.17        58.56898
240.63        62.13799
241.08        63.93354
241.54         63.2196
242.00        61.87767
242.46        64.34325
242.91        73.66496
243.37         91.6888
243.83        118.6251
244.28        140.3285
244.74        137.7525
245.20        112.8714
245.66        83.62698
246.11         65.0631
246.57        57.64052
247.03        56.22091
247.48         58.6659
247.94        61.40446
248.40        62.69473
248.85        63.47815
249.31        63.73581
249.77        62.60289
250.22         59.8064
250.68         54.7803
251.14        47.83773
251.59        42.37116
252.05        41.38306
252.51        44.19172
252.96        47.91814
253.42        49.81149
253.88        49.79047
254.33        48.64058
254.79        48.38461
255.25        50.51831
255.70        54.78647
256.16        60.45279
256.62        65.10349
257.07        65.18238
257.53        61.85828
257.99        57.43667
258.44        53.74853
258.90        52.58931
259.35        53.07529
259.81        54.57136
260.27        55.98363
260.72        56.04361
261.18        54.95025
261.63         53.1161
262.09        51.45761
262.55        50.46927
263.00        50.05898
263.46        50.06958
263.91        49.99609
264.37        49.49478
264.83        48.51933
265.28        47.24514
265.74        46.11611
266.19        45.38947
266.65        45.14789
267.11         45.1649
267.56        45.22761
268.02        45.01039
268.47        44.42789
268.93         43.6357
269.38        42.69408
269.84        41.74675
270.30        40.84192
270.75        39.92519
271.21          39.119
271.66        38.55372
272.12        38.23454
272.57        38.10075
273.03        37.95419
273.48        37.46071
273.94        36.61442
274.39        35.50403
274.85        34.40997
275.31        33.58571
275.76         33.0652
276.22        32.79789
276.67        32.61879
277.13        32.38184
277.58        31.99681
278.04        31.53043
278.49        31.02507
278.95        30.65382
279.40        30.38172
279.86        30.21243
280.31        29.95724
280.77        29.45912
281.22        28.68728
281.68        27.79266
282.13        26.94725
282.59        26.46035
283.04        26.33933
283.50        26.49789
283.95        26.74944
284.41        26.80812
284.86        26.59694
285.32        26.23112
285.77        25.82701
286.22        25.60668
286.68        25.60705
287.13        25.71213
287.59        25.83659
288.04        25.81341
288.50        25.63074
288.95          25.334
289.41        25.00166
289.86         24.6799
290.32        24.42559
290.77        24.20662
291.22        24.05441
291.68         24.0031
292.13        24.04568
292.59        24.19587
293.04        24.41379
293.50        24.65108
293.95        24.88454
294.40         25.1229
294.86        25.40071
295.31        25.76879
295.77        26.23657
296.22        26.77154
296.68        27.32317
297.13        27.80129
297.58        28.19497
298.04        28.53546
298.49        28.87119
298.95        29.29677
299.40        29.81833
299.85        30.39368
300.31        30.97562
300.76        31.48447
301.21        31.89751
301.67        32.25505
302.12        32.53681
302.58         32.7668
303.03        32.93921
303.48        33.07438
303.94        33.22359
304.39        33.43409
304.84        33.71822
305.30        34.05729
305.75        34.38709
306.20        34.65912
306.66          34.863
307.11        35.00659
307.57        35.08901
308.02        35.06376
308.47        34.95172
308.93        34.77417
309.38        34.60306
309.83        34.59654
310.29        34.77302
310.74        35.07693
311.19        35.37916
311.65        35.46126
312.10        35.26881
312.55        34.87249
313.00         34.4048
313.46        34.06337
313.91        33.88779
314.36         33.8322
314.82        33.80939
315.27         33.6888
315.72        33.43568
316.18        33.10739
316.63        32.77577
317.08         32.5605
317.53        32.48157
317.99        32.48508
318.44        32.49568
318.89        32.38594
319.35        32.12291
319.80        31.74842
320.25        31.32629
320.70        30.95719
321.16        30.67241
321.61        30.45732
322.06        30.27491
322.51        30.06717
322.97         29.8144
323.42        29.53969
323.87        29.28584
324.32        29.12302
324.78        29.05027
325.23        29.05604
325.68        29.04561
326.13        28.87384
326.59        28.51142
327.04        28.01684
327.49        27.50122
327.94        27.14047
328.39        26.97146
328.85        26.92964
329.30        26.94996
329.75        26.86191
330.20          26.616
330.66        26.26514
331.11        25.88209
331.56         25.5571
332.01        25.32217
332.46        25.14178
332.92        24.99093
333.37        24.87377
333.82        24.76684
334.27        24.68115
334.72        24.60017
335.17         24.4887
335.63        24.33904
336.08        24.17279
336.53        24.00718
336.98         23.8855
337.43        23.81713
337.88        23.77751
338.34        23.76237
338.79        23.78861
339.24        23.83686
339.69        23.90689
340.14        23.93232
340.59        23.80766
341.05        23.53316
341.50        23.14797
341.95        22.76636
342.40        22.56263
342.85        22.57474
343.30        22.74754
343.75        22.99094
344.20        23.15495
344.66        23.19146
345.11        23.13752
345.56        23.02909
346.01        22.92673
346.46        22.85461
346.91         22.7918
347.36        22.72902
347.81         22.6599
348.26        22.58113
348.72         22.4995
349.17        22.42501
349.62        22.37835
350.07        22.36225
350.52        22.37685
350.97        22.38043
351.42        22.30785
351.87         22.1541
352.32        21.94132
352.77         21.7484
353.22        21.69105
353.67        21.78677
354.13        22.00171
354.58        22.23806
355.03        22.33655
355.48        22.25525
355.93        22.03869
356.38         21.7881
356.83        21.65831
357.28        21.67967
357.73        21.80013
358.18        21.92395
358.63        21.89741
359.08        21.68799
359.53        21.35752
359.98         20.9988
360.43        20.74368
360.88        20.62436
361.33        20.59804
361.78        20.60911
362.23        20.57128
362.68        20.45997
363.13        20.30524
363.58        20.13984
364.03        20.01081
364.48        19.92879
364.93         19.8728
365.38        19.82108
365.83        19.74268
366.28        19.63219
366.73        19.50768
367.18        19.38405
367.63         19.2815
368.08        19.20638
368.53        19.14781
368.98         19.1081
369.43        19.09238
369.88        19.09386
370.33        19.10687
370.78        19.10411
371.23        19.04112
371.68         18.9104
372.13        18.72807
372.58         18.5255
373.03        18.35398
373.48        18.22963
373.93        18.13828
374.38        18.07245
374.83        18.01797
375.28        17.96564
375.72        17.91584
376.17        17.86509
376.62        17.78308
377.07        17.66976
377.52        17.53517
377.97         17.4032
378.42        17.31791
378.87        17.28672
379.32        17.28612
379.77         17.3031
380.22        17.31836
380.67        17.31915
381.11        17.31737
381.56        17.27203
382.01        17.13483
382.46        16.91427
382.91        16.64327
383.36        16.39273
383.81        16.25852
384.26        16.25294
384.71        16.34156
385.15        16.47606
385.60        16.57586
386.05        16.60669
386.50         16.5889
386.95        16.52397
387.40        16.41817
387.85        16.28562
388.29        16.11953
388.74        15.96684
389.19        15.85609
389.64        15.79098
390.09         15.7604
390.54        15.74658
390.98        15.71387
391.43        15.66097
391.88        15.59522
392.33        15.52049
392.78         15.4415
393.23        15.36277
393.67        15.27802
394.12        15.20667
394.57          15.147
395.02        15.09942
395.47        15.05809
395.91        15.03126
396.36        15.02236
396.81        15.03669
397.26         15.0698
397.71        15.09495
398.15        15.08329
398.60        15.04899
399.05        14.94006
399.50        14.79885
399.95        14.79456
400.39        14.88688
400.84        14.79953
401.29        14.55015
401.74        14.39726
402.18        14.35842
402.63         14.2865
403.08        14.19204
403.53        14.15264
403.97        14.16871
404.42        14.21759
404.87        14.26827
405.32        14.26974
405.76        14.20885
406.21        14.10823
406.66        14.00039
407.11        13.93902
407.55        13.94044
408.00        13.98093
408.45        14.03461
408.90        14.04884
409.34        14.00691
409.79        13.92939
410.24        13.84011
410.68        13.76582
411.13        13.71857
411.58        13.68865
412.03        13.66476
412.47        13.63237
412.92        13.58369
413.37        13.52811
413.81         13.4784
414.26        13.46227
414.71        13.47722
415.15        13.51852
415.60        13.55612
416.05        13.54917
416.49        13.49079
416.94        13.39536
417.39        13.29603
417.83        13.24355
418.28        13.24674
418.73        13.28335
419.17        13.33627
419.62         13.3765
420.07        13.39333
420.51        13.39883
420.96        13.38001
421.41        13.31412
421.85        13.20163
422.30        13.04584
422.74        12.89429
423.19        12.87714
423.64        12.98401
424.08        13.11437
424.53        13.20545
424.98        13.25336
425.42        13.24232
425.87        13.11128
426.31        12.92364
426.76          12.876
427.21        12.95535
427.65        12.95198
428.10        12.86566
428.54        12.83078
428.99        12.85026
429.44        12.88793
429.88        12.91735
430.33        12.84579
430.77        12.71456
431.22        12.75066
431.66        12.93137
432.11        12.99772
432.56         12.9397
433.00        12.94459
433.45        12.95916
433.89        12.80125
434.34        12.57475
434.78        12.22251
435.23         12.4512
435.67        12.47783
436.12        12.47615
436.57        12.47199
437.01        12.46588
437.46        12.46286
437.90        12.45302
438.35        12.40162
438.79        12.31844
439.24        12.26015
439.68        12.23512
440.13        12.22584
440.57        12.23141
441.02        12.26345
441.46        12.31541
441.91        12.34833
442.35        12.35171
442.80        12.43429
443.24        12.54031
443.69        12.46211
444.13        12.24281
444.58        12.14786
445.02        12.19411
445.47        12.24977
445.91        12.28571
446.36        12.31555
446.80        12.32637
447.24        12.31699
447.69        12.30109
448.13        12.29362
448.58        12.30077
449.02        12.31367
449.47        12.32461
449.91        12.31655
450.36        12.29035
450.80         12.2527
451.25        12.21518
451.69        12.18735
452.13          12.174
452.58        12.16893
453.02        12.17157
453.47        12.18315
453.91        12.20062
454.36        12.22454
454.80        12.23905
455.24        12.21761
455.69        12.16123
456.13        12.07066
456.58        11.98233
457.02        11.93118
457.46        11.92989
457.91        11.96593
458.35        12.00436
458.79         11.9911
459.24        11.92787
459.68         11.8275
460.13        11.73712
460.57        11.69458
461.01        11.71861
461.46        11.78256
461.90        11.87311
462.34        11.95648
462.79        12.01477
463.23        12.06227
463.68        12.08406
464.12        12.06493
464.56        12.00528
465.01        11.92485
465.45        11.83857
465.89        11.80111
466.34        11.81911
466.78        11.87772
467.22        11.95318
467.67        11.99042
468.11        11.98089
468.55        11.93451
468.99        11.88015
469.44        11.86227
469.88         11.8933
470.32        11.96015
470.77        12.03703
471.21        12.08617
471.65        12.09597
472.10        12.07908
472.54        12.05843
472.98        12.07461
473.42        12.13446
473.87        12.22712
474.31        12.31335
474.75        12.34682
475.20        12.32295
475.64        12.25434
476.08        12.18187
476.52        12.16072
476.97        12.20358
477.41        12.29936
477.85        12.41696
478.29        12.48649
478.74        12.50291
479.18        12.51565
479.62        12.53903
480.06        12.57491
480.50        12.63021
480.95        12.69155
481.39        12.73722
481.83        12.85909
482.27        12.86757
482.72        12.93052
483.16        12.99785
483.60        13.05818
484.04        13.10755
484.48        13.19007
484.93        13.36369
485.37         13.3914
485.81        13.63478
486.25         13.8349
486.69        13.66667
487.14        13.46671
487.58        14.21064
488.02        14.09518
488.46        13.95389
488.90         14.0707
489.34        13.83036
489.79        14.03053
490.23        14.33347
490.67        14.61242
491.11         14.7819
491.55        14.77867
491.99        14.66931
492.43         14.6764
492.88        14.82887
493.32        14.97585
493.76        15.09749
494.20        15.24993
494.64        15.43137
495.08        15.59356
495.52        15.72686
495.96         15.9212
496.41        16.13992
496.85        16.14285
497.29        15.98913
497.73        16.14639
498.17        16.38806
498.61        16.59627
499.05        16.66984
499.49        16.75683
499.93        16.82079
500.37        16.95459
500.82        17.12782
501.26        17.24338
501.70        17.29435
502.14        17.34731
502.58        17.42502
503.02         17.5292
503.46        17.66278
503.90        17.82151
504.34        17.97981
504.78        18.09386
505.22        18.15149
505.66        18.16636
506.10        18.15385
506.54        18.13984
506.98        18.13717
507.42        18.14177
507.86        18.16256
508.30        18.21292
508.74        18.29329
509.18        18.40007
509.62        18.51745
510.06        18.61861
510.50        18.69398
510.94        18.74651
511.38        18.78277
511.82        18.81559
512.26        18.85006
512.70        18.88441
513.14        18.91462
513.58        18.93476
514.02        18.94516
514.46        18.94871
514.90        18.95849
515.34         18.9938
515.78        19.05613
516.22        19.13802
516.66        19.21633
517.10        19.25438
517.54        19.24458
517.98        19.19835
518.42        19.13899
518.86        19.10473
519.30        19.10534
519.74         19.1282
520.18        19.15808
520.62        19.17035
521.06        19.15856
521.50        19.13376
521.93        19.10239
522.37        19.06696
522.81        19.03407
523.25        18.99923
523.69        18.97033
524.13        18.96095
524.57        18.96973
525.01        18.99076
525.45        19.00515
525.89        18.98169
526.32        18.91357
526.76        18.81834
527.20        18.71284
527.64        18.62541
528.08        18.56538
528.52        18.52327
528.96        18.49911
529.40        18.49266
529.83        18.49803
530.27        18.51486
530.71        18.52399
531.15        18.49595
531.59        18.42679
532.03        18.32621
532.46        18.21317
532.90        18.13177
533.34        18.09026
533.78        18.06771
534.22        18.05433
534.66        18.05651
535.09        18.05447
535.53        18.00977
535.97        17.93242
536.41        17.88428
536.85        17.87243
537.28        17.86611
537.72        17.86431
538.16        17.87911
538.60        17.91032
539.04        17.95512
539.47        18.01166
539.91        18.08811
540.35        18.17934
540.79        18.28241
541.22        18.38679
541.66        18.48291
542.10        18.56551
542.54        18.63802
542.97        18.70552
543.41        18.78459
543.85        18.87763
544.29        18.98322
544.72        19.09473
545.16        19.21539
545.60        19.34133
546.04        19.47558
546.47        19.62292
546.91        19.78538
547.35        19.95852
547.79        20.13927
548.22        20.31491
548.66        20.46387
549.10        20.60668
549.53        20.73772
549.97        20.86808
550.41        20.96799
550.84        21.06241
551.28         21.2071
551.72        21.37221
552.15        21.52698
552.59        21.69156
553.03         21.5576
553.46        21.79397
553.90        21.86691
554.34        21.97183
554.77        22.09925
555.21         22.2423
555.65        22.37025
556.08        22.46702
556.52        22.53135
556.96        22.57019
557.39        22.65604
557.83        22.77629
558.27        22.79215
558.70        22.72699
559.14        22.75645
559.57        22.87227
560.01        22.96132
560.45        23.01103
560.88        23.07263
561.32        23.15687
561.75        23.22639
562.19        23.29372
562.63        23.37421
563.06        23.46487
563.50        23.56299
563.93        23.64726
564.37        23.74057
564.80        23.84898
565.24        23.92434
565.68        23.91516
566.11        24.22925
566.55        24.01511
566.98        24.07291
567.42        24.18238
567.85        24.31511
568.29        24.47772
568.72        24.71258
569.16        25.02171
569.60        25.22049
570.03         25.3849
570.47        25.56167
570.90        25.79132
571.34        25.66398
571.77        25.92775
572.21        26.00753
572.64        26.10926
573.08        26.18122
573.51        26.26969
573.95        26.43653
574.38        26.67409
574.82        26.85323
