SpectraSmart Spectrum 2.9.0.0
--------- Device Information -----------
Spectrum Name :  反射率_0
Saving Time :  2024/04/26 23:33:08
Spectro-Module Model Name : SE2030-DUVN
Spectro-Module Serial Number : OS361AC55029948
Wavelength Start : 200
Wavelength End : 1025
Wavelength Unit : Wavelength(nm)
Spectrum Unit : Reflectance(%)
-----------Spectrum Setting ------------
Integration Time : 20ms
Average : 10
Boxcar : 0
Background removal :  enabled
linearity correction :  enabled
SC :  disabled
Intensity correction :  disabled
DWT denoise :  enabled
savitzky-golay :  disabled
FFT :  disabled
Running average :  disabled
Kalman :  disabled
High pass :  disabled
---------------BEGIN--------------------
Wavelength(nm)             Reflectance(%)
200.29               0
200.75        18.37382
201.21        21.25805
201.67        23.78871
202.13         24.0553
202.58        21.83789
203.04        17.61573
203.50        12.44135
203.96        10.17549
204.42        13.41139
204.88        21.36257
205.34        31.28446
205.80        37.65259
206.26         38.5539
206.72        35.86475
207.18        31.66825
207.64        27.45035
208.10        23.18737
208.55        17.77931
209.01        11.39087
209.47        8.932598
209.93        12.56164
210.39        18.87048
210.85        24.55964
211.31        29.01622
211.77        33.72998
212.23         41.4394
212.69        58.47813
213.14         87.5346
213.60        86.43797
214.06        65.86649
214.52        51.36062
214.98         43.7888
215.44        39.07921
215.90        34.96377
216.36        31.65171
216.81        29.73097
217.27        29.80552
217.73        32.74199
218.19        37.84516
218.65        39.98062
219.11        37.34591
219.57        32.80777
220.02        30.71628
220.48        34.23752
220.94        43.74319
221.40        60.82418
221.86         84.5844
222.32        98.38102
222.77         89.3225
223.23        69.31934
223.69        51.14843
224.15         41.7513
224.61         39.2917
225.06        39.90343
225.52        42.02673
225.98        44.23701
226.44          46.121
226.90        48.23325
227.36        49.93549
227.81        49.90993
228.27         48.2385
228.73        45.39127
229.19        42.55834
229.65        41.13041
230.10        41.15364
230.56        42.16833
231.02        43.43969
231.48         43.7903
231.93        42.97195
232.39        41.72391
232.85         40.4912
233.31        39.88135
233.77        39.96989
234.22        40.49551
234.68        41.29123
235.14        42.29258
235.60        43.40276
236.05        44.69339
236.51        45.83462
236.97        46.11832
237.43        45.32003
237.88        43.62558
238.34        41.53966
238.80        40.13865
239.26        39.78331
239.71         40.5317
240.17        42.07619
240.63        43.71053
241.08        44.96781
241.54        45.78428
242.00        46.45156
242.46        47.62188
242.91         50.0193
243.37        53.31958
243.83        58.00671
244.28        63.32113
244.74        66.43803
245.20        66.49808
245.66        64.09132
246.11        59.94361
246.57        55.13525
247.03        49.37895
247.48        43.86625
247.94        41.24465
248.40        41.65112
248.85        43.11845
249.31        44.52135
249.77        44.69674
250.22        43.33646
250.68        40.67608
251.14        36.35394
251.59        30.98737
252.05        26.85853
252.51        24.88805
252.96         24.9326
253.42        26.56706
253.88        29.09299
254.33        31.63068
254.79         34.8428
255.25        39.26904
255.70        44.64906
256.16        50.84417
256.62        55.22613
257.07        53.99268
257.53        48.97882
257.99        43.08321
258.44        38.72269
258.90        37.97935
259.35        39.78296
259.81        42.99573
260.27        46.18494
260.72         47.5627
261.18        47.14118
261.63        45.58974
262.09        43.82203
262.55        42.36675
263.00        41.26486
263.46        40.41057
263.91        39.55793
264.37        38.65331
264.83        37.68191
265.28        36.70209
265.74        35.95995
266.19        35.50519
266.65        35.37406
267.11         35.4419
267.56        35.55381
268.02        35.46743
268.47        35.12113
268.93        34.59757
269.38        33.98611
269.84        33.47616
270.30        33.10251
270.75        32.80228
271.21         32.5454
271.66        32.24322
272.12         31.8756
272.57        31.44987
273.03        30.99455
273.48        30.54164
273.94         30.1348
274.39        29.73236
274.85        29.33892
275.31        28.84515
275.76        28.23735
276.22        27.59542
276.67         26.9827
277.13        26.55828
277.58        26.29775
278.04        26.15644
278.49        26.00788
278.95        25.76628
279.40        25.36729
279.86        24.91713
280.31        24.39637
280.77        23.86176
281.22        23.31358
281.68        22.78717
282.13         22.3292
282.59        22.07152
283.04        21.98995
283.50         22.0523
283.95        22.13897
284.41        22.06406
284.86        21.78903
285.32         21.3989
285.77         20.9811
286.22        20.70722
286.68        20.60932
287.13         20.6022
287.59        20.64106
288.04        20.62338
288.50        20.53712
288.95        20.39757
289.41        20.22976
289.86        20.01383
290.32        19.78868
290.77        19.55554
291.22        19.36084
291.68        19.26587
292.13        19.27587
292.59        19.38248
293.04        19.57289
293.50        19.83962
293.95        20.15794
294.40        20.52647
294.86        20.89974
295.31        21.20389
295.77        21.43146
296.22        21.59319
296.68        21.75049
297.13        21.99262
297.58        22.34338
298.04        22.77648
298.49        23.23603
298.95        23.64573
299.40        23.97473
299.85        24.24407
300.31         24.4833
300.76        24.73373
301.21        25.00363
301.67        25.28493
302.12        25.53094
302.58        25.71989
303.03        25.83033
303.48        25.89631
303.94         25.9545
304.39        26.03384
304.84        26.14955
305.30        26.29523
305.75        26.43772
306.20        26.57161
306.66        26.69299
307.11        26.79201
307.57        26.86372
308.02        26.86594
308.47        26.80507
308.93        26.70138
309.38        26.57776
309.83        26.50675
310.29        26.50228
310.74         26.5403
311.19        26.58408
311.65        26.56815
312.10        26.47202
312.55        26.31514
313.00        26.13536
313.46        25.98771
313.91        25.87502
314.36        25.78651
314.82         25.6882
315.27        25.53551
315.72        25.31999
316.18        25.06885
316.63        24.81483
317.08        24.61691
317.53        24.48645
317.99        24.39965
318.44        24.32928
318.89         24.2223
319.35        24.06259
319.80        23.86294
320.25        23.64205
320.70        23.43025
321.16        23.23619
321.61        23.06079
322.06        22.88697
322.51        22.69024
322.97        22.46489
323.42        22.22348
323.87        22.00279
324.32        21.86366
324.78        21.80793
325.23        21.82839
325.68        21.84848
326.13        21.74572
326.59        21.49331
327.04        21.13823
327.49         20.7696
327.94        20.52984
328.39        20.45006
328.85        20.47967
329.30        20.56377
329.75        20.56312
330.20        20.43557
330.66         20.2218
331.11        19.98159
331.56        19.79402
332.01         19.6832
332.46        19.61306
332.92        19.55566
333.37        19.50097
333.82        19.42645
334.27        19.35051
334.72        19.25675
335.17         19.1107
335.63        18.91467
336.08         18.6939
336.53        18.49753
336.98        18.41602
337.43        18.46671
337.88        18.61055
338.34        18.79941
338.79        18.96867
339.24        19.07171
339.69        19.11936
340.14        19.07665
340.59        18.89476
341.05        18.59274
341.50        18.20048
341.95        17.80504
342.40        17.53855
342.85        17.43479
343.30        17.45639
343.75        17.56495
344.20        17.69056
344.66        17.79975
345.11        17.90404
345.56        17.97037
346.01        17.94914
346.46        17.84369
346.91        17.67261
347.36         17.4932
347.81        17.40347
348.26        17.42452
348.72        17.52198
349.17        17.66381
349.62        17.80585
350.07        17.92223
350.52        18.02605
350.97        18.07456
351.42        18.00039
351.87        17.80605
352.32        17.52007
352.77        17.23129
353.22        17.07289
353.67        17.07136
354.13        17.19151
354.58        17.36244
355.03        17.46488
355.48        17.46178
355.93        17.39064
356.38        17.28943
356.83        17.21761
357.28        17.18873
357.73        17.16968
358.18        17.14921
358.63        17.11613
359.08        17.06161
359.53        16.99621
359.98        16.89802
360.43        16.72762
360.88        16.48625
361.33        16.19123
361.78        15.89592
362.23        15.68706
362.68        15.58829
363.13        15.57906
363.58        15.61037
364.03         15.6024
364.48        15.53096
364.93        15.41214
365.38        15.28335
365.83        15.20785
366.28        15.19726
366.73        15.22694
367.18        15.24587
367.63        15.17706
368.08        15.00973
368.53        14.77698
368.98        14.53561
369.43         14.3745
369.88          14.314
370.33        14.31928
370.78        14.35557
371.23         14.3644
371.68        14.32249
372.13        14.25263
372.58        14.14354
373.03        13.97643
373.48        13.75952
373.93        13.49833
374.38        13.25355
374.83        13.12509
375.28        13.12947
375.72        13.23202
376.17        13.36504
376.62        13.40496
377.07        13.32566
377.52        13.16411
377.97        12.97748
378.42        12.86265
378.87        12.84418
379.32        12.88294
379.77        12.94228
380.22        12.97069
380.67        12.95068
381.11        12.90513
381.56        12.82909
382.01        12.72657
382.46        12.61153
382.91        12.49056
383.36        12.38446
383.81        12.32236
384.26        12.30523
384.71        12.31991
385.15        12.35423
385.60        12.39058
386.05        12.41479
386.50        12.43072
386.95        12.41834
387.40        12.34918
387.85        12.22957
388.29        12.07049
388.74         11.9268
389.19        11.84751
389.64        11.83874
390.09        11.87822
390.54        11.93982
390.98        11.97492
391.43        11.97404
391.88        11.95105
392.33        11.90424
392.78        11.83152
393.23        11.73963
393.67        11.62374
394.12        11.52202
394.57        11.46844
395.02        11.46686
395.47        11.50394
395.91        11.55112
396.36        11.54864
396.81        11.49201
397.26        11.40571
397.71        11.31341
398.15        11.25682
398.60          11.258
399.05        11.25057
399.50        11.24352
399.95        11.33603
400.39        11.48789
400.84          11.496
401.29        11.36023
401.74        11.26059
402.18        11.20936
402.63        11.09573
403.08        10.95687
403.53        10.90174
403.97        10.94176
404.42        11.04641
404.87        11.16525
405.32        11.21373
405.76        11.16889
406.21        11.06197
406.66         10.9368
407.11        10.86319
407.55        10.86232
408.00        10.90791
408.45        10.96701
408.90        10.97729
409.34        10.92134
409.79        10.82419
410.24        10.72375
410.68        10.66647
411.13        10.66684
411.58         10.7107
412.03        10.76813
412.47        10.78912
412.92        10.75698
413.37        10.69061
413.81        10.62611
414.26         10.6243
414.71        10.69007
415.15        10.80442
415.60        10.92151
416.05        10.96794
416.49         10.9244
416.94         10.8178
417.39        10.68733
417.83        10.59227
418.28        10.55039
418.73        10.54144
419.17        10.56079
419.62        10.60039
420.07        10.64994
420.51        10.70895
420.96        10.75427
421.41        10.74645
421.85        10.67845
422.30        10.56226
422.74        10.42646
423.19        10.36272
423.64         10.3659
424.08        10.35968
424.53        10.33369
424.98        10.35188
425.42        10.41555
425.87        10.45771
426.31        10.47185
426.76        10.52578
427.21         10.5852
427.65        10.50288
428.10        10.32605
428.54        10.23866
428.99        10.26107
429.44        10.33837
429.88         10.4205
430.33        10.38963
430.77        10.26989
431.22        10.26473
431.66        10.37009
432.11        10.39669
432.56        10.34463
433.00        10.35375
433.45        10.38398
433.89        10.29262
434.34        10.15772
434.78        9.928533
435.23         10.1628
435.67        10.19949
436.12        10.17867
436.57        10.13176
437.01        10.07989
437.46          10.063
437.90        10.08272
438.35        10.09673
438.79        10.10104
439.24        10.12505
439.68        10.16691
440.13        10.21449
440.57        10.25509
441.02        10.27819
441.46         10.2795
441.91        10.23914
442.35        10.16852
442.80        10.18214
443.24        10.23993
443.69        10.16554
444.13        9.996184
444.58        9.950455
445.02        10.03684
445.47        10.14445
445.91        10.22933
446.36         10.2722
446.80        10.25757
447.24        10.19396
447.69        10.11271
448.13        10.05916
448.58        10.04873
449.02        10.06543
449.47        10.09633
449.91        10.11589
450.36        10.11943
450.80        10.11706
451.25        10.11332
451.69         10.1087
452.13         10.1049
452.58        10.09459
453.02        10.08583
453.47        10.09501
453.91        10.12255
454.36        10.16666
454.80         10.1982
455.24        10.16912
455.69        10.07772
456.13        9.934249
456.58        9.796843
457.02        9.734544
457.46        9.764686
457.91        9.864579
458.35        9.974366
458.79        9.999062
459.24        9.930392
459.68        9.794866
460.13        9.664037
460.57        9.616062
461.01        9.674859
461.46          9.8009
461.90        9.953621
462.34        10.05571
462.79        10.07759
463.23         10.0466
463.68        9.975329
464.12         9.89304
464.56        9.814794
465.01        9.746387
465.45        9.683691
465.89        9.648884
466.34        9.642783
466.78        9.660749
467.22        9.697649
467.67         9.73161
468.11        9.760152
468.55        9.781594
468.99        9.797877
469.44         9.81316
469.88        9.828085
470.32        9.838471
470.77         9.84377
471.21        9.846895
471.65         9.84747
472.10        9.849206
472.54        9.847296
472.98        9.838305
473.42        9.822796
473.87        9.805157
474.31        9.787965
474.75        9.785081
475.20        9.799997
475.64        9.824075
476.08         9.84933
476.52        9.857565
476.97        9.846034
477.41        9.826373
477.85        9.810895
478.29         9.80502
478.74        9.821684
479.18        9.880262
479.62        9.965246
480.06        10.03649
480.50        10.08661
480.95        10.11699
481.39        10.12546
481.83         10.2085
482.27        10.22002
482.72        10.28189
483.16        10.34497
483.60        10.38402
484.04        10.37665
484.48        10.40914
484.93        10.56085
485.37        10.52399
485.81        10.53059
486.25        11.04441
486.69        10.62754
487.14        10.42649
487.58        11.25884
488.02        11.16075
488.46        10.96561
488.90          11.026
489.34        10.91794
489.79        11.08943
490.23        11.26696
490.67        11.45144
491.11        11.57416
491.55        11.54802
491.99        11.42968
492.43        11.41611
492.88        11.53206
493.32        11.65306
493.76        11.75839
494.20        11.88351
494.64        12.02338
495.08        12.14178
495.52        12.23321
495.96        12.37084
496.41        12.52739
496.85        12.51686
497.29        12.38304
497.73        12.48419
498.17        12.64463
498.61        12.77514
499.05        12.80677
499.49        12.86681
499.93        12.92955
500.37        13.06254
500.82        13.22986
501.26        13.33599
501.70        13.37012
502.14        13.38792
502.58        13.42024
503.02         13.4903
503.46        13.60517
503.90        13.75558
504.34        13.90627
504.78        13.99755
505.22        14.01588
505.66        13.98295
506.10        13.92995
506.54        13.90666
506.98        13.92958
507.42        13.98377
507.86        14.06287
508.30        14.15559
508.74        14.25336
509.18        14.35968
509.62        14.46058
510.06          14.533
510.50        14.57242
510.94        14.58188
511.38        14.57936
511.82        14.59635
512.26        14.64124
512.70        14.70715
513.14        14.77747
513.58        14.82436
514.02         14.8408
514.46        14.83448
514.90        14.82319
515.34        14.83506
515.78        14.87532
516.22        14.93399
516.66        14.98916
517.10        15.00627
517.54        14.97945
517.98        14.92312
518.42        14.86036
518.86        14.82728
519.30        14.83345
519.74         14.8659
520.18        14.91255
520.62        14.95417
521.06        14.98331
521.50        15.00687
521.93        15.02144
522.37        15.01529
522.81        14.99025
523.25         14.9453
523.69        14.89592
524.13        14.86825
524.57        14.86481
525.01        14.87679
525.45        14.88218
525.89         14.8444
526.32        14.75642
526.76        14.63869
527.20        14.51164
527.64         14.4075
528.08        14.33718
528.52         14.2907
528.96         14.2669
529.40        14.26348
529.83        14.27441
530.27        14.29947
530.71        14.32121
531.15        14.31242
531.59        14.26812
532.03        14.19478
532.46        14.10872
532.90         14.0481
533.34        14.01951
533.78        14.00526
534.22         13.9942
534.66        13.98562
535.09        13.96444
535.53        13.90489
535.97        13.81986
536.41        13.76461
536.85        13.74652
537.28        13.73863
537.72        13.73979
538.16         13.7584
538.60        13.79202
539.04        13.83807
539.47        13.88809
539.91        13.93765
540.35        13.98196
540.79        14.02265
541.22        14.06228
541.66        14.11072
542.10        14.16886
542.54        14.23573
542.97        14.30744
543.41        14.38355
543.85         14.4623
544.29        14.54575
544.72         14.6352
545.16        14.74329
545.60        14.86843
546.04        15.00901
546.47        15.15924
546.91        15.30591
547.35        15.44252
547.79        15.57159
548.22        15.69509
548.66        15.81398
549.10        15.94838
549.53        16.08929
549.97        16.23447
550.41        16.34261
550.84        16.42807
551.28        16.53898
551.72        16.66378
552.15        16.79692
552.59        16.95779
553.03        16.89931
553.46        17.13031
553.90        17.20968
554.34        17.28748
554.77        17.36446
555.21        17.45391
555.65        17.56107
556.08        17.67846
556.52        17.79359
556.96        17.89281
557.39        18.00485
557.83         18.1134
558.27         18.1187
558.70        18.05007
559.14        18.06394
559.57        18.15915
560.01        18.23829
560.45        18.29126
560.88        18.35997
561.32        18.44989
561.75        18.53009
562.19        18.60034
562.63        18.65611
563.06        18.69441
563.50        18.72126
563.93        18.73191
564.37        18.76719
564.80        18.83974
565.24        18.89544
565.68        18.89408
566.11         19.1833
566.55        19.07269
566.98        19.13712
567.42        19.20823
567.85        19.32137
568.29        19.48331
568.72        19.69214
569.16        19.93792
569.60        20.09359
570.03        20.21929
570.47         20.3314
570.90         20.4642
571.34        20.47426
571.77        20.52178
572.21        20.81712
572.64        20.91674
573.08        21.08233
573.51        21.21445
573.95        21.29197
574.38        21.31765
574.82        21.66408
