SpectraSmart Spectrum 2.9.0.0
--------- Device Information -----------
Spectrum Name :  反射率_0
Saving Time :  2024/04/26 23:31:16
Spectro-Module Model Name : SE2030-DUVN
Spectro-Module Serial Number : OS361AC55029948
Wavelength Start : 200
Wavelength End : 1025
Wavelength Unit : Wavelength(nm)
Spectrum Unit : Reflectance(%)
-----------Spectrum Setting ------------
Integration Time : 20ms
Average : 10
Boxcar : 0
Background removal :  enabled
linearity correction :  enabled
SC :  disabled
Intensity correction :  disabled
DWT denoise :  enabled
savitzky-golay :  disabled
FFT :  disabled
Running average :  disabled
Kalman :  disabled
High pass :  disabled
---------------BEGIN--------------------
Wavelength(nm)             Reflectance(%)
200.29               0
200.75        44.61724
201.21        42.33916
201.67        40.91153
202.13        40.33123
202.58        40.47861
203.04         41.7162
203.50        44.92662
203.96        51.22436
204.42         60.5188
204.88        71.99067
205.34        82.19161
205.80         86.0973
206.26        82.96646
206.72         74.7759
207.18        66.08503
207.64        60.46901
208.10        57.87968
208.55        57.95295
209.01        59.24134
209.47        58.32933
209.93        54.88474
210.39        51.67562
210.85        50.59649
211.31        52.98375
211.77        60.09013
212.23         76.6981
212.69        118.3382
213.14        188.8931
213.60        186.7128
214.06        137.9914
214.52        104.7033
214.98        89.50175
215.44        82.73717
215.90        78.34054
216.36        76.37646
216.81        78.08311
217.27         84.3169
217.73        98.15957
218.19         117.555
218.65        124.9029
219.11        114.3499
219.57        97.52598
220.02        86.81518
220.48        89.47388
220.94        105.0443
221.40        135.1858
221.86        180.1371
222.32        213.5745
222.77        209.3088
223.23        183.8355
223.69         155.494
224.15        135.0308
224.61        122.1732
225.06        112.7194
225.52        107.4477
225.98        106.7557
226.44        109.8347
226.90        116.2972
227.36        123.6853
227.81        127.3921
228.27        126.6887
228.73        122.8955
229.19        118.9628
229.65        118.4624
230.10        121.5372
230.56        127.0226
231.02        132.3772
231.48        133.6791
231.93        130.3852
232.39        124.8612
232.85        119.5057
233.31        117.4154
233.77        118.8655
234.22        122.5397
234.68        127.0665
235.14        130.3895
235.60        131.7234
236.05         131.814
236.51        130.3848
236.97        127.4245
237.43        123.2759
237.88        118.0816
238.34        112.8235
238.80        109.4564
239.26        108.5682
239.71        110.7317
240.17        115.2076
240.63        120.1623
241.08        124.3816
241.54        127.2304
242.00        129.6289
242.46        134.0493
242.91         142.938
243.37        156.1327
243.83        174.4189
244.28        191.6916
244.74        195.0032
245.20        182.7329
245.66        163.9625
246.11        146.4434
246.57        131.3139
247.03        116.8766
247.48        102.0299
247.94        88.32406
248.40        78.83913
248.85        73.21349
249.31         70.7755
249.77        70.07952
250.22        70.35748
250.68        71.70667
251.14        73.97171
251.59        76.05606
252.05        77.37074
252.51        78.38129
252.96        78.71612
253.42        78.84243
253.88        78.90844
254.33        78.44168
254.79        79.45168
255.25        83.36665
255.70        89.81102
256.16        98.32395
256.62        105.6443
257.07        106.6326
257.53        102.9443
257.99         97.7445
258.44        93.60091
258.90        93.29405
259.35        95.53793
259.81        99.42558
260.27        103.3323
260.72        105.2786
261.18        105.4382
261.63        104.1891
262.09        102.8672
262.55        102.0388
263.00        101.5933
263.46        101.5374
263.91        101.1366
264.37        100.0986
264.83        98.39152
265.28         96.2637
265.74        94.48215
266.19        93.44478
266.65        93.30728
267.11        93.68695
267.56        94.22221
268.02        94.37477
268.47        93.95264
268.93        93.20306
269.38        92.14581
269.84        90.93317
270.30        89.63509
270.75        88.18949
271.21        86.88863
271.66        86.07088
272.12         85.7776
272.57        85.83499
273.03        85.88734
273.48        85.29634
273.94        84.03557
274.39         82.2736
274.85         80.4296
275.31         78.8195
275.76        77.50105
276.22        76.45232
276.67        75.55318
277.13        74.86477
277.58         74.2313
278.04        73.69496
278.49        73.06134
278.95        72.26357
279.40        71.19137
279.86        70.02851
280.31        68.70773
280.77         67.3777
281.22        66.00663
281.68        64.71329
282.13        63.53591
282.59         62.7229
283.04        62.19497
283.50        61.92075
283.95        61.68644
284.41        61.21561
284.86        60.43259
285.32        59.48012
285.77        58.47489
286.22          57.701
286.68        57.20076
287.13        56.81944
287.59        56.46551
288.04        55.91434
288.50        55.17493
288.95        54.28807
289.41        53.37884
289.86        52.49249
290.32        51.72399
290.77        51.02006
291.22        50.41526
291.68        49.93466
292.13        49.54515
292.59        49.25259
293.04        49.03442
293.50        48.89353
293.95        48.79663
294.40        48.73803
294.86        48.66311
295.31        48.47317
295.77        48.17606
296.22        47.79988
296.68        47.44302
297.13        47.22601
297.58        47.19157
298.04        47.30516
298.49        47.51106
298.95        47.74515
299.40        47.95827
299.85        48.15971
300.31        48.34264
300.76        48.47491
301.21        48.55564
301.67        48.60124
302.12        48.58315
302.58        48.54456
303.03        48.46918
303.48        48.38883
303.94        48.34127
304.39        48.32728
304.84        48.36074
305.30        48.43505
305.75        48.51069
306.20        48.59637
306.66        48.69376
307.11        48.78466
307.57        48.83435
308.02         48.7229
308.47         48.4659
308.93        48.11382
309.38        47.77125
309.83        47.66271
310.29        47.81736
310.74          48.147
311.19        48.49887
311.65        48.61541
312.10        48.42506
312.55         48.0165
313.00        47.51131
313.46        47.08907
313.91        46.79083
314.36        46.57714
314.82        46.41198
315.27        46.25552
315.72        46.08645
316.18        45.93706
316.63        45.80201
317.08        45.68578
317.53        45.58262
317.99        45.47103
318.44        45.34122
318.89        45.17171
319.35        44.95881
319.80        44.71214
320.25        44.44555
320.70        44.18176
321.16        43.93002
321.61        43.70575
322.06        43.50664
322.51        43.33041
322.97        43.16957
323.42        43.02474
323.87        42.91051
324.32        42.85914
324.78        42.85148
325.23        42.89764
325.68        42.90401
326.13        42.73064
326.59        42.35683
327.04        41.84605
327.49        41.32346
327.94        40.99194
328.39        40.89716
328.85        40.96698
329.30        41.14011
329.75        41.21385
330.20         41.1221
330.66        40.91124
331.11        40.66378
331.56        40.48144
332.01        40.39741
332.46        40.36681
332.92        40.33245
333.37         40.2697
333.82        40.14339
334.27        39.98584
334.72        39.82325
335.17        39.68672
335.63         39.5905
336.08        39.55235
336.53        39.56757
336.98        39.64468
337.43        39.77572
337.88        39.93613
338.34        40.11996
338.79        40.35999
339.24        40.62443
339.69        40.90239
340.14        41.09093
340.59        41.03368
341.05        40.73214
341.50        40.24597
341.95        39.75646
342.40        39.54003
342.85        39.65485
343.30        40.01292
343.75        40.46783
344.20        40.77198
344.66         40.8498
345.11         40.7758
345.56        40.60924
346.01        40.44743
346.46        40.33765
346.91        40.24974
347.36        40.20238
347.81         40.2352
348.26        40.34282
348.72        40.51111
349.17        40.69781
349.62        40.84367
350.07        40.92665
350.52        40.96768
350.97        40.93774
351.42        40.79889
351.87        40.56377
352.32         40.2481
352.77        39.95925
353.22        39.85445
353.67        39.95381
354.13        40.21237
354.58        40.49475
355.03        40.56622
355.48        40.36986
355.93        39.97802
356.38        39.53437
356.83        39.25716
357.28        39.19225
357.73        39.26455
358.18        39.36347
358.63         39.3115
359.08        39.06491
359.53        38.69492
359.98        38.28016
360.43        37.92977
360.88        37.67169
361.33        37.46146
361.78        37.27423
362.23         37.0772
362.68        36.85844
363.13        36.64034
363.58        36.40808
364.03         36.1308
364.48        35.80739
364.93        35.44219
365.38        35.08798
365.83        34.83443
366.28        34.70282
366.73        34.67354
367.18        34.67369
367.63        34.58665
368.08        34.38372
368.53        34.08958
368.98        33.78315
369.43        33.59271
369.88        33.54095
370.33        33.58513
370.78        33.62023
371.23        33.47585
371.68        33.11724
372.13         32.6072
372.58        32.06799
373.03        31.69046
373.48        31.52326
373.93        31.50511
374.38        31.54867
374.83        31.51327
375.28        31.35532
375.72        31.11454
376.17        30.84856
376.62        30.60278
377.07        30.39986
377.52        30.22432
377.97         30.0726
378.42        29.95003
378.87        29.85186
379.32        29.76648
379.77        29.70437
380.22        29.67636
380.67        29.67278
381.11        29.69947
381.56        29.66864
382.01        29.47128
382.46        29.10997
382.91        28.64569
383.36        28.21264
383.81        27.99302
384.26        28.01042
384.71         28.2014
385.15        28.46256
385.60        28.61602
386.05        28.60302
386.50         28.4757
386.95        28.27765
387.40        28.08092
387.85        27.91728
388.29        27.74716
388.74        27.61319
389.19        27.51113
389.64        27.43462
390.09        27.38011
390.54         27.3313
390.98           27.25
391.43        27.14513
391.88        27.02727
392.33        26.89959
392.78        26.76633
393.23        26.63496
393.67        26.49413
394.12        26.39126
394.57        26.34432
395.02        26.35252
395.47        26.39729
395.91        26.45515
396.36        26.47085
396.81        26.44328
397.26        26.39216
397.71        26.31843
398.15        26.24234
398.60        26.20186
399.05         26.0794
399.50        25.92683
399.95        26.01109
400.39        26.25122
400.84        26.17244
401.29        25.78934
401.74        25.53413
402.18        25.43685
402.63        25.23836
403.08        24.99262
403.53         24.8936
403.97         24.9536
404.42        25.12055
404.87        25.30384
405.32        25.35482
405.76        25.23631
406.21         25.0049
406.66        24.75203
407.11        24.62288
407.55        24.66053
408.00        24.81466
408.45        25.00843
408.90        25.09226
409.34        25.02238
409.79        24.85226
410.24        24.67247
410.68        24.60435
411.13        24.67817
411.58         24.8503
412.03        25.03898
412.47        25.10594
412.92        25.00624
413.37        24.80036
413.81        24.56933
414.26         24.4476
414.71        24.45595
415.15         24.5645
415.60        24.70928
416.05        24.80299
416.49         24.8161
416.94        24.77167
417.39        24.71244
417.83         24.7001
418.28        24.74756
418.73        24.82634
419.17        24.90188
419.62        24.92437
420.07         24.8822
420.51        24.79059
420.96        24.68121
421.41        24.59419
421.85        24.53344
422.30        24.47864
422.74        24.41011
423.19        24.40814
423.64        24.43069
424.08        24.33381
424.53        24.14207
424.98        24.08407
425.42        24.19173
425.87        24.28452
426.31        24.33461
426.76        24.47695
427.21        24.62965
427.65         24.4656
428.10        24.09184
428.54        23.94476
428.99        24.06773
429.44        24.27482
429.88        24.47044
430.33        24.50637
430.77        24.39526
431.22        24.41292
431.66         24.5465
432.11        24.56847
432.56        24.50074
433.00         24.4321
433.45        24.32104
433.89        24.32836
434.34        24.49061
434.78        23.92492
435.23        24.07333
435.67        24.05955
436.12        24.24124
436.57        24.29507
437.01        24.21053
437.46        24.16075
437.90        24.13715
438.35        24.03415
438.79        23.88633
439.24        23.82726
439.68        23.86581
440.13        23.96433
440.57        24.09312
441.02        24.18783
441.46        24.21765
441.91        24.23301
442.35        24.21984
442.80        24.19148
443.24        24.15169
443.69        24.16694
444.13         24.2174
444.58        24.23906
445.02        24.22169
445.47        24.20447
445.91        24.20054
446.36        24.22023
446.80        24.26018
447.24        24.31912
447.69        24.36847
448.13        24.35441
448.58        24.27602
449.02        24.14554
449.47        24.01342
449.91        23.94653
450.36        23.96769
450.80        24.05162
451.25        24.16073
451.69        24.21966
452.13        24.21438
452.58        24.15977
453.02        24.09615
453.47        24.09212
453.91        24.15987
454.36        24.27873
454.80        24.38669
455.24         24.3871
455.69        24.27134
456.13        24.06036
456.58        23.85185
457.02        23.75174
457.46        23.79227
457.91        23.93778
458.35         24.0958
458.79        24.12874
459.24        24.02892
459.68         23.8306
460.13         23.6438
460.57        23.57313
461.01        23.65818
461.46        23.83915
461.90        24.06312
462.34        24.22497
462.79        24.28041
463.23        24.26884
463.68        24.19635
464.12        24.08989
464.56        23.96547
465.01        23.84661
465.45        23.72492
465.89        23.65524
466.34        23.64161
466.78        23.66805
467.22        23.72497
467.67         23.7683
468.11        23.79669
468.55         23.8082
468.99        23.80528
469.44        23.79152
469.88        23.77127
470.32        23.73906
470.77        23.70309
471.21        23.68142
471.65        23.67643
472.10          23.691
472.54        23.70887
472.98        23.71022
473.42         23.6929
473.87        23.67133
474.31        23.65048
474.75        23.66102
475.20        23.71101
475.64        23.77675
476.08        23.84854
476.52        23.89987
476.97        23.92253
477.41        23.93654
477.85        23.94659
478.29        23.92536
478.74        23.89644
479.18        23.92384
479.62         23.9987
480.06        24.05362
480.50        24.08272
480.95        24.12263
481.39        24.15968
481.83        24.27535
482.27        24.23101
482.72        24.39699
483.16        24.39136
483.60        24.43173
484.04        24.42338
484.48        24.50552
484.93        24.66414
485.37        24.42488
485.81        24.72418
486.25        24.52253
486.69        24.70076
487.14        25.14893
487.58         25.3493
488.02        25.29805
488.46        25.05757
488.90        25.02707
489.34        25.39312
489.79        25.61386
490.23        25.63992
490.67        25.63799
491.11        25.62941
491.55        25.60219
491.99        25.58445
492.43        25.59153
492.88        25.64241
493.32        25.76685
493.76        25.94349
494.20        26.12939
494.64        26.31449
495.08        26.45369
495.52        26.55375
495.96         26.7739
496.41        27.05055
496.85        27.04573
497.29        26.80027
497.73        26.84095
498.17        26.85082
498.61        27.04201
499.05        27.24294
499.49        27.33395
499.93        27.24584
500.37        27.34621
500.82        27.59295
501.26        27.73791
501.70        27.76388
502.14        27.79776
502.58        27.86943
503.02        27.97057
503.46         28.1055
503.90        28.27253
504.34         28.4281
504.78        28.50224
505.22        28.48285
505.66         28.3934
506.10        28.29038
506.54        28.26481
506.98        28.33865
507.42        28.48327
507.86        28.65872
508.30        28.79781
508.74         28.8786
509.18        28.92299
509.62        28.94425
510.06        28.96416
510.50        28.99188
510.94        29.01495
511.38        29.04238
511.82        29.09138
512.26        29.16283
512.70        29.25657
513.14        29.34719
513.58        29.39051
514.02         29.3796
514.46        29.32736
514.90        29.27048
515.34        29.26954
515.78        29.33608
516.22        29.44782
516.66        29.56765
517.10        29.63585
517.54        29.63674
517.98        29.59191
518.42        29.52144
518.86        29.45771
519.30         29.4135
519.74        29.37699
520.18        29.35431
520.62        29.35473
521.06        29.37798
521.50        29.42789
521.93        29.48206
522.37        29.49082
522.81        29.44992
523.25        29.36854
523.69        29.28779
524.13        29.27401
524.57        29.33536
525.01        29.44573
525.45         29.5522
525.89        29.56989
526.32        29.47683
526.76        29.31185
527.20        29.11732
527.64        28.96111
528.08        28.86626
528.52        28.81441
528.96        28.79453
529.40        28.78888
529.83        28.78689
530.27          28.796
530.71        28.80749
531.15        28.80833
531.59        28.79473
532.03        28.76517
532.46        28.71739
532.90        28.67157
533.34        28.62846
533.78        28.57061
534.22         28.5032
534.66        28.46867
535.09        28.44795
535.53        28.37294
535.97         28.2562
536.41        28.19096
536.85        28.18362
537.28        28.18406
537.72        28.18935
538.16         28.2151
538.60        28.25771
539.04        28.31379
539.47        28.36662
539.91        28.40888
540.35        28.43432
540.79        28.44841
541.22        28.46769
541.66        28.52868
542.10        28.63304
542.54         28.7682
542.97        28.90904
543.41        29.02896
543.85        29.11657
544.29        29.18558
544.72        29.24176
545.16        29.31369
545.60        29.40409
546.04        29.50909
546.47        29.63615
546.91        29.79194
547.35        29.97027
547.79         30.1685
548.22        30.36373
548.66        30.51375
549.10        30.64745
549.53        30.76161
549.97         30.8735
550.41        30.94284
550.84        31.01007
551.28        31.15437
551.72        31.34258
552.15         31.5464
552.59        31.79505
553.03        31.62998
553.46        32.00654
553.90        32.10256
554.34        32.19757
554.77        32.28828
555.21        32.39235
555.65        32.51228
556.08        32.63466
556.52        32.74089
556.96        32.81681
557.39        32.92963
557.83         33.0552
558.27        33.01097
558.70        32.84448
559.14        32.84056
559.57        32.99674
560.01        33.10433
560.45        33.15718
560.88        33.32351
561.32        33.57537
561.75        33.68341
562.19        33.67198
562.63        33.71553
563.06        33.81595
563.50         33.8811
563.93        33.88353
564.37        33.91213
564.80        33.98579
565.24        34.00655
565.68        33.91185
566.11         34.3482
566.55        34.08576
566.98        34.12304
567.42        34.16314
567.85         34.3387
568.29        34.62866
568.72        34.89297
569.16        35.16227
569.60        35.33687
570.03        35.52625
570.47        35.76485
570.90        36.11686
571.34        35.76315
571.77        36.22246
572.21         36.3097
572.64         36.3992
573.08        36.48608
573.51        36.47001
573.95        36.59918
574.38        36.84411
574.82        37.06452
