SpectraSmart Spectrum 2.9.0.0
--------- Device Information -----------
Spectrum Name :  反射率_0
Saving Time :  2024/04/26 23:33:47
Spectro-Module Model Name : SE2030-DUVN
Spectro-Module Serial Number : OS361AC55029948
Wavelength Start : 200
Wavelength End : 1025
Wavelength Unit : Wavelength(nm)
Spectrum Unit : Reflectance(%)
-----------Spectrum Setting ------------
Integration Time : 20ms
Average : 10
Boxcar : 0
Background removal :  enabled
linearity correction :  enabled
SC :  disabled
Intensity correction :  disabled
DWT denoise :  enabled
savitzky-golay :  disabled
FFT :  disabled
Running average :  disabled
Kalman :  disabled
High pass :  disabled
---------------BEGIN--------------------
Wavelength(nm)             Reflectance(%)
200.29               0
200.75        26.37013
201.21        26.04968
201.67        26.14538
202.13         25.9088
202.58        25.05982
203.04        24.05578
203.50        22.95355
203.96        22.01576
204.42        21.63085
204.88        21.61486
205.34        22.43316
205.80        24.75763
206.26        28.05219
206.72        31.42003
207.18         33.8227
207.64        34.58181
208.10        33.82462
208.55        31.85531
209.01        28.28766
209.47        25.10286
209.93        24.43419
210.39        25.48017
210.85        27.18876
211.31        29.39395
211.77        32.82969
212.23        39.80957
212.69        56.95873
213.14        87.82712
213.60        89.13544
214.06         69.7732
214.52         55.3528
214.98        47.44799
215.44        42.23981
215.90        37.20292
216.36        33.27304
216.81        32.35834
217.27         35.5751
217.73        44.47589
218.19        57.33919
218.65        61.93541
219.11        54.00735
219.57          41.529
220.02         33.5136
220.48        34.60423
220.94        44.32734
221.40        63.99416
221.86        91.93934
222.32        107.0199
222.77        94.03212
223.23        68.21792
223.69        46.14108
224.15        36.72969
224.61        36.94743
225.06        41.33955
225.52        46.79601
225.98        50.40898
226.44        51.90466
226.90        52.65091
227.36        52.90445
227.81        52.76435
228.27        52.49638
228.73        51.72751
229.19        51.05448
229.65        51.33233
230.10        52.51781
230.56        54.45561
231.02        56.18244
231.48        56.12899
231.93        54.17167
232.39        51.32542
232.85        48.68876
233.31        47.72716
233.77        48.53241
234.22         50.5039
234.68        52.91807
235.14        54.76404
235.60        55.66062
236.05        55.96733
236.51        55.54854
236.97        54.25775
237.43        52.23253
237.88        49.54966
238.34        46.92377
238.80        45.74221
239.26        46.49545
239.71        49.58883
240.17         54.4594
240.63        59.11391
241.08        62.07503
241.54        62.70485
242.00         62.2521
242.46        63.99273
242.91        70.23821
243.37        81.73254
243.83        98.04881
244.28        109.0911
244.74         102.773
245.20        82.23088
245.66        61.63367
246.11        51.78148
246.57        52.39112
247.03        59.28865
247.48        68.39657
247.94        72.06007
248.40        69.49704
248.85          64.799
249.31        60.47502
249.77        57.21923
250.22        54.52185
250.68         51.3091
251.14        47.82938
251.59        46.07642
252.05        47.45306
252.51        51.50162
252.96        55.16605
253.42         55.8136
253.88        53.84261
254.33        50.26276
254.79        47.96328
255.25        49.24125
255.70        53.69053
256.16        60.17759
256.62        65.64173
257.07        65.59363
257.53        61.37732
257.99        55.94585
258.44         51.4943
258.90        49.99582
259.35        50.50769
259.81        52.21897
260.27        53.97471
260.72        54.43644
261.18        53.71908
261.63        52.21606
262.09        50.81425
262.55        49.98656
263.00        49.65601
263.46        49.69851
263.91        49.59879
264.37        48.99679
264.83        47.87694
265.28        46.44106
265.74        45.21447
266.19        44.56695
266.65        44.57692
267.11        44.96627
267.56        45.42664
268.02        45.47172
268.47        44.97171
268.93        44.13798
269.38        43.08005
269.84        42.02089
270.30        41.04596
270.75        40.08025
271.21        39.27185
271.66        38.79409
272.12        38.64536
272.57        38.74422
273.03        38.83997
273.48        38.50241
273.94        37.70722
274.39        36.58629
274.85        35.43318
275.31        34.52331
275.76        33.90715
276.22        33.51583
276.67        33.26003
277.13        33.10611
277.58        32.95787
278.04        32.84584
278.49        32.65101
278.95         32.3082
279.40        31.76695
279.86        31.13653
280.31        30.42503
280.77        29.75937
281.22        29.13921
281.68        28.59049
282.13        28.12915
282.59        27.85791
283.04        27.73541
283.50        27.74811
283.95         27.7626
284.41        27.58124
284.86        27.16783
285.32        26.61347
285.77        26.04162
286.22        25.68511
286.68        25.58004
287.13        25.62041
287.59        25.70573
288.04        25.63812
288.50        25.39918
288.95        25.03736
289.41        24.65075
289.86        24.31733
290.32        24.09496
290.77        23.93835
291.22        23.84379
291.68        23.79594
292.13        23.77826
292.59        23.81544
293.04         23.9081
293.50        24.07322
293.95        24.29887
294.40        24.57294
294.86        24.87847
295.31        25.18428
295.77        25.48898
296.22        25.79715
296.68        26.11305
297.13        26.43152
297.58        26.75949
298.04        27.09039
298.49        27.44689
298.95        27.88279
299.40        28.38447
299.85        28.92615
300.31         29.4327
300.76         29.7812
301.21         29.9559
301.67        30.01716
302.12        30.01958
302.58        30.09976
303.03        30.27097
303.48        30.51185
303.94         30.8017
304.39        31.08043
304.84        31.33267
305.30        31.57481
305.75        31.77656
306.20        31.94068
306.66        32.07139
307.11        32.15331
307.57        32.18382
308.02         32.1223
308.47        31.98285
308.93        31.78906
309.38        31.58863
309.83         31.4932
310.29        31.52068
310.74        31.63849
311.19        31.75909
311.65          31.734
312.10        31.52727
312.55        31.18249
313.00        30.81095
313.46        30.57788
313.91        30.50621
314.36        30.55688
314.82        30.61572
315.27        30.50745
315.72         30.1945
316.18        29.74658
316.63         29.2877
317.08        29.02004
317.53        28.98178
317.99        29.09772
318.44         29.2494
318.89        29.23461
319.35        29.00021
319.80        28.61335
320.25         28.1638
320.70        27.79487
321.16        27.54843
321.61        27.38448
322.06        27.26102
322.51        27.11467
322.97        26.91805
323.42        26.70128
323.87        26.47607
324.32        26.25941
324.78        26.04779
325.23        25.84352
325.68        25.62281
326.13        25.36456
326.59        25.07079
327.04        24.76449
327.49        24.47712
327.94        24.25591
328.39        24.10574
328.85        24.00169
329.30        23.92912
329.75        23.81629
330.20        23.64726
330.66        23.43864
331.11        23.23201
331.56        23.07614
332.01        22.98289
332.46        22.92822
332.92        22.88099
333.37        22.82733
333.82        22.74445
334.27        22.64935
334.72        22.53708
335.17        22.39607
335.63        22.23168
336.08        22.06178
336.53         21.9235
336.98         21.8873
337.43        21.96332
337.88        22.12014
338.34        22.30543
338.79        22.45182
339.24         22.5162
339.69         22.5129
340.14        22.43028
340.59        22.25721
341.05        22.01859
341.50        21.73004
341.95        21.45122
342.40        21.27114
342.85        21.21217
343.30        21.24909
343.75        21.35384
344.20        21.47568
344.66         21.5876
345.11        21.69089
345.56        21.75638
346.01        21.74195
346.46        21.65043
346.91        21.50257
347.36        21.33663
347.81        21.21939
348.26        21.16843
348.72         21.1583
349.17        21.19082
349.62        21.27647
350.07        21.40093
350.52        21.56372
350.97        21.67971
351.42        21.61273
351.87        21.35055
352.32         20.9425
352.77        20.52689
353.22        20.30981
353.67        20.33137
354.13        20.53374
354.58        20.79474
355.03        20.90979
355.48        20.82258
355.93        20.59943
356.38         20.3382
356.83        20.18613
357.28         20.1754
357.73        20.24648
358.18         20.3333
358.63        20.33556
359.08        20.22296
359.53        20.03553
359.98        19.80646
360.43        19.57789
360.88        19.36698
361.33         19.1618
361.78        18.96494
362.23        18.78463
362.68        18.62491
363.13        18.49107
363.58        18.37964
364.03        18.27889
364.48        18.18334
364.93        18.09234
365.38        18.00637
365.83        17.92827
366.28        17.85864
366.73        17.79543
367.18        17.73211
367.63        17.66104
368.08         17.5784
368.53        17.48081
368.98        17.37893
369.43        17.29003
369.88        17.21548
370.33        17.15298
370.78        17.07558
371.23        16.93879
371.68        16.74055
372.13        16.50212
372.58        16.27464
373.03        16.13656
373.48        16.10477
373.93        16.15256
374.38        16.23447
374.83        16.27746
375.28        16.25426
375.72        16.17461
376.17         16.0665
376.62        15.95336
377.07        15.84562
377.52        15.73806
377.97        15.62107
378.42        15.48432
378.87        15.33234
379.32        15.17442
379.77         15.0409
380.22        14.97061
380.67        14.96475
381.11        15.01362
381.56        15.06241
382.01        15.03341
382.46        14.91187
382.91        14.72887
383.36        14.53757
383.81        14.41167
384.26        14.36388
384.71          14.368
385.15        14.39473
385.60        14.39985
386.05        14.36727
386.50        14.31567
386.95        14.25094
387.40        14.18156
387.85        14.11402
388.29        14.03398
388.74        13.97074
389.19         13.9355
389.64        13.92552
390.09        13.93232
390.54        13.93108
390.98        13.87762
391.43        13.77485
391.88        13.63969
392.33         13.4986
392.78        13.38747
393.23        13.31623
393.67         13.2699
394.12        13.25242
394.57         13.2421
395.02         13.2328
395.47        13.22466
395.91        13.22489
396.36        13.23592
396.81        13.26192
397.26        13.29549
397.71        13.31656
398.15        13.30673
398.60        13.28041
399.05        13.19204
399.50        13.07398
399.95        13.06747
400.39         13.1365
400.84        13.04005
401.29        12.80486
401.74        12.67587
402.18          12.672
402.63        12.65858
403.08        12.62914
403.53        12.62875
403.97        12.65186
404.42        12.68307
404.87        12.70809
405.32        12.70387
405.76        12.66257
406.21        12.59572
406.66        12.51858
407.11        12.45782
407.55        12.42427
408.00        12.40647
408.45        12.39203
408.90        12.35372
409.34        12.28621
409.79        12.20196
410.24        12.12367
410.68        12.07649
411.13        12.06835
411.58        12.09129
412.03        12.12004
412.47        12.11284
412.92        12.05742
413.37        11.97185
413.81        11.89001
414.26         11.8704
414.71        11.91771
415.15        12.01565
415.60         12.1238
416.05         12.1795
416.49        12.16312
416.94         12.0927
417.39        11.99858
417.83        11.92681
418.28        11.89145
418.73        11.87909
419.17        11.87983
419.62        11.87829
420.07        11.86858
420.51        11.85323
420.96        11.83782
421.41        11.82659
421.85        11.81439
422.30        11.79438
422.74        11.75388
423.19        11.72969
423.64         11.7031
424.08        11.60844
424.53        11.46713
424.98        11.40754
425.42        11.45167
425.87        11.51078
426.31          11.564
426.76         11.6632
427.21        11.76129
427.65        11.70149
428.10        11.53427
428.54        11.46117
428.99        11.50296
429.44         11.5941
429.88        11.67779
430.33        11.62403
430.77        11.46174
431.22        11.42038
431.66        11.49621
432.11        11.48046
432.56        11.37744
433.00        11.34673
433.45         11.3475
433.89        11.23117
434.34        11.08485
434.78        10.84577
435.23        11.12798
435.67        11.21818
436.12        11.26429
436.57        11.29493
437.01        11.30152
437.46        11.27636
437.90        11.21365
438.35        11.08741
438.79        10.94037
439.24        10.87246
439.68        10.89847
440.13        10.98978
440.57        11.10478
441.02        11.18207
441.46         11.1993
441.91        11.14681
442.35        11.05677
442.80        11.08145
443.24        11.18154
443.69        11.15396
444.13        11.01271
444.58         10.9589
445.02        10.99727
445.47        11.02185
445.91        11.02149
446.36        11.03054
446.80        11.04265
447.24        11.04719
447.69        11.04594
448.13        11.03693
448.58        11.02278
449.02        11.00357
449.47        10.97889
449.91        10.94336
450.36        10.90035
450.80        10.85006
451.25        10.80476
451.69        10.77676
452.13        10.76865
452.58        10.77575
453.02        10.78302
453.47        10.76754
453.91        10.72552
454.36        10.66704
454.80        10.60541
455.24        10.56049
455.69        10.54114
456.13         10.5316
456.58        10.53795
457.02        10.55191
457.46        10.57438
457.91        10.60645
458.35        10.62653
458.79        10.60148
459.24        10.53913
459.68        10.44447
460.13        10.36268
460.57        10.33302
461.01        10.37204
461.46        10.45571
461.90        10.56304
462.34        10.64669
462.79        10.68597
463.23         10.6969
463.68        10.67732
464.12        10.63345
464.56        10.57121
465.01        10.50327
465.45        10.43084
465.89        10.38551
466.34         10.3699
466.78        10.37472
467.22        10.39194
467.67        10.39599
468.11        10.38513
468.55        10.36185
468.99        10.33199
469.44        10.30345
469.88        10.28053
470.32        10.26158
470.77        10.24841
471.21         10.2466
471.65        10.25525
472.10        10.27437
472.54        10.29907
472.98        10.32603
473.42        10.35235
473.87        10.38069
474.31        10.40084
474.75        10.40865
475.20        10.40702
475.64        10.39432
476.08        10.38215
476.52        10.38255
476.97        10.39911
477.41        10.43402
477.85        10.48269
478.29        10.52132
478.74        10.55311
479.18        10.60584
479.62        10.67189
480.06        10.72207
480.50        10.75448
480.95        10.76992
481.39        10.75989
481.83        10.81517
482.27        10.77993
482.72         10.7923
483.16        10.81847
483.60        10.84109
484.04        10.83501
484.48        10.93055
484.93        11.19178
485.37        11.12753
485.81        11.02144
486.25        11.67728
486.69        11.48282
487.14        11.21686
487.58        11.82077
488.02        11.89036
488.46        11.45641
488.90         11.5353
489.34        11.37146
489.79        11.55168
490.23        11.76837
490.67        11.97568
491.11        12.10183
491.55          12.044
491.99        11.87237
492.43        11.82198
492.88        11.92535
493.32        12.04083
493.76        12.13955
494.20        12.25123
494.64        12.36992
495.08        12.46278
495.52        12.53721
495.96        12.68775
496.41        12.88783
496.85        12.93479
497.29        12.85404
497.73        12.99044
498.17        13.15506
498.61        13.26424
499.05        13.25224
499.49        13.26171
499.93        13.27475
500.37        13.36049
500.82        13.49467
501.26        13.60012
501.70        13.66709
502.14        13.74405
502.58          13.845
503.02        13.96383
503.46        14.09874
503.90        14.24885
504.34        14.38072
504.78         14.4402
505.22        14.41907
505.66        14.33602
506.10        14.23852
506.54        14.20237
506.98         14.2469
507.42        14.35122
507.86        14.48147
508.30        14.57943
508.74        14.62721
509.18        14.64356
509.62        14.64505
510.06         14.6586
510.50        14.69263
510.94        14.73385
511.38        14.77956
511.82        14.82756
512.26        14.87558
512.70        14.92896
513.14        14.97777
513.58        15.00398
514.02        15.00598
514.46        14.98701
514.90        14.96977
515.34        14.99201
515.78        15.05884
516.22        15.15656
516.66         15.2526
517.10        15.29487
517.54        15.27146
517.98        15.19972
518.42        15.10814
518.86        15.04225
519.30        15.01671
519.74        15.01947
520.18        15.03612
520.62        15.04359
521.06         15.0346
521.50        15.01675
521.93        14.99955
522.37        14.99095
522.81        14.99447
523.25        15.00332
523.69        15.00623
524.13        14.98792
524.57        14.94508
525.01        14.88235
525.45        14.81164
525.89        14.75238
526.32        14.70846
526.76        14.67844
527.20        14.65102
527.64        14.60918
528.08        14.55054
528.52        14.48295
528.96        14.41736
529.40        14.37027
529.83        14.34442
530.27        14.33209
530.71        14.32577
531.15        14.31531
531.59        14.29668
532.03         14.2739
532.46        14.24061
532.90        14.19705
533.34        14.14363
533.78        14.07477
534.22         14.0062
534.66        13.97928
535.09        13.98795
535.53        13.99197
535.97        13.98158
536.41        13.97816
536.85        13.97885
537.28        13.96523
537.72        13.94956
538.16        13.96161
538.60        14.00511
539.04        14.07152
539.47         14.1393
539.91        14.18518
540.35        14.20206
540.79        14.19893
541.22        14.19779
541.66        14.23859
542.10        14.32581
542.54        14.44551
542.97        14.56966
543.41        14.66025
543.85        14.70792
544.29        14.73024
544.72        14.74474
545.16        14.78877
545.60        14.86948
546.04         14.9765
546.47        15.10789
546.91        15.25688
547.35         15.4139
547.79         15.5796
548.22        15.73678
548.66        15.85556
549.10        15.95234
549.53        16.02895
549.97         16.1047
550.41        16.17515
550.84        16.26466
551.28        16.40859
551.72        16.58475
552.15        16.76959
552.59        16.97406
553.03        16.95506
553.46        17.21667
553.90        17.30746
554.34        17.37759
554.77        17.42779
555.21        17.48376
555.65         17.5726
556.08        17.69118
556.52        17.82154
556.96        17.93542
557.39        18.03791
557.83        18.10879
558.27        18.05837
558.70        17.93198
559.14        17.90889
559.57        17.99442
560.01        18.08538
560.45         18.1628
560.88        18.25232
561.32        18.35462
561.75        18.44914
562.19         18.5383
562.63          18.607
563.06        18.65865
563.50         18.7266
563.93        18.79248
564.37        18.84819
564.80        18.90275
565.24        18.92923
565.68         18.8932
566.11        19.14517
566.55        19.00301
566.98        19.03143
567.42        19.07412
567.85        19.21177
568.29        19.43875
568.72        19.68301
569.16        19.93601
569.60        20.13486
570.03        20.34487
570.47        20.50787
570.90        20.63783
571.34        20.70748
571.77        20.86697
572.21        20.95083
572.64        20.98611
573.08        21.23614
573.51         21.3231
573.95        21.51716
574.38        21.67577
574.82        21.92309
