SpectraSmart Spectrum 2.9.0.0
--------- Device Information -----------
Spectrum Name :  反射率_0
Saving Time :  2024/04/26 23:35:02
Spectro-Module Model Name : SE2030-DUVN
Spectro-Module Serial Number : OS361AC55029948
Wavelength Start : 200
Wavelength End : 1025
Wavelength Unit : Wavelength(nm)
Spectrum Unit : Reflectance(%)
-----------Spectrum Setting ------------
Integration Time : 20ms
Average : 10
Boxcar : 0
Background removal :  enabled
linearity correction :  enabled
SC :  disabled
Intensity correction :  disabled
DWT denoise :  enabled
savitzky-golay :  disabled
FFT :  disabled
Running average :  disabled
Kalman :  disabled
High pass :  disabled
---------------BEGIN--------------------
Wavelength(nm)             Reflectance(%)
200.29               0
200.75        18.13685
201.21         20.0657
201.67        22.87177
202.13        24.61946
202.58        25.01022
203.04        25.17631
203.50        25.45243
203.96         26.2546
204.42        27.84585
204.88        29.45647
205.34        31.28399
205.80        34.12392
206.26        37.40475
206.72        40.23031
207.18        41.66816
207.64        40.84657
208.10        37.78079
208.55        32.69244
209.01        25.16115
209.47        19.47197
209.93        19.43199
210.39        22.55675
210.85        26.75638
211.31        32.03603
211.77        40.31433
212.23        57.48471
212.69        97.80122
213.14        158.9773
213.60         144.898
214.06        91.87634
214.52        59.45624
214.98        46.94908
215.44        43.79142
215.90        44.55303
216.36        46.90159
216.81        47.72282
217.27        46.25331
217.73        43.82342
218.19        40.58723
218.65        38.24208
219.11        38.62841
219.57        39.92921
220.02        42.42602
220.48        48.03632
220.94        57.69626
221.40        73.56833
221.86        95.32526
222.32        108.8733
222.77        102.4022
223.23        85.69525
223.69        69.65533
224.15        60.41344
224.61         56.7041
225.06        55.39974
225.52        55.71858
225.98        56.75053
226.44        58.12889
226.90        60.25277
227.36        62.14998
227.81        62.03303
228.27        59.94063
228.73         56.4481
229.19        53.32639
229.65        52.64663
230.10        54.41066
230.56        57.94567
231.02        61.50852
231.48        62.33137
231.93        60.02788
232.39        56.09517
232.85        52.31207
233.31         50.9708
233.77        52.28599
234.22        55.41071
234.68        59.10272
235.14        61.53747
235.60        62.11578
236.05         61.3502
236.51        59.78077
236.97        58.63988
237.43        58.51916
237.88        59.17644
238.34        60.10945
238.80        60.77737
239.26        61.00884
239.71        61.22319
240.17        61.76266
240.63        64.04353
241.08        68.92593
241.54        75.90937
242.00        83.88206
242.46        91.10822
242.91        97.57396
243.37        102.4337
243.83        106.2115
244.28        110.2181
244.74        112.6689
245.20        112.1447
245.66        107.4411
246.11        96.73643
246.57        81.21774
247.03        61.92886
247.48        43.47087
247.94        35.53955
248.40        38.65389
248.85        46.40406
249.31        53.70434
249.77        57.03292
250.22        56.43102
250.68        52.67882
251.14        47.35408
251.59        45.77579
252.05        50.56606
252.51        59.02312
252.96        65.81638
253.42        66.76131
253.88        62.92345
254.33        56.75149
254.79         52.5337
255.25        53.70673
255.70        59.81263
256.16        69.08775
256.62        77.69182
257.07         79.7309
257.53        76.26128
257.99        70.79472
258.44        65.98438
258.90        64.27184
259.35        64.66249
259.81        66.31824
260.27        67.94789
260.72         68.0906
261.18        66.95988
261.63        64.97559
262.09        63.23899
262.55        62.33705
263.00        62.13311
263.46        62.45778
263.91        62.57339
264.37        61.92189
264.83         60.4706
265.28        58.51232
265.74        56.78445
266.19        55.85838
266.65        55.84976
267.11        56.39534
267.56        57.03165
268.02        57.03459
268.47        56.22921
268.93        54.92536
269.38        53.39313
269.84        52.11226
270.30        51.19964
270.75        50.45999
271.21        49.90734
271.66         49.5007
272.12         49.1921
272.57        48.99213
273.03        48.67782
273.48        47.86158
273.94        46.57944
274.39        44.93413
274.85        43.36968
275.31        42.34764
275.76        41.89665
276.22        41.88279
276.67        41.95494
277.13        41.72093
277.58        41.04077
278.04        40.09968
278.49        39.04108
278.95        38.21355
279.40        37.62461
279.86        37.22237
280.31        36.81723
280.77        36.27515
281.22        35.53078
281.68        34.74329
282.13        33.96861
282.59         33.3726
283.04        32.93972
283.50        32.62666
283.95        32.38723
284.41        32.18056
284.86        31.97722
285.32        31.81968
285.77        31.64988
286.22        31.44942
286.68        31.21779
287.13        30.91851
287.59        30.62358
288.04        30.39841
288.50        30.27695
288.95        30.20677
289.41        30.12848
289.86        29.87951
290.32        29.48409
290.77        28.98902
291.22         28.5279
291.68        28.27899
292.13        28.26972
292.59        28.46187
293.04        28.77262
293.50        29.09255
293.95        29.37381
294.40        29.65128
294.86        29.95749
295.31        30.33329
295.77        30.79356
296.22        31.30159
296.68        31.83514
297.13        32.35019
297.58        32.84441
298.04        33.33817
298.49        33.84744
298.95        34.41229
299.40        35.02959
299.85        35.68331
300.31        36.35308
300.76         36.9976
301.21        37.60168
301.67         38.1768
302.12        38.69785
302.58        39.19493
303.03        39.63924
303.48        40.04377
303.94         40.4083
304.39        40.69181
304.84        40.91404
305.30        41.10846
305.75        41.28042
306.20        41.49736
306.66        41.77851
307.11        42.07956
307.57        42.39032
308.02        42.63744
308.47        42.81291
308.93        42.93917
309.38        43.00404
309.83        43.04757
310.29        43.08043
310.74        43.08739
311.19        43.05682
311.65        42.96587
312.10        42.80941
312.55        42.60047
313.00        42.38224
313.46        42.21325
313.91        42.08815
314.36        42.00028
314.82        41.89622
315.27        41.70351
315.72        41.40521
316.18        41.03833
316.63        40.65038
317.08        40.33217
317.53        40.10303
317.99        39.92989
318.44        39.77491
318.89        39.56429
319.35        39.27702
319.80        38.93433
320.25        38.56843
320.70        38.22965
321.16        37.93041
321.61         37.6711
322.06        37.41603
322.51         37.1132
322.97        36.74881
323.42        36.34194
323.87        35.95568
324.32        35.69602
324.78        35.56554
325.23        35.55098
325.68        35.52412
326.13        35.28132
326.59        34.78257
327.04        34.10996
327.49        33.41254
327.94        32.92451
328.39        32.69681
328.85        32.64436
329.30        32.68547
329.75         32.6073
330.20        32.34366
330.66          31.956
331.11        31.52713
331.56        31.15917
332.01        30.88655
332.46         30.6639
332.92        30.45659
333.37         30.2651
333.82        30.06366
334.27        29.87209
334.72        29.68173
335.17        29.46684
335.63        29.22559
336.08        28.98325
336.53         28.7624
336.98        28.61466
337.43        28.54908
337.88        28.53656
338.34         28.5606
338.79        28.62249
339.24        28.69262
339.69        28.77115
340.14         28.7905
340.59        28.64723
341.05        28.34337
341.50        27.91446
341.95        27.48177
342.40        27.23037
342.85        27.20088
343.30         27.3392
343.75        27.54494
344.20        27.65016
344.66        27.60651
345.11        27.45897
345.56         27.2653
346.01        27.11954
346.46        27.05103
346.91         27.0266
347.36         27.0128
347.81        26.96485
348.26        26.87084
348.72        26.75155
349.17        26.63085
349.62        26.55382
350.07        26.52963
350.52        26.54533
350.97        26.55889
351.42        26.50594
351.87        26.37526
352.32        26.18721
352.77        25.99744
353.22        25.88656
353.67        25.86569
354.13        25.90728
354.58        25.94841
355.03        25.88904
355.48        25.70812
355.93        25.44421
356.38         25.1592
356.83        24.94393
357.28        24.81568
357.73         24.7365
358.18        24.67064
358.63        24.56314
359.08        24.39647
359.53        24.19631
359.98        23.96202
360.43        23.68559
360.88        23.37563
361.33        23.03789
361.78        22.71538
362.23        22.48017
362.68         22.3497
363.13        22.30642
363.58        22.30313
364.03        22.26219
364.48        22.15861
364.93        22.00561
365.38        21.83615
365.83        21.70752
366.28        21.63369
366.73        21.59668
367.18        21.55183
367.63        21.43285
368.08        21.22821
368.53        20.95952
368.98        20.68884
369.43        20.51156
369.88          20.448
370.33        20.47258
370.78        20.51094
371.23        20.43959
371.68        20.23054
372.13         19.9227
372.58        19.60313
373.03        19.40956
373.48        19.37258
373.93        19.44513
374.38        19.54438
374.83        19.54009
375.28        19.39746
375.72        19.15344
376.17        18.88205
376.62        18.66886
377.07         18.5377
377.52        18.46099
377.97        18.40141
378.42        18.30289
378.87        18.15593
379.32        17.98725
379.77        17.83335
380.22        17.74226
380.67        17.71921
381.11        17.74492
381.56        17.77811
382.01         17.7701
382.46        17.70644
382.91        17.60949
383.36        17.49298
383.81        17.37287
384.26        17.25673
384.71        17.13858
385.15        17.03607
385.60        16.98499
386.05        16.98734
386.50        17.02931
386.95         17.0772
387.40        17.07773
387.85        17.02036
388.29        16.91524
388.74        16.80163
389.19        16.69454
389.64        16.60103
390.09        16.51056
390.54        16.43166
390.98        16.37587
391.43        16.35289
391.88         16.3574
392.33        16.36478
392.78        16.33731
393.23        16.27099
393.67        16.17076
394.12        16.07844
394.57        16.02476
395.02        16.01399
395.47        16.02558
395.91        16.04382
396.36        16.03244
396.81        15.99144
397.26        15.93977
397.71        15.87294
398.15        15.79218
398.60        15.72412
399.05        15.60515
399.50        15.48349
399.95        15.54379
400.39        15.74102
400.84        15.77875
401.29        15.64706
401.74        15.57727
402.18        15.57487
402.63        15.48813
403.08        15.34546
403.53        15.26303
403.97        15.25356
404.42        15.28651
404.87        15.32781
405.32        15.32022
405.76        15.24946
406.21        15.14491
406.66          15.041
407.11        14.99179
407.55        15.01377
408.00        15.08051
408.45        15.16409
408.90        15.20821
409.34        15.19249
409.79        15.13607
410.24        15.06243
410.68        14.99887
411.13        14.95966
411.58        14.93769
412.03        14.92167
412.47        14.89639
412.92        14.85518
413.37        14.80858
413.81        14.77717
414.26        14.80241
414.71        14.88229
415.15        15.00736
415.60        15.13161
416.05        15.18626
416.49        15.15402
416.94        15.05539
417.39        14.93561
417.83        14.86526
418.28        14.86139
418.73        14.89859
419.17        14.95638
419.62        15.00076
420.07        15.01837
420.51        15.02025
420.96        15.00081
421.41        14.94665
421.85         14.8572
422.30        14.73316
422.74        14.60078
423.19        14.56632
423.64        14.61481
424.08        14.64543
424.53        14.63476
424.98         14.6561
425.42        14.71113
425.87        14.71006
426.31        14.66955
426.76        14.72517
427.21        14.83908
427.65        14.79383
428.10        14.63042
428.54        14.56878
428.99        14.62605
429.44        14.73478
429.88         14.8363
430.33        14.78125
430.77        14.60972
431.22        14.60642
431.66        14.75797
432.11        14.78739
432.56         14.6933
433.00        14.68087
433.45        14.70247
433.89        14.57472
434.34         14.4098
434.78        14.12646
435.23        14.50647
435.67        14.59511
436.12         14.5849
436.57        14.52086
437.01        14.43368
437.46        14.38245
437.90        14.37189
438.35        14.34601
438.79        14.29762
439.24        14.26463
439.68         14.2484
440.13        14.23961
440.57        14.24078
441.02        14.26955
441.46        14.32211
441.91        14.35159
442.35        14.34999
442.80        14.45139
443.24        14.59218
443.69        14.52884
444.13        14.30686
444.58        14.22745
445.02        14.30704
445.47        14.39111
445.91        14.44609
446.36        14.48962
446.80        14.50811
447.24        14.50193
447.69        14.48401
448.13        14.46788
448.58        14.46147
449.02        14.45462
449.47        14.45237
449.91         14.4557
450.36        14.46716
450.80        14.48735
451.25        14.50345
451.69         14.4854
452.13        14.43203
452.58        14.34825
453.02        14.26516
453.47        14.23585
453.91        14.26852
454.36        14.34792
454.80         14.4251
455.24        14.42037
455.69        14.32402
456.13        14.15576
456.58        13.98327
457.02         13.8835
457.46        13.88052
457.91        13.94778
458.35         14.0308
458.79        14.04679
459.24        13.98982
459.68        13.87951
460.13        13.77725
460.57        13.73689
461.01        13.78132
461.46        13.87609
461.90        13.99376
462.34        14.07752
462.79        14.10343
463.23        14.09364
463.68        14.05153
464.12        13.99282
464.56        13.92542
465.01         13.8619
465.45        13.79454
465.89        13.75256
466.34        13.73668
466.78        13.73685
467.22        13.74794
467.67        13.74563
468.11        13.73211
468.55        13.71124
468.99        13.68409
469.44        13.65054
469.88        13.61506
470.32        13.57635
470.77         13.5539
471.21        13.58124
471.65        13.65923
472.10        13.77778
472.54        13.89673
472.98        13.95921
473.42        13.95193
473.87        13.89431
474.31        13.81328
474.75        13.76573
475.20        13.76809
475.64         13.7989
476.08        13.83605
476.52        13.83709
476.97        13.79468
477.41         13.7335
477.85        13.68179
478.29        13.66293
478.74        13.69779
479.18        13.80606
479.62        13.95341
480.06        14.06423
480.50        14.12369
480.95        14.14176
481.39         14.1244
481.83        14.21653
482.27        14.21938
482.72         14.3037
483.16         14.3952
483.60        14.44729
484.04        14.44066
484.48        14.46462
484.93        14.60908
485.37        14.56911
485.81        14.76383
486.25        15.17748
486.69        14.99319
487.14        14.85084
487.58        15.57932
488.02        15.35744
488.46        15.41128
488.90         15.4941
489.34        15.33408
489.79         15.4612
490.23        15.63275
490.67        15.78844
491.11         15.8661
491.55         15.8089
491.99        15.68686
492.43        15.70888
492.88        15.90201
493.32        16.13983
493.76        16.37053
494.20         16.5806
494.64        16.75514
495.08        16.86022
495.52        16.91788
495.96        17.07956
496.41         17.3197
496.85        17.36285
497.29        17.24268
497.73        17.41886
498.17        17.63709
498.61        17.78754
499.05         17.7846
499.49        17.82211
499.93        17.87264
500.37        18.02289
500.82         18.2309
501.26         18.3792
501.70        18.45221
502.14        18.52293
502.58        18.61362
503.02        18.72199
503.46        18.85102
503.90        18.99809
504.34        19.13525
504.78        19.21641
505.22        19.23318
505.66        19.20357
506.10        19.15852
506.54        19.14683
506.98        19.18455
507.42        19.25948
507.86        19.36166
508.30         19.4729
508.74        19.58329
509.18        19.69608
509.62        19.80499
510.06         19.9005
510.50        19.97873
510.94        20.03662
511.38        20.07806
511.82        20.11215
512.26        20.14317
512.70        20.17334
513.14        20.19913
513.58         20.2137
514.02        20.21782
514.46        20.21377
514.90        20.21713
515.34        20.25198
515.78        20.31925
516.22        20.40839
516.66        20.49084
517.10        20.52129
517.54        20.49089
517.98        20.41611
518.42        20.32318
518.86        20.25488
519.30        20.22464
519.74        20.21925
520.18        20.23072
520.62        20.24531
521.06        20.25631
521.50        20.26988
521.93        20.27811
522.37        20.25964
522.81         20.2147
523.25        20.14519
523.69        20.07007
524.13        20.02084
524.57        20.00187
525.01        20.00269
525.45        20.00088
525.89        19.95939
526.32        19.86981
526.76        19.75319
527.20        19.62803
527.64        19.52453
528.08        19.45157
528.52        19.39714
528.96        19.36005
529.40        19.33815
529.83        19.32593
530.27        19.32655
530.71        19.31818
531.15        19.26773
531.59        19.17125
532.03        19.03627
532.46        18.89516
532.90        18.81372
533.34        18.80038
533.78        18.82665
534.22        18.85345
534.66        18.84233
535.09        18.76884
535.53        18.61279
535.97        18.42218
536.41        18.31907
536.85        18.32362
537.28        18.38222
537.72        18.47095
538.16        18.56484
538.60        18.64646
539.04        18.72178
539.47        18.78224
539.91        18.82662
540.35        18.85368
540.79        18.86531
541.22        18.87291
541.66        18.90382
542.10        18.96315
542.54        19.04654
542.97        19.14696
543.41        19.25872
543.85        19.37603
544.29        19.50349
544.72        19.63333
545.16        19.76797
545.60        19.90335
546.04        20.03844
546.47        20.18341
546.91        20.35155
547.35         20.5395
547.79        20.74199
548.22        20.93589
548.66        21.08186
549.10        21.20148
549.53        21.29994
549.97        21.40271
550.41        21.50169
550.84        21.62794
551.28        21.82745
551.72        22.06806
552.15        22.31504
552.59        22.58231
553.03        22.54742
553.46        22.88422
553.90        22.99788
554.34        23.09006
554.77        23.16183
555.21        23.24538
555.65        23.37309
556.08        23.54049
556.52        23.72475
556.96        23.89184
557.39        24.05445
557.83         24.1851
558.27        24.15882
558.70        24.02898
559.14        24.02616
559.57        24.15424
560.01        24.27672
560.45        24.36897
560.88        24.46992
561.32        24.58399
561.75        24.67732
562.19        24.75934
562.63        24.83903
563.06        24.91454
563.50        24.98509
563.93        25.03795
564.37        25.11899
564.80        25.24117
565.24        25.33528
565.68        25.34163
566.11        25.72204
566.55        25.55337
566.98        25.59858
567.42        25.64993
567.85        25.80804
568.29        26.07097
568.72        26.37769
569.16        26.73837
569.60        26.95614
570.03        27.09419
570.47        27.32588
570.90        27.73981
571.34        27.23031
571.77        27.82602
572.21        27.92096
572.64        28.04761
573.08         28.1772
573.51        28.19165
573.95        28.32072
574.38        28.48838
574.82        28.94026
