SpectraSmart Spectrum 2.9.0.0
--------- Device Information -----------
Spectrum Name :  反射率_0
Saving Time :  2024/04/26 23:30:10
Spectro-Module Model Name : SE2030-DUVN
Spectro-Module Serial Number : OS361AC55029948
Wavelength Start : 200
Wavelength End : 1025
Wavelength Unit : Wavelength(nm)
Spectrum Unit : Reflectance(%)
-----------Spectrum Setting ------------
Integration Time : 20ms
Average : 10
Boxcar : 0
Background removal :  enabled
linearity correction :  enabled
SC :  disabled
Intensity correction :  disabled
DWT denoise :  enabled
savitzky-golay :  disabled
FFT :  disabled
Running average :  disabled
Kalman :  disabled
High pass :  disabled
---------------BEGIN--------------------
Wavelength(nm)             Reflectance(%)
200.29               0
200.75        36.07206
201.21        37.63964
201.67        38.55393
202.13        38.84889
202.58        38.55963
203.04        37.83847
203.50        37.05009
203.96        37.13018
204.42        38.64753
204.88        41.59775
205.34        44.47786
205.80        44.67823
206.26        41.83242
206.72        37.07706
207.18        32.64639
207.64        30.18127
208.10        29.54373
208.55        30.63844
209.01        32.04848
209.47         30.1491
209.93        25.19297
210.39        20.60388
210.85         18.2406
211.31        18.81462
211.77        22.84414
212.23        33.21798
212.69        61.91512
213.14        120.5685
213.60        136.8358
214.06        110.2536
214.52         86.7582
214.98        73.62714
215.44        65.29825
215.90        56.96461
216.36        50.17921
216.81        48.40736
217.27         53.1646
217.73        66.79414
218.19        86.54198
218.65        92.86073
219.11        79.62704
219.57        60.39324
220.02        47.95404
220.48        48.45064
220.94        61.08847
221.40         87.1764
221.86        126.6234
222.32        155.7089
222.77        151.4597
223.23        128.3431
223.69        103.9771
224.15        88.92075
224.61        81.97498
225.06        78.47762
225.52        77.24059
225.98        76.89143
226.44        76.97889
226.90        78.07622
227.36        79.70707
227.81        80.73536
228.27        81.04671
228.73        80.60094
229.19        80.24365
229.65        81.14909
230.10        83.29482
230.56        86.35349
231.02        89.09714
231.48        89.62457
231.93        87.69995
232.39        84.56512
232.85        81.54428
233.31        80.40506
233.77        81.29638
234.22         83.5546
234.68         86.2902
235.14        88.19043
235.60        88.79873
236.05        88.55804
236.51        87.52233
236.97        86.10389
237.43        84.59373
237.88         82.9191
238.34        81.28132
238.80        80.31694
239.26        80.20051
239.71        81.41255
240.17        83.35202
240.63        84.98497
241.08        85.75529
241.54        85.14411
242.00        84.36761
242.46        85.94463
242.91        91.85262
243.37        102.7654
243.83        119.0427
244.28        132.9327
244.74         132.513
245.20        117.9102
245.66        99.55882
246.11        86.22655
246.57        78.46961
247.03        73.54016
247.48        69.64908
247.94        65.00935
248.40        60.57069
248.85        57.37389
249.31         55.6328
249.77         54.7818
250.22        54.29496
250.68        53.72844
251.14        53.32971
251.59        53.90895
252.05         55.8582
252.51        59.10538
252.96        61.07722
253.42        59.81846
253.88        56.20876
254.33          51.406
254.79        48.95943
255.25        51.85098
255.70        59.52733
256.16         70.4453
256.62        80.38073
257.07        82.75459
257.53        78.82414
257.99        72.57192
258.44        67.18371
258.90        65.50325
259.35        66.42482
259.81        68.91065
260.27        71.39608
260.72        72.03655
261.18        71.05602
261.63        69.06068
262.09        67.35401
262.55         66.7136
263.00        66.98127
263.46        67.86594
263.91        68.54232
264.37        68.37543
264.83        67.29105
265.28        65.62622
265.74        64.09681
266.19        63.20023
266.65         63.0918
267.11        63.43499
267.56        63.90091
268.02        63.99106
268.47        63.55376
268.93        62.80878
269.38        61.86717
269.84        60.97014
270.30        60.17926
270.75        59.39216
271.21        58.68925
271.66        58.12495
272.12        57.69653
272.57         57.3588
273.03        56.97271
273.48        56.27519
273.94        55.29961
274.39        54.10067
274.85        52.91838
275.31        51.90199
275.76        51.05777
276.22        50.37718
276.67        49.76593
277.13        49.23228
277.58        48.67642
278.04        48.14469
278.49        47.51916
278.95        46.78215
279.40        45.88136
279.86        44.94737
280.31         43.9751
280.77        43.11147
281.22        42.33051
281.68        41.67369
282.13        41.11263
282.59         40.7342
283.04        40.47026
283.50        40.31419
283.95        40.14489
284.41        39.80698
284.86        39.26768
285.32        38.61839
285.77        37.93357
286.22        37.39944
286.68        37.04416
287.13        36.76303
287.59        36.51889
288.04        36.19373
288.50        35.79281
288.95        35.33479
289.41        34.84316
289.86        34.26178
290.32        33.64704
290.77        32.99342
291.22        32.41372
291.68        32.06008
292.13        31.93266
292.59        31.99333
293.04        32.12692
293.50        32.17464
293.95        32.08403
294.40         31.9132
294.86        31.72552
295.31        31.61164
295.77        31.61292
296.22        31.68893
296.68        31.83838
297.13        32.04306
297.58        32.29432
298.04        32.59728
298.49        32.92421
298.95        33.24478
299.40        33.53961
299.85        33.81496
300.31        34.07409
300.76        34.31723
301.21        34.54796
301.67        34.76957
302.12        34.97653
302.58        35.22152
303.03        35.48053
303.48        35.76304
303.94        36.03332
304.39        36.19979
304.84        36.26872
305.30        36.28189
305.75        36.28543
306.20        36.40565
306.66        36.66962
307.11        37.01633
307.57        37.38198
308.02         37.6212
308.47        37.71209
308.93        37.69978
309.38        37.63372
309.83        37.64109
310.29        37.74747
310.74        37.90879
311.19        38.04993
311.65        38.04551
312.10        37.86937
312.55        37.57318
313.00        37.25923
313.46        37.07452
313.91         37.0376
314.36        37.11027
314.82        37.20604
315.27        37.19585
315.72        37.04016
316.18        36.79002
316.63         36.5014
317.08        36.27676
317.53        36.14166
317.99        36.05736
318.44        35.98611
318.89        35.85807
319.35        35.65442
319.80        35.39904
320.25        35.12752
320.70         34.8935
321.16        34.70864
321.61        34.56771
322.06        34.43075
322.51        34.23821
322.97        33.97234
323.42        33.65433
323.87         33.3413
324.32        33.12975
324.78        33.02723
325.23        33.02688
325.68        33.02327
326.13        32.84914
326.59        32.47162
327.04        31.95751
327.49        31.43822
327.94        31.12255
328.39        31.05252
328.85        31.15087
329.30        31.32549
329.75        31.34594
330.20        31.14416
330.66        30.78813
331.11        30.38317
331.56         30.0731
332.01        29.90407
332.46         29.8174
332.92        29.77042
333.37        29.74379
333.82        29.69734
334.27        29.65495
334.72        29.58156
335.17        29.40967
335.63        29.13493
336.08        28.79517
336.53        28.46437
336.98         28.2816
337.43        28.27984
337.88        28.40992
338.34        28.61195
338.79         28.8066
339.24        28.93852
339.69         29.0334
340.14         29.0486
340.59        28.92157
341.05        28.66989
341.50        28.31272
341.95          27.968
342.40        27.82147
342.85        27.90668
343.30        28.16382
343.75        28.48267
344.20        28.67568
344.66        28.68787
345.11        28.57434
345.56        28.38185
346.01        28.18868
346.46        28.03434
346.91        27.89853
347.36        27.80067
347.81        27.77668
348.26        27.82415
348.72        27.93222
349.17        28.06201
349.62        28.15821
350.07        28.19996
350.52        28.20148
350.97        28.14882
351.42        28.02727
351.87        27.84802
352.32        27.61973
352.77        27.40416
353.22        27.29104
353.67        27.29314
354.13        27.38805
354.58         27.5041
355.03        27.51921
355.48        27.40359
355.93        27.19575
356.38        26.96598
356.83        26.82129
357.28        26.78261
357.73        26.80795
358.18        26.84362
358.63        26.80598
359.08        26.67078
359.53        26.46889
359.98        26.22802
360.43        25.98518
360.88        25.75228
361.33        25.51573
361.78        25.27761
362.23        25.04455
362.68        24.82279
363.13        24.62477
363.58        24.44041
364.03         24.2468
364.48        24.04083
364.93        23.82448
365.38        23.63087
365.83        23.51656
366.28        23.48565
366.73        23.51265
367.18        23.53646
367.63        23.46301
368.08        23.27226
368.53        22.99526
368.98        22.68353
369.43        22.42026
369.88        22.23137
370.33        22.09342
370.78        21.98611
371.23        21.87521
371.68        21.74878
372.13        21.62315
372.58        21.50076
373.03        21.38013
373.48        21.26267
373.93        21.14423
374.38        21.03099
374.83        20.93786
375.28        20.86498
375.72        20.79844
376.17        20.74092
376.62        20.67057
377.07          20.583
377.52        20.48557
377.97        20.37729
378.42        20.25999
378.87        20.13795
379.32        20.00884
379.77        19.89126
380.22        19.81005
380.67        19.76571
381.11        19.75963
381.56        19.74425
382.01        19.66095
382.46        19.50435
382.91        19.30005
383.36        19.10625
383.81        19.00331
384.26         18.9991
384.71        19.06292
385.15        19.14161
385.60        19.14928
386.05        19.06286
386.50          18.916
386.95         18.7434
387.40        18.59838
387.85        18.50165
388.29        18.42539
388.74         18.3893
389.19        18.38065
389.64        18.38773
390.09        18.40182
390.54         18.4073
390.98        18.37187
391.43        18.30068
391.88        18.20866
392.33        18.09206
392.78        17.94457
393.23        17.77964
393.67        17.59951
394.12        17.46979
394.57        17.45159
395.02        17.54912
395.47        17.73044
395.91        17.93898
396.36        18.06428
396.81        18.08092
397.26        18.02142
397.71        17.90885
398.15        17.79257
398.60        17.71442
399.05        17.58894
399.50        17.45414
399.95        17.49346
400.39        17.65348
400.84        17.61756
401.29        17.39695
401.74        17.28063
402.18        17.28462
402.63        17.22959
403.08        17.13791
403.53        17.12429
403.97        17.19296
404.42        17.30986
404.87        17.42331
405.32        17.44982
405.76        17.36947
406.21        17.21794
406.66        17.05221
407.11        16.96208
407.55        16.97569
408.00        17.06328
408.45        17.17876
408.90         17.2297
409.34        17.18941
409.79        17.09067
410.24        16.98991
410.68        16.96247
411.13        17.02762
411.58        17.15711
412.03         17.2974
412.47        17.35757
412.92        17.30676
413.37         17.1835
413.81        17.04027
414.26        16.96572
414.71        16.97309
415.15        17.04133
415.60        17.12995
416.05        17.18271
416.49        17.18227
416.94        17.14817
417.39        17.10398
417.83        17.08285
418.28        17.09306
418.73        17.11644
419.17        17.14961
419.62         17.1899
420.07         17.2321
420.51        17.27598
420.96        17.30552
421.41        17.29043
421.85        17.22512
422.30        17.11704
422.74        16.99607
423.19        16.98386
423.64        17.06405
424.08        17.11589
424.53        17.11944
424.98        17.17353
425.42        17.28053
425.87         17.3301
426.31        17.32444
426.76         17.3958
427.21        17.49592
427.65        17.38081
428.10        17.12184
428.54         17.0105
428.99        17.07668
429.44        17.23244
429.88         17.4008
430.33        17.39272
430.77        17.24555
431.22        17.29428
431.66        17.52201
432.11        17.59821
432.56        17.51745
433.00        17.52634
433.45        17.55726
433.89        17.37053
434.34         17.1042
434.78        16.69879
435.23        17.07404
435.67        17.16778
436.12        17.20526
436.57         17.2266
437.01        17.24739
437.46        17.30084
437.90        17.37395
438.35        17.40281
438.79        17.37846
439.24        17.35087
439.68        17.32615
440.13        17.29372
440.57        17.25875
441.02        17.25023
441.46        17.27044
441.91        17.26476
442.35        17.23772
442.80        17.36716
443.24        17.57588
443.69        17.56579
444.13        17.36255
444.58        17.28378
445.02        17.34237
445.47        17.36574
445.91        17.34777
446.36        17.36473
446.80        17.41165
447.24        17.46899
447.69        17.52751
448.13        17.56393
448.58        17.57664
449.02        17.57017
449.47        17.55477
449.91        17.53731
450.36        17.52721
450.80        17.51934
451.25        17.51908
451.69        17.52351
452.13        17.53313
452.58        17.54404
453.02        17.55418
453.47        17.56218
453.91        17.56628
454.36        17.57112
454.80        17.56176
455.24        17.51397
455.69        17.43389
456.13        17.31994
456.58        17.22348
457.02        17.19343
457.46        17.24352
457.91        17.35383
458.35        17.46342
458.79        17.48009
459.24        17.40172
459.68        17.25099
460.13        17.10258
460.57        17.02379
461.01        17.04511
461.46        17.12779
461.90        17.24976
462.34        17.35974
462.79        17.43061
463.23        17.48184
463.68        17.49825
464.12        17.46653
464.56        17.38767
465.01        17.28844
465.45         17.1738
465.89        17.09894
466.34        17.07228
466.78        17.07933
467.22        17.11285
467.67        17.14133
468.11        17.16418
468.55        17.18094
468.99        17.19726
469.44        17.22011
469.88        17.25109
470.32        17.28332
470.77        17.30943
471.21        17.32308
471.65        17.32141
472.10        17.31078
472.54        17.29415
472.98        17.28273
473.42        17.27944
473.87        17.28587
474.31        17.29081
474.75         17.2932
475.20        17.29649
475.64        17.29732
476.08        17.29956
476.52        17.29889
476.97        17.29648
477.41        17.30156
477.85        17.32515
478.29        17.36003
478.74        17.41858
479.18        17.53736
479.62        17.68566
480.06        17.77757
480.50        17.80324
480.95        17.79285
481.39        17.75167
481.83        17.78623
482.27        17.76406
482.72        17.79241
483.16        17.83624
483.60        17.89717
484.04        17.96767
484.48        18.08913
484.93        18.26034
485.37        18.31759
485.81        18.32331
486.25        18.49372
486.69        18.15177
487.14        18.21417
487.58        18.74564
488.02        18.86205
488.46        18.49093
488.90        18.70604
489.34        18.57334
489.79        18.78396
490.23        18.97268
490.67        19.12511
491.11        19.20617
491.55         19.2024
491.99        19.16519
492.43        19.19565
492.88        19.31302
493.32        19.45198
493.76        19.59019
494.20        19.73767
494.64        19.89146
495.08        20.00797
495.52        20.08982
495.96        20.26741
496.41        20.49695
496.85        20.48786
497.29        20.29641
497.73        20.43539
498.17        20.63303
498.61        20.86513
499.05        20.99099
499.49        21.06911
499.93         21.0498
500.37        21.12121
500.82        21.26815
501.26        21.37708
501.70        21.44425
502.14        21.54536
502.58        21.68669
503.02        21.83436
503.46        21.98202
503.90        22.13688
504.34        22.27274
504.78        22.34604
505.22        22.35147
505.66        22.30424
506.10        22.24176
506.54        22.22571
506.98        22.27284
507.42        22.36534
507.86        22.48565
508.30        22.60196
508.74        22.70062
509.18        22.79179
509.62        22.86752
510.06        22.91565
510.50        22.93649
510.94        22.92938
511.38        22.91817
511.82        22.94336
512.26        23.01387
512.70        23.12243
513.14        23.23778
513.58        23.30707
514.02        23.31886
514.46        23.28738
514.90         23.2502
515.34        23.26878
515.78         23.3535
516.22        23.47972
516.66        23.60385
517.10        23.65755
517.54        23.62478
517.98        23.53139
518.42        23.40938
518.86        23.30893
519.30        23.24905
519.74        23.21662
520.18        23.20732
520.62         23.2132
521.06        23.22914
521.50        23.26028
521.93        23.29855
522.37        23.32014
522.81        23.32131
523.25         23.3003
523.69        23.26854
524.13         23.2473
524.57        23.23953
525.01        23.23896
525.45        23.22711
525.89        23.17442
526.32          23.076
526.76        22.95134
527.20        22.82601
527.64        22.74051
528.08        22.70372
528.52        22.70131
528.96        22.71516
529.40        22.71628
529.83        22.69462
530.27        22.66131
530.71        22.61629
531.15        22.56227
531.59        22.50345
532.03        22.43644
532.46        22.36938
532.90        22.33266
533.34        22.32475
533.78        22.32442
534.22        22.31417
534.66        22.29315
535.09        22.24071
535.53        22.11736
535.97        21.94867
536.41         21.8321
536.85        21.78262
537.28         21.7544
537.72        21.75184
538.16        21.79667
538.60        21.88281
539.04        22.00291
539.47        22.12111
539.91        22.19621
540.35        22.21614
540.79        22.19454
541.22        22.16476
541.66        22.18958
542.10        22.28091
542.54        22.42106
542.97        22.57832
543.41        22.71207
543.85        22.80793
544.29        22.88225
544.72        22.95043
545.16        23.05122
545.60        23.18894
546.04        23.35373
546.47        23.53228
546.91        23.70544
547.35        23.86372
547.79        24.00292
548.22        24.12526
548.66        24.28428
549.10         24.4213
549.53        24.59451
549.97        24.77119
550.41        24.88726
550.84        24.96573
551.28        25.08315
551.72        25.22995
552.15        25.40762
552.59        25.64684
553.03        25.56806
553.46        25.93331
553.90        26.06409
554.34        26.18229
554.77        26.29039
555.21        26.40643
555.65        26.53652
556.08        26.67082
556.52        26.79165
556.96        26.88464
557.39        27.00193
557.83        27.12141
558.27        27.09334
558.70        26.96012
559.14        26.95152
559.57        27.06549
560.01        27.15991
560.45        27.22103
560.88        27.31243
561.32        27.44192
561.75        27.56075
562.19        27.66926
562.63        27.76365
563.06        27.83597
563.50        27.88918
563.93        27.90901
564.37        27.94662
564.80        28.02049
565.24        28.05651
565.68        27.99465
566.11        28.35864
566.55        28.13257
566.98        28.13694
567.42        28.14465
567.85        28.30562
568.29        28.59988
568.72         28.8751
569.16        29.13382
569.60         29.2941
570.03        29.44513
570.47        29.59332
570.90        29.81603
571.34         29.5849
571.77        29.97685
572.21        30.17689
572.64        30.32225
573.08        30.50704
573.51        30.70577
573.95        30.69881
574.38        30.59471
574.82        30.88315
