SpectraSmart Spectrum 2.9.0.0
--------- Device Information -----------
Spectrum Name :  反射率_0
Saving Time :  2024/04/26 23:38:33
Spectro-Module Model Name : SE2030-DUVN
Spectro-Module Serial Number : OS361AC55029948
Wavelength Start : 200
Wavelength End : 1025
Wavelength Unit : Wavelength(nm)
Spectrum Unit : Reflectance(%)
-----------Spectrum Setting ------------
Integration Time : 20ms
Average : 10
Boxcar : 0
Background removal :  enabled
linearity correction :  enabled
SC :  disabled
Intensity correction :  disabled
DWT denoise :  enabled
savitzky-golay :  disabled
FFT :  disabled
Running average :  disabled
Kalman :  disabled
High pass :  disabled
---------------BEGIN--------------------
Wavelength(nm)             Reflectance(%)
200.29               0
200.75        23.00352
201.21        28.34843
201.67        33.45946
202.13        36.00019
202.58         35.7519
203.04        33.86645
203.50        30.43809
203.96        26.20976
204.42        22.29765
204.88        18.40464
205.34        16.08177
205.80        17.60029
206.26         22.3951
206.72        28.93725
207.18        34.34937
207.64        36.27488
208.10        34.75547
208.55        30.13008
209.01        22.22539
209.47          16.355
209.93        16.64351
210.39        20.13817
210.85        23.88796
211.31        26.84845
211.77        29.76598
212.23        34.78576
212.69        45.92685
213.14        63.62268
213.60        59.75203
214.06        44.97642
214.52        35.65829
214.98         31.6182
215.44        29.93006
215.90         29.0082
216.36        28.92548
216.81        29.88827
217.27        32.44577
217.73        37.86468
218.19        45.22697
218.65        47.73109
219.11         43.2801
219.57          36.216
220.02        32.12728
220.48        34.40948
220.94        43.10464
221.40         59.6479
221.86        83.27173
222.32        97.69941
222.77        89.88292
223.23        71.07834
223.69        53.82605
224.15        45.12957
224.61        43.17849
225.06        44.10535
225.52        46.24999
225.98        48.00086
226.44        49.05378
226.90        50.15581
227.36        50.94547
227.81        50.61749
228.27        49.31531
228.73        47.17248
229.19        45.27236
229.65        44.91599
230.10        46.11681
230.56        48.55326
231.02        51.00761
231.48        51.53584
231.93        49.87086
232.39        47.03692
232.85        44.46509
233.31        44.04614
233.77        45.90695
234.22        49.39142
234.68        53.19965
235.14        55.37426
235.60        55.36255
236.05        53.70383
236.51        51.30792
236.97        50.16941
237.43        51.12674
237.88        53.70006
238.34        57.02225
238.80        59.95445
239.26        62.18605
239.71        64.46969
240.17        66.85046
240.63        69.86911
241.08        73.76594
241.54        77.47243
242.00        81.39355
242.46        87.02156
242.91        96.08372
243.37        109.8897
243.83        128.0566
244.28        139.9713
244.74        132.2211
245.20        107.1099
245.66        81.07558
246.11        66.58936
246.57        63.09716
247.03        66.56281
247.48        71.71912
247.94        69.97722
248.40        62.18171
248.85        53.41272
249.31        46.87626
249.77        43.86688
250.22         43.8067
250.68        45.99137
251.14        50.31706
251.59        55.31282
252.05        59.42847
252.51        62.89727
252.96        65.03452
253.42        66.04952
253.88        66.32445
254.33         65.5202
254.79        65.74811
255.25        68.64408
255.70        73.85358
256.16        80.79632
256.62        86.51101
257.07        86.47578
257.53        82.28053
257.99        76.87319
258.44        72.46083
258.90        71.27791
259.35        72.20788
259.81        74.42325
260.27        76.68418
260.72        77.53756
261.18        77.12273
261.63        75.75667
262.09        74.33456
262.55        73.15919
263.00        72.16922
263.46        71.39692
263.91        70.46574
264.37        69.34967
264.83        68.02262
265.28         66.5631
265.74        65.34147
266.19        64.41042
266.65        63.84932
267.11        63.46136
267.56        63.13559
268.02        62.72135
268.47        62.15142
268.93        61.52158
269.38        60.72459
269.84        59.68005
270.30        58.39088
270.75        56.87751
271.21        55.43852
271.66        54.44683
272.12        53.96076
272.57        53.82463
273.03        53.70379
273.48        53.03593
273.94           51.79
274.39         50.1444
274.85        48.50008
275.31        47.22927
275.76        46.37971
276.22        45.84861
276.67        45.43703
277.13        45.00039
277.58        44.40696
278.04        43.74172
278.49          42.967
278.95        42.16691
279.40        41.31043
279.86        40.48451
280.31        39.60587
280.77        38.69845
281.22         37.7462
281.68        36.85073
282.13        36.09707
282.59        35.70696
283.04         35.6399
283.50        35.83324
283.95        36.09519
284.41        36.14302
284.86        35.89843
285.32        35.48168
285.77        34.99797
286.22        34.67826
286.68        34.56836
287.13        34.54635
287.59        34.56822
288.04        34.51441
288.50        34.37952
288.95         34.1796
289.41        33.93957
289.86        33.60489
290.32         33.2336
290.77         32.8326
291.22        32.49857
291.68        32.35611
292.13        32.42224
292.59        32.68993
293.04        33.10651
293.50        33.60685
293.95        34.14762
294.40         34.7359
294.86        35.38071
295.31        36.08841
295.77         36.8578
296.22        37.65585
296.68        38.44677
297.13        39.16403
297.58         39.8091
298.04        40.40895
298.49        41.01205
298.95        41.71708
299.40        42.52555
299.85        43.39677
300.31        44.27782
300.76        45.07001
301.21        45.74599
301.67        46.34492
302.12        46.84602
302.58        47.29356
303.03        47.67633
303.48        48.02553
303.94        48.37858
304.39        48.74001
304.84        49.13503
305.30        49.56689
305.75        50.01819
306.20         50.5289
306.66        51.09689
307.11        51.67704
307.57         52.2058
308.02        52.51827
308.47        52.61142
308.93        52.54334
309.38        52.41083
309.83        52.43447
310.29        52.65707
310.74        53.00647
311.19        53.35835
311.65        53.49863
312.10           53.37
312.55        53.04851
313.00        52.66241
313.46        52.39857
313.91        52.28669
314.36        52.28217
314.82        52.29461
315.27        52.19743
315.72        51.95203
316.18        51.61768
316.63        51.25702
317.08        50.98513
317.53        50.82497
317.99         50.7278
318.44        50.63529
318.89        50.44201
319.35         50.1218
319.80        49.71232
320.25        49.26881
320.70         48.8773
321.16        48.56113
321.61        48.31279
322.06        48.08958
322.51        47.82801
322.97         47.5037
323.42        47.13725
323.87        46.78054
324.32         46.5237
324.78        46.36206
325.23         46.2934
325.68        46.19096
326.13        45.86141
326.59        45.27554
327.04        44.52079
327.49        43.76061
327.94        43.25235
328.39        43.04766
328.85         43.0476
329.30        43.15931
329.75        43.12395
330.20        42.85933
330.66        42.43552
331.11        41.94539
331.56        41.50267
332.01        41.14903
332.46        40.83125
332.92        40.52934
333.37         40.2846
333.82        40.07583
334.27        39.92493
334.72        39.78562
335.17        39.56448
335.63        39.24638
336.08        38.87913
336.53        38.54548
336.98        38.40256
337.43        38.47863
337.88        38.70364
338.34        38.98065
338.79        39.18754
339.24        39.24822
339.69        39.19955
340.14         39.0191
340.59        38.68056
341.05        38.22386
341.50        37.67032
341.95        37.14542
342.40        36.83808
342.85        36.78672
343.30        36.94025
343.75          37.194
344.20         37.3658
344.66        37.39746
345.11        37.33096
345.56        37.20393
346.01        37.08408
346.46         36.9989
346.91        36.92277
347.36        36.85155
347.81        36.78939
348.26        36.73164
348.72        36.67893
349.17        36.62864
349.62        36.58627
350.07        36.54769
350.52        36.51591
350.97        36.44879
351.42        36.28155
351.87        36.01697
352.32        35.68663
352.77        35.37926
353.22        35.22164
353.67        35.23366
354.13        35.37406
354.58        35.55803
355.03        35.64029
355.48        35.57659
355.93         35.4064
356.38        35.19328
356.83         35.0362
357.28        34.95525
357.73        34.90805
358.18        34.85006
358.63        34.71598
359.08        34.49104
359.53         34.2093
359.98        33.89553
360.43        33.57662
360.88        33.26559
361.33        32.95633
361.78        32.66128
362.23        32.40417
362.68        32.18922
363.13        32.01102
363.58        31.84922
364.03        31.66674
364.48        31.45172
364.93        31.21313
365.38        30.96097
365.83        30.71566
366.28        30.48837
366.73        30.27489
367.18         30.0782
367.63        29.90328
368.08        29.74586
368.53        29.60026
368.98        29.45862
369.43          29.306
369.88        29.13766
370.33         28.9614
370.78        28.76877
371.23        28.54873
371.68        28.30848
372.13        28.05502
372.58        27.82922
373.03        27.69482
373.48        27.65603
373.93        27.68355
374.38        27.72015
374.83        27.67456
375.28         27.5219
375.72        27.28601
376.17        27.01197
376.62        26.73472
377.07         26.4777
377.52         26.2372
377.97        26.03273
378.42        25.90019
378.87        25.84007
379.32        25.83078
379.77        25.85069
380.22         25.8639
380.67        25.85155
381.11         25.8294
381.56         25.7443
382.01        25.54389
382.46        25.24198
382.91        24.87599
383.36        24.54075
383.81        24.36496
384.26        24.36209
384.71         24.4865
385.15        24.66233
385.60        24.75859
386.05        24.73156
386.50        24.62098
386.95        24.45162
387.40        24.26646
387.85        24.09104
388.29        23.89964
388.74        23.74574
389.19        23.64862
389.64        23.60426
390.09        23.59973
390.54        23.60214
390.98         23.5477
391.43        23.43808
391.88         23.2954
392.33        23.13761
392.78           22.99
393.23        22.86395
393.67        22.74013
394.12        22.65657
394.57        22.62558
395.02        22.64238
395.47        22.69156
395.91        22.74257
396.36           22.73
396.81         22.6522
397.26        22.53459
397.71        22.39522
398.15        22.27586
398.60        22.21529
399.05        22.10797
399.50        21.98832
399.95        22.06854
400.39         22.2754
400.84        22.20787
401.29        21.88428
401.74        21.68074
402.18        21.62386
402.63        21.49027
403.08         21.3107
403.53         21.2292
403.97        21.25279
404.42        21.34163
404.87        21.44205
405.32        21.46423
405.76        21.38369
406.21        21.23919
406.66        21.07627
407.11        20.96882
407.55        20.94209
408.00        20.96263
408.45        21.00306
408.90        21.00702
409.34        20.95397
409.79        20.86501
410.24        20.76339
410.68        20.67248
411.13        20.60285
411.58        20.54442
412.03         20.4771
412.47        20.37419
412.92        20.23277
413.37         20.0802
413.81        19.94825
414.26         19.8955
414.71        19.92259
415.15        20.01529
415.60        20.13844
416.05        20.24762
416.49        20.32069
416.94        20.36077
417.39        20.36832
417.83        20.34603
418.28        20.29825
418.73        20.22128
419.17        20.13246
419.62        20.06306
420.07          20.023
420.51        20.00429
420.96        19.99729
421.41        19.97825
421.85        19.93459
422.30        19.86739
422.74        19.77955
423.19        19.76439
423.64        19.79314
424.08        19.73614
424.53        19.60011
424.98        19.55145
425.42         19.6117
425.87        19.64628
426.31        19.63807
426.76        19.70209
427.21        19.77338
427.65        19.58549
428.10        19.24219
428.54         19.1047
428.99        19.20799
429.44        19.43678
429.88        19.67119
430.33         19.6488
430.77        19.40763
431.22        19.34768
431.66        19.47731
432.11        19.47647
432.56         19.3574
433.00        19.37487
433.45        19.44483
433.89        19.29905
434.34        19.06818
434.78        18.63696
435.23        19.06871
435.67        19.16598
436.12        19.19098
436.57        19.18057
437.01        19.13823
437.46        19.08624
437.90        19.01975
438.35        18.88513
438.79        18.72568
439.24        18.66972
439.68        18.73226
440.13        18.87512
440.57        19.04704
441.02        19.17864
441.46        19.23858
441.91        19.19523
442.35        19.08553
442.80        19.15136
443.24        19.32155
443.69        19.25532
444.13        18.98609
444.58        18.87007
445.02        18.92114
445.47        18.95137
445.91        18.94703
446.36        18.97569
446.80        19.02623
447.24        19.08035
447.69        19.12416
448.13         19.1282
448.58        19.09283
449.02        19.02496
449.47        18.95006
449.91        18.89834
450.36        18.88474
450.80        18.89759
451.25        18.92722
451.69        18.94556
452.13        18.94598
452.58        18.92909
453.02         18.9049
453.47        18.89159
453.91        18.89258
454.36        18.90859
454.80        18.90764
455.24        18.83963
455.69        18.70776
456.13        18.51812
456.58        18.35222
457.02        18.30105
457.46        18.38377
457.91        18.56637
458.35        18.74831
458.79         18.7756
459.24        18.63735
459.68        18.37912
460.13        18.11888
460.57        17.98412
461.01        18.01733
461.46        18.15792
461.90        18.35383
462.34        18.50298
462.79        18.56182
463.23        18.56771
463.68         18.5213
464.12        18.43608
464.56        18.32494
465.01        18.20739
465.45         18.0865
465.89        18.01858
466.34        18.00945
466.78        18.04426
467.22        18.11019
467.67        18.16303
468.11        18.19751
468.55        18.21376
468.99        18.21889
469.44          18.224
469.88        18.23374
470.32        18.24174
470.77        18.24372
471.21        18.23809
471.65        18.22406
472.10        18.20817
472.54        18.19477
472.98        18.19565
473.42        18.21301
473.87        18.24851
474.31        18.28354
474.75        18.30753
475.20        18.32111
475.64        18.31931
476.08        18.31684
476.52        18.32633
476.97        18.35147
477.41        18.39963
477.85        18.46134
478.29        18.49357
478.74        18.50711
479.18        18.55521
479.62         18.6394
480.06        18.73006
480.50        18.82672
480.95        18.92345
481.39        18.98811
481.83        19.15336
482.27        19.13554
482.72         19.1845
483.16        19.23802
483.60        19.27186
484.04        19.26932
484.48        19.38079
484.93         19.6751
485.37        19.55151
485.81        19.65138
486.25        20.16356
486.69        20.29679
487.14        20.11502
487.58        20.56437
488.02        20.56307
488.46        20.25973
488.90        20.44454
489.34        20.43555
489.79        20.64215
490.23         20.7911
490.67        21.01133
491.11        21.23588
491.55        21.22641
491.99        21.06057
492.43        21.07021
492.88         21.2906
493.32        21.53564
493.76        21.75866
494.20        21.97981
494.64        22.18669
495.08        22.33005
495.52        22.41276
495.96        22.58696
496.41        22.81134
496.85        22.74463
497.29        22.46724
497.73        22.62564
498.17        22.89898
498.61         23.1292
499.05        23.18658
499.49        23.29281
499.93        23.39801
500.37        23.62112
500.82        23.90588
501.26        24.09706
501.70        24.17519
502.14        24.23458
502.58         24.3084
503.02        24.40257
503.46        24.52529
503.90        24.67409
504.34        24.81596
504.78         24.8942
505.22        24.89847
505.66         24.8517
506.10        24.78843
506.54        24.76291
506.98        24.79149
507.42        24.85644
507.86        24.94796
508.30        25.04924
508.74         25.1491
509.18        25.25244
509.62        25.34339
510.06        25.39569
510.50         25.4076
510.94        25.38702
511.38        25.36011
511.82         25.3711
512.26        25.43124
512.70        25.52743
513.14        25.64176
513.58        25.74397
514.02        25.82107
514.46        25.87833
514.90        25.91642
515.34        25.93732
515.78        25.94304
516.22        25.93255
516.66        25.90744
517.10        25.87188
517.54        25.83081
517.98        25.78846
518.42        25.75338
518.86        25.73679
519.30        25.73983
519.74          25.757
520.18        25.78035
520.62         25.7967
521.06        25.80098
521.50        25.79684
521.93         25.7823
522.37        25.74628
522.81        25.69422
523.25        25.62896
523.69        25.56539
524.13        25.52731
524.57         25.5163
525.01        25.52063
525.45        25.52482
525.89        25.50333
526.32        25.44586
526.76        25.36923
527.20        25.27155
527.64        25.15238
528.08        25.01954
528.52        24.87668
528.96        24.75018
529.40         24.6807
529.83        24.67228
530.27        24.71235
530.71        24.76629
531.15        24.77946
531.59        24.73761
532.03        24.65662
532.46        24.55266
532.90        24.47013
533.34        24.41783
533.78        24.36977
534.22         24.3249
534.66        24.31248
535.09        24.31173
535.53        24.26718
535.97        24.18394
536.41        24.13144
536.85        24.11558
537.28        24.09813
537.72        24.08545
538.16        24.10659
538.60         24.1615
539.04         24.2388
539.47        24.32277
539.91        24.40527
540.35        24.47643
540.79        24.54166
541.22        24.59832
541.66        24.65062
542.10        24.70007
542.54        24.74913
542.97        24.80643
543.41        24.89671
543.85        25.02016
544.29        25.17074
544.72        25.33306
545.16        25.50057
545.60        25.66393
546.04        25.82814
546.47        25.99372
546.91        26.16059
547.35        26.32549
547.79         26.4761
548.22        26.61308
548.66        26.75875
549.10        26.93241
549.53        27.06585
549.97         27.1699
550.41        27.24981
550.84        27.33833
551.28        27.47801
551.72         27.6399
552.15        27.81424
552.59        28.02861
553.03        27.87614
553.46        28.20763
553.90        28.29369
554.34        28.37797
554.77        28.49244
555.21        28.65708
555.65        28.69181
556.08        28.86517
556.52        28.95754
556.96         29.0496
557.39         29.1259
557.83        29.14995
558.27        29.27577
558.70        28.99659
559.14        29.01219
559.57        29.15489
560.01        29.28131
560.45        29.36296
560.88        29.45801
561.32        29.57776
561.75        29.66988
562.19        29.74483
562.63        29.81482
563.06        29.87774
563.50        29.92932
563.93         29.9517
564.37        30.00931
564.80        30.11009
565.24        30.14121
565.68        30.05205
566.11        30.44127
566.55        30.21906
566.98        30.27786
567.42        30.34343
567.85        30.47052
568.29        30.66922
568.72        30.93669
569.16        31.27774
569.60        31.50439
570.03        31.71274
570.47        31.92512
570.90        32.18932
571.34        32.07787
571.77        32.37135
572.21        32.49236
572.64        32.64168
573.08         32.6685
573.51        32.61558
573.95        32.76612
574.38        33.15427
574.82        33.15508
