SpectraSmart Spectrum 2.9.0.0
--------- Device Information -----------
Spectrum Name :  反射率_0
Saving Time :  2024/04/26 23:40:25
Spectro-Module Model Name : SE2030-DUVN
Spectro-Module Serial Number : OS361AC55029948
Wavelength Start : 200
Wavelength End : 1025
Wavelength Unit : Wavelength(nm)
Spectrum Unit : Reflectance(%)
-----------Spectrum Setting ------------
Integration Time : 20ms
Average : 10
Boxcar : 0
Background removal :  enabled
linearity correction :  enabled
SC :  disabled
Intensity correction :  disabled
DWT denoise :  enabled
savitzky-golay :  disabled
FFT :  disabled
Running average :  disabled
Kalman :  disabled
High pass :  disabled
---------------BEGIN--------------------
Wavelength(nm)             Reflectance(%)
200.29               0
200.75        14.22187
201.21         16.9291
201.67        20.69752
202.13        24.06292
202.58        26.92664
203.04        30.59357
203.50        35.31032
203.96        40.11371
204.42        43.79894
204.88        45.31582
205.34        44.79878
205.80         43.9715
206.26        43.37086
206.72        42.64022
207.18        41.27863
207.64        38.23851
208.10        33.10212
208.55        25.57605
209.01        15.82744
209.47        10.66525
209.93        14.06923
210.39        21.35948
210.85        28.34354
211.31        34.30123
211.77        41.27652
212.23         53.8678
212.69        82.91676
213.14        131.7376
213.60        129.9491
214.06        94.79338
214.52        70.94894
214.98        60.51932
215.44        56.30201
215.90         54.1596
216.36        53.00204
216.81         51.5121
217.27        49.49296
217.73        47.97332
218.19         46.5467
218.65        44.37363
219.11        42.72887
219.57        41.88991
220.02          43.273
220.48        49.16724
220.94        60.50122
221.40        79.58974
221.86        106.5154
222.32        125.2827
222.77        120.8726
223.23        103.6329
223.69        85.78569
224.15        74.50299
224.61        68.97292
225.06        66.06271
225.52        65.31473
225.98        66.11417
226.44        68.02216
226.90        71.19283
227.36         74.6281
227.81        76.32863
228.27        76.03583
228.73        74.22919
229.19        72.24212
229.65        71.71662
230.10        72.72005
230.56        74.74635
231.02        76.67384
231.48        76.79424
231.93        74.86929
232.39        72.04062
232.85        69.33874
233.31        68.10906
233.77         68.4704
234.22        69.90436
234.68        71.75805
235.14        73.13908
235.60         73.7121
236.05        73.76735
236.51        73.29078
236.97         72.4528
237.43        71.39101
237.88        70.08153
238.34        68.64836
238.80        67.55875
239.26        66.96238
239.71        67.25789
240.17        68.06562
240.63        68.97537
241.08        69.88216
241.54        70.38916
242.00         71.5951
242.46        75.77533
242.91        84.98925
243.37        100.6656
243.83        123.1288
244.28        141.8683
244.74        141.1691
245.20        120.9866
245.66        95.88918
246.11        78.37092
246.57        69.03465
247.03        64.33091
247.48        61.83654
247.94        58.46307
248.40        54.63082
248.85        51.74204
249.31         50.3758
249.77        50.41478
250.22         51.5152
250.68        53.41154
251.14        55.92256
251.59        57.99258
252.05        58.95802
252.51        59.51007
252.96        58.87282
253.42        56.80064
253.88        53.83961
254.33        50.20306
254.79        48.44348
255.25        50.55241
255.70        56.03284
256.16         63.9334
256.62        70.79581
257.07        71.38287
257.53        67.12173
257.99         61.3178
258.44        56.64121
258.90        55.51916
259.35        56.84762
259.81        59.57199
260.27         62.2229
260.72        63.03223
261.18        62.16591
261.63        60.27208
262.09        58.44334
262.55        57.28323
263.00        56.74833
263.46        56.67511
263.91        56.59679
264.37        56.27657
264.83        55.63562
265.28        54.77996
265.74        54.09856
266.19        53.74117
266.65        53.78641
267.11        54.03439
267.56        54.26353
268.02        54.13964
268.47          53.581
268.93        52.74697
269.38        51.74973
269.84         50.8302
270.30        50.04452
270.75        49.30369
271.21        48.66854
271.66        48.15967
272.12        47.76508
272.57        47.46315
273.03        47.10424
273.48        46.42102
273.94        45.45068
274.39        44.26201
274.85        43.14303
275.31        42.33753
275.76        41.85469
276.22        41.63179
276.67        41.49096
277.13        41.29315
277.58        40.92646
278.04        40.47434
278.49         39.9019
278.95        39.29628
279.40        38.62847
279.86        37.96565
280.31        37.25924
280.77        36.57409
281.22        35.88182
281.68        35.25362
282.13        34.68948
282.59        34.28809
283.04        34.00479
283.50        33.82496
283.95        33.66335
284.41         33.4125
284.86         33.0448
285.32         32.6287
285.77        32.19279
286.22         31.8458
286.68        31.60616
287.13        31.39943
287.59        31.22391
288.04        31.02665
288.50        30.81694
288.95        30.58366
289.41        30.32347
289.86         29.9546
290.32        29.51669
290.77        29.02113
291.22        28.56395
291.68        28.27178
292.13        28.15606
292.59        28.19484
293.04        28.32128
293.50        28.45004
293.95        28.54376
294.40        28.63269
294.86         28.7431
295.31         28.9069
295.77        29.14039
296.22        29.41671
296.68        29.72969
297.13        30.05704
297.58        30.39876
298.04        30.76582
298.49        31.15439
298.95        31.57458
299.40        32.01367
299.85        32.45814
300.31        32.90247
300.76        33.33191
301.21        33.73657
301.67        34.12403
302.12        34.45063
302.58        34.71139
303.03        34.88393
303.48        35.00094
303.94        35.10138
304.39        35.20662
304.84        35.34101
305.30         35.5098
305.75        35.68481
306.20        35.87663
306.66        36.08479
307.11        36.28341
307.57        36.46773
308.02        36.58241
308.47        36.62772
308.93        36.62352
309.38        36.57005
309.83        36.51931
310.29        36.48536
310.74         36.4533
311.19        36.41195
311.65         36.3359
312.10        36.21831
312.55        36.07275
313.00        35.92772
313.46        35.82171
313.91        35.74725
314.36        35.69637
314.82        35.63761
315.27        35.53273
315.72        35.36935
316.18         35.1719
316.63        34.95118
317.08        34.74016
317.53        34.54902
317.99        34.36264
318.44        34.19005
318.89        34.03475
319.35        33.89331
319.80        33.76339
320.25        33.62599
320.70        33.44979
321.16        33.22751
321.61        32.98214
322.06        32.72507
322.51        32.48069
322.97        32.25585
323.42        32.04572
323.87        31.87054
324.32        31.76756
324.78        31.72561
325.23        31.75395
325.68        31.76608
326.13         31.6256
326.59        31.30674
327.04        30.85936
327.49        30.39932
327.94         30.1154
328.39        30.04549
328.85        30.12336
329.30        30.26384
329.75        30.25012
330.20        30.02125
330.66        29.64071
331.11        29.21997
331.56        28.91261
332.01        28.76482
332.46        28.71928
332.92        28.71375
333.37        28.69143
333.82        28.60679
334.27        28.49562
334.72        28.35725
335.17        28.18205
335.63        27.97958
336.08        27.76858
336.53        27.59208
336.98        27.53613
337.43        27.61643
337.88        27.79897
338.34        28.03275
338.79        28.25601
339.24        28.41789
339.69        28.52608
340.14        28.54671
340.59        28.43575
341.05        28.20913
341.50        27.88643
341.95        27.54748
342.40        27.31413
342.85        27.21994
343.30        27.23764
343.75        27.32579
344.20        27.40905
344.66         27.4615
345.11        27.49982
345.56        27.52343
346.01        27.53313
346.46        27.53447
346.91         27.5222
347.36        27.50444
347.81        27.50356
348.26        27.52052
348.72        27.54358
349.17        27.56787
349.62        27.59677
350.07        27.62578
350.52        27.66248
350.97        27.66345
351.42        27.55959
351.87        27.35209
352.32        27.06999
352.77        26.80874
353.22         26.7082
353.67        26.78841
354.13         27.0036
354.58        27.24899
355.03        27.34972
355.48        27.25635
355.93         27.0212
356.38        26.73002
356.83        26.51328
357.28        26.40321
357.73        26.35577
358.18        26.31957
358.63        26.21579
359.08        26.02553
359.53        25.78457
359.98        25.53094
360.43        25.31203
360.88        25.14003
361.33        24.99874
361.78         24.8682
362.23        24.72054
362.68        24.55168
363.13        24.37555
363.58        24.21033
364.03         24.0807
364.48        23.98965
364.93        23.92376
365.38        23.86794
365.83        23.80081
366.28        23.71344
366.73        23.61011
367.18        23.49129
367.63        23.35807
368.08        23.21341
368.53         23.0591
368.98        22.90033
369.43        22.74531
369.88        22.59753
370.33        22.45631
370.78        22.32582
371.23        22.21212
371.68        22.11553
372.13        22.03479
372.58          21.959
373.03        21.86913
373.48        21.76084
373.93        21.63884
374.38        21.51296
374.83        21.40226
375.28        21.30903
375.72        21.21588
376.17        21.13077
376.62        21.03928
377.07        20.93892
377.52        20.84018
377.97        20.73079
378.42        20.59288
378.87        20.43106
379.32        20.25047
379.77        20.09484
380.22        20.02769
380.67        20.05205
381.11        20.15132
381.56        20.24632
382.01        20.22208
382.46        20.05697
382.91        19.80069
383.36        19.52757
383.81        19.33899
384.26        19.25586
384.71        19.24334
385.15        19.27375
385.60        19.30398
386.05        19.31209
386.50        19.31079
386.95        19.28875
387.40        19.22859
387.85         19.1322
388.29        18.99237
388.74        18.85568
389.19        18.74351
389.64        18.66067
390.09        18.59941
390.54        18.54414
390.98        18.46497
391.43        18.36833
391.88        18.26133
392.33        18.16094
392.78        18.08959
393.23        18.04847
393.67        18.01931
394.12        17.99989
394.57        17.95135
395.02        17.86673
395.47        17.75142
395.91        17.63165
396.36        17.54234
396.81        17.50579
397.26         17.5142
397.71        17.53696
398.15        17.53965
398.60        17.53378
399.05        17.45428
399.50        17.34758
399.95        17.40862
400.39         17.5881
400.84        17.56085
401.29        17.32784
401.74        17.16729
402.18        17.09761
402.63        16.95216
403.08        16.77889
403.53        16.72611
403.97        16.80457
404.42        16.96868
404.87        17.14776
405.32         17.2257
405.76        17.17128
406.21        17.02968
406.66        16.85658
407.11        16.74188
407.55        16.71476
408.00        16.73804
408.45        16.78525
408.90        16.80181
409.34        16.76934
409.79        16.71538
410.24        16.65331
410.68        16.59227
411.13        16.54193
411.58         16.4918
412.03        16.45051
412.47        16.43875
412.92        16.45394
413.37        16.49731
413.81        16.54208
414.26          16.564
414.71        16.55221
415.15        16.51414
415.60        16.47047
416.05        16.47412
416.49          16.537
416.94        16.64116
417.39        16.74132
417.83        16.76642
418.28        16.70272
418.73        16.57093
419.17        16.42893
419.62        16.37018
420.07        16.41578
420.51        16.53162
420.96        16.66109
421.41        16.71291
421.85        16.66256
422.30        16.53837
422.74        16.38419
423.19        16.33748
423.64        16.38818
424.08         16.4097
424.53        16.38194
424.98        16.40072
425.42        16.47044
425.87        16.49417
426.31        16.46971
426.76        16.51287
427.21         16.5755
427.65        16.42336
428.10        16.14683
428.54        16.05574
428.99        16.17834
429.44        16.41999
429.88        16.66029
430.33        16.64584
430.77        16.40907
431.22        16.30029
431.66        16.35802
432.11        16.36483
432.56        16.34153
433.00        16.48709
433.45        16.70039
433.89          16.676
434.34        16.50447
434.78        16.12837
435.23         16.4751
435.67        16.50323
436.12        16.45097
436.57        16.35479
437.01        16.25212
437.46        16.21593
437.90        16.24873
438.35        16.28685
438.79         16.3064
439.24        16.32584
439.68        16.34044
440.13        16.34304
440.57          16.342
441.02        16.37005
441.46        16.42755
441.91        16.45782
442.35        16.45173
442.80         16.5634
443.24        16.72011
443.69        16.64475
444.13        16.39065
444.58        16.30212
445.02        16.39859
445.47        16.50327
445.91        16.57622
446.36        16.63618
446.80        16.66619
447.24        16.66455
447.69         16.6492
448.13        16.64084
448.58        16.64956
449.02        16.66495
449.47        16.68188
449.91        16.68416
450.36        16.67373
450.80        16.65537
451.25        16.63909
451.69        16.62803
452.13         16.6258
452.58        16.62584
453.02        16.62835
453.47        16.63675
453.91        16.64935
454.36        16.66881
454.80        16.67658
455.24        16.64193
455.69        16.56831
456.13         16.4561
456.58        16.35515
457.02        16.31401
457.46        16.34688
457.91        16.43388
458.35        16.52062
458.79        16.52452
459.24        16.44528
459.68         16.3051
460.13        16.16873
460.57        16.09055
461.01        16.09765
461.46        16.15319
461.90        16.24737
462.34        16.35074
462.79        16.43988
463.23        16.52711
463.68        16.57598
464.12        16.53765
464.56        16.41074
465.01        16.24002
465.45        16.05735
465.89        15.94978
466.34        15.93073
466.78        15.97246
467.22        16.05907
467.67        16.14422
468.11        16.21671
468.55         16.2802
468.99        16.32809
469.44        16.34853
469.88        16.34274
470.32        16.30951
470.77        16.26601
471.21        16.24705
471.65         16.2595
472.10        16.29787
472.54        16.34493
472.98        16.37763
473.42        16.38901
473.87         16.3917
474.31        16.38285
474.75        16.37365
475.20        16.37175
475.64        16.36757
476.08         16.3674
476.52        16.37279
476.97        16.38437
477.41        16.41097
477.85        16.45373
478.29        16.48851
478.74        16.52655
479.18        16.61086
479.62        16.72352
480.06        16.80942
480.50         16.8639
480.95        16.88863
481.39        16.88295
481.83        17.01122
482.27        17.02786
482.72        17.13278
483.16        17.24077
483.60        17.30136
484.04        17.29365
484.48        17.32928
484.93        17.48103
485.37        17.37823
485.81        17.52693
486.25        17.87968
486.69        17.55343
487.14        17.58248
487.58        18.23809
488.02        18.34749
488.46        17.96256
488.90        17.96813
489.34        18.03773
489.79        18.26149
490.23        18.43481
490.67         18.5634
491.11        18.63173
491.55           18.67
491.99        18.71656
492.43        18.80479
492.88        18.94469
493.32        19.11621
493.76        19.29125
494.20         19.4474
494.64        19.58133
495.08        19.66024
495.52        19.69925
495.96        19.85327
496.41         20.0876
496.85        20.09091
497.29        19.91203
497.73        20.09336
498.17        20.34243
498.61        20.52641
499.05        20.53756
499.49        20.58705
499.93        20.63936
500.37        20.79742
500.82        21.01952
501.26        21.18201
501.70        21.26899
502.14        21.35961
502.58        21.47324
503.02        21.59701
503.46        21.73277
503.90        21.88432
504.34        22.02271
504.78        22.09669
505.22        22.09379
505.66        22.04735
506.10        22.00638
506.54        21.99372
506.98        22.01453
507.42        22.27252
507.86        22.34463
508.30        22.47897
508.74        22.54182
509.18        22.56063
509.62        22.55677
510.06        22.57314
510.50        22.62456
510.94        22.69183
511.38        22.76072
511.82        22.80931
512.26        22.83248
512.70        22.84257
513.14        22.84933
513.58        22.86606
514.02        22.89799
514.46        22.93893
514.90        22.99005
515.34        23.05424
515.78        23.12759
516.22        23.20639
516.66        23.27643
517.10        23.31522
517.54        23.31831
517.98        23.29284
518.42        23.25111
518.86        23.21433
519.30         23.1898
519.74        23.17166
520.18        23.15933
520.62        23.15036
521.06        23.14294
521.50        23.14075
521.93        23.13688
522.37         23.1108
522.81        23.06341
523.25        22.99779
523.69        22.93155
524.13        22.89296
524.57        22.88513
525.01        22.89729
525.45        22.90701
525.89        22.87776
526.32        22.80042
526.76        22.69583
527.20         22.5814
527.64        22.48616
528.08        22.41949
528.52        22.37061
528.96        22.33943
529.40        22.32605
529.83        22.32436
530.27        22.33486
530.71        22.33742
531.15        22.30122
531.59        22.22317
532.03         22.1145
532.46        21.99592
532.90        21.91688
533.34        21.88527
533.78        21.87509
534.22         21.8763
534.66        21.89919
535.09         21.9209
535.53        21.89618
535.97        21.82958
536.41        21.78586
536.85        21.77126
537.28        21.74642
537.72        21.72763
538.16        21.75848
538.60        21.84013
539.04        21.95924
539.47        22.07544
539.91        22.14037
540.35        22.14073
540.79        22.09504
541.22        22.04039
541.66        22.04402
542.10        22.11873
542.54        22.24438
542.97        22.38826
543.41        22.50746
543.85        22.58889
544.29        22.65437
544.72        22.71646
545.16        22.80923
545.60        22.93669
546.04         23.0862
546.47        23.26259
546.91        23.47018
547.35        23.69811
547.79         23.9426
548.22        24.16821
548.66        24.31629
549.10        24.40933
549.53        24.45457
549.97        24.49465
550.41        24.54382
550.84        24.64597
551.28        24.85253
551.72        25.11252
552.15        25.36006
552.59        25.60158
553.03        25.49098
553.46        25.82069
553.90        25.91766
554.34        26.00402
554.77         26.2523
555.21        26.33465
555.65        26.47234
556.08        26.55446
556.52        26.58807
556.96        26.59131
557.39         26.6687
557.83        26.81172
558.27        26.85225
558.70        26.79912
559.14         26.8324
559.57        26.93915
560.01         26.9837
560.45        26.98065
560.88        27.06287
561.32        27.23448
561.75        27.37153
562.19        27.47421
562.63        27.59216
563.06        27.71526
563.50        27.81408
563.93         27.8679
564.37        27.93261
564.80        28.02318
565.24        28.06141
565.68        27.99364
566.11        28.34962
566.55        28.11643
566.98        28.13027
567.42        28.15423
567.85        28.29072
568.29        28.53571
568.72        28.80842
569.16        29.10359
569.60        29.30696
570.03        29.51421
570.47        29.68475
570.90        29.85508
571.34        29.82363
571.77        30.05156
572.21         30.1447
572.64        30.22229
573.08        30.39479
573.51         30.4452
573.95         30.6353
574.38        30.90376
574.82        30.94975
