SpectraSmart Spectrum 2.9.0.0
--------- Device Information -----------
Spectrum Name :  反射率_0
Saving Time :  2024/04/26 23:31:39
Spectro-Module Model Name : SE2030-DUVN
Spectro-Module Serial Number : OS361AC55029948
Wavelength Start : 200
Wavelength End : 1025
Wavelength Unit : Wavelength(nm)
Spectrum Unit : Reflectance(%)
-----------Spectrum Setting ------------
Integration Time : 20ms
Average : 10
Boxcar : 0
Background removal :  enabled
linearity correction :  enabled
SC :  disabled
Intensity correction :  disabled
DWT denoise :  enabled
savitzky-golay :  disabled
FFT :  disabled
Running average :  disabled
Kalman :  disabled
High pass :  disabled
---------------BEGIN--------------------
Wavelength(nm)             Reflectance(%)
200.29               0
200.75        54.15166
201.21        48.59248
201.67        44.41871
202.13        42.52938
202.58        42.77168
203.04        45.26247
203.50         50.6763
203.96        59.07584
204.42        69.47912
204.88        81.15874
205.34        90.77543
205.80         93.9023
206.26        90.14099
206.72        81.23785
207.18        72.00842
207.64        66.25327
208.10        63.97071
208.55        65.15394
209.01        68.22022
209.47        68.33868
209.93        64.48357
210.39        60.14819
210.85        58.62357
211.31        62.47839
211.77        73.80137
212.23        100.2642
212.69         165.863
213.14        272.2249
213.60        261.9514
214.06        183.0025
214.52        131.1907
214.98        108.5627
215.44        99.62073
215.90        95.00724
216.36        94.33416
216.81        98.79218
217.27        109.1934
217.73        130.0267
218.19        157.7349
218.65        166.0132
219.11        147.0788
219.57        119.1446
220.02        100.1495
220.48        98.79968
220.94        113.1923
221.40        144.3647
221.86        191.5965
222.32        224.7117
222.77        216.1077
223.23        185.2487
223.69        153.8657
224.15        134.3573
224.61        125.2105
225.06         120.789
225.52        119.9301
225.98        121.1314
226.44        123.8066
226.90        128.4051
227.36        134.2035
227.81        139.2764
228.27         142.917
228.73        144.8261
229.19        145.8212
229.65        147.2656
230.10        149.2005
230.56        151.3846
231.02        152.5258
231.48        150.7867
231.93          146.25
232.39        140.7034
232.85         135.674
233.31        133.1304
233.77         133.209
234.22         135.076
234.68        138.0102
235.14        140.9416
235.60        143.3637
236.05        145.7279
236.51        147.2018
236.97        146.6398
237.43        143.7451
237.88        138.7607
238.34        133.0077
238.80        129.1912
239.26        128.2328
239.71        130.7516
240.17        135.5031
240.63        139.6664
241.08        141.5484
241.54        140.3804
242.00        139.0429
242.46        143.6087
242.91        158.5916
243.37        186.1729
243.83        225.8463
244.28        255.3756
244.74        244.9086
245.20        198.2537
245.66        146.1512
246.11        112.7024
246.57        97.48415
247.03        93.10828
247.48        93.82325
247.94        91.45271
248.40        85.62911
248.85        80.00446
249.31        76.58203
249.77        75.84631
250.22        77.39812
250.68        80.59136
251.14          85.046
251.59        88.74213
252.05        90.37366
252.51        91.29513
252.96        91.24454
253.42        90.78285
253.88        90.24191
254.33        89.01074
254.79        89.96598
255.25        95.41014
255.70        104.7387
256.16        117.1052
256.62        127.5567
257.07        128.4611
257.53        122.2378
257.99        113.7843
258.44        107.1283
258.90        106.1095
259.35        108.9959
259.81        114.2982
260.27        119.6436
260.72        122.1254
261.18        121.9492
261.63        119.8727
262.09        117.7946
262.55        116.7249
263.00         116.516
263.46        116.9961
263.91        117.0724
264.37        116.1112
264.83         114.052
265.28        111.3098
265.74        108.9709
266.19        107.7519
266.65        107.8524
267.11        108.7348
267.56        109.7842
268.02        110.0752
268.47        109.3231
268.93        107.9255
269.38         106.114
269.84        104.3799
270.30        102.8655
270.75        101.3839
271.21         100.104
271.66        99.16009
272.12        98.54852
272.57        98.18291
273.03        97.76024
273.48        96.70923
273.94        95.06113
274.39        92.95104
274.85        90.86457
275.31        89.18118
275.76        87.93848
276.22        87.09632
276.67        86.40512
277.13        85.77503
277.58        85.00285
278.04        84.17255
278.49        83.19437
278.95        82.18942
279.40        81.06357
279.86        79.96409
280.31         78.6686
280.77        77.13779
281.22         75.3243
281.68        73.46111
282.13        71.75372
282.59        70.70377
283.04        70.24638
283.50        70.25689
283.95        70.35751
284.41        70.02061
284.86        69.10235
285.32        67.84437
285.77        66.46425
286.22        65.40127
286.68        64.73954
287.13        64.26842
287.59        63.86941
288.04        63.27009
288.50        62.47071
288.95        61.52726
289.41        60.57782
289.86          59.664
290.32        58.88514
290.77        58.17144
291.22        57.55385
291.68        57.05258
292.13        56.63091
292.59        56.30462
293.04         56.0518
293.50        55.88118
293.95        55.76225
294.40        55.68886
294.86        55.62236
295.31          55.484
295.77        55.28449
296.22        55.04366
296.68         54.8289
297.13        54.70865
297.58        54.71533
298.04        54.82365
298.49         55.0176
298.95        55.30009
299.40        55.63346
299.85        56.01141
300.31        56.37003
300.76        56.58462
301.21        56.64066
301.67        56.58078
302.12        56.45221
302.58        56.42517
303.03        56.49322
303.48         56.6461
303.94        56.82306
304.39        56.86608
304.84        56.77421
305.30        56.60916
305.75        56.43027
306.20        56.40466
306.66        56.57118
307.11        56.84599
307.57        57.13486
308.02        57.21922
308.47        57.07817
308.93        56.78465
309.38        56.44388
309.83        56.28898
310.29        56.36166
310.74        56.58025
311.19        56.79448
311.65         56.7565
312.10        56.40899
312.55        55.84354
313.00        55.23726
313.46        54.84652
313.91        54.71052
314.36        54.76451
314.82        54.86251
315.27        54.78672
315.72         54.4758
316.18        54.01543
316.63        53.52083
317.08        53.19167
317.53        53.06755
317.99        53.06791
318.44        53.08794
318.89        52.94682
319.35         52.5999
319.80        52.11638
320.25        51.58315
320.70        51.13491
321.16        50.81281
321.61        50.59253
322.06        50.43412
322.51        50.27861
322.97        50.09533
323.42        49.90702
323.87        49.73444
324.32        49.61599
324.78        49.53798
325.23        49.51345
325.68        49.45498
326.13        49.24046
326.59        48.85524
327.04        48.35731
327.49        47.87461
327.94        47.61629
328.39        47.62033
328.85        47.80351
329.30         48.0749
329.75        48.16416
330.20        47.99078
330.66        47.62402
331.11        47.18988
331.56        46.85693
332.01        46.68052
332.46        46.59357
332.92        46.54019
333.37        46.50228
333.82        46.43264
334.27        46.37101
334.72        46.28711
335.17        46.11554
335.63        45.85669
336.08        45.55748
336.53        45.31026
336.98        45.29107
337.43        45.53177
337.88        45.95776
338.34        46.46084
338.79        46.90314
339.24        47.19027
339.69         47.3553
340.14        47.35576
340.59        47.13728
341.05        46.74193
341.50        46.20449
341.95        45.67973
342.40        45.40543
342.85        45.43159
343.30        45.68591
343.75        46.06516
344.20        46.38361
344.66        46.57348
345.11        46.68678
345.56        46.70229
346.01        46.59521
346.46        46.39024
346.91        46.09222
347.36        45.81833
347.81        45.76331
348.26        45.95239
348.72         46.3224
349.17        46.72878
349.62        46.95202
350.07        46.93258
350.52        46.74424
350.97        46.44977
351.42        46.15825
351.87        45.92203
352.32        45.70945
352.77        45.55442
353.22        45.50585
353.67        45.55736
354.13        45.69808
354.58        45.84846
355.03        45.86221
355.48        45.70257
355.93        45.40562
356.38        45.06118
356.83        44.80898
357.28        44.68005
357.73        44.63224
358.18        44.59219
358.63        44.44422
359.08        44.16161
359.53        43.78475
359.98        43.38586
360.43        43.06519
360.88        42.84015
361.33        42.67746
361.78        42.50689
362.23        42.22128
362.68        41.80728
363.13          41.314
363.58          40.824
364.03        40.45725
364.48        40.24179
364.93         40.1385
365.38        40.09177
365.83        40.01231
366.28        39.86942
366.73        39.68542
367.18        39.48069
367.63        39.28907
368.08        39.11496
368.53        38.93518
368.98        38.73559
369.43        38.49734
369.88        38.21939
370.33        37.92369
370.78        37.61258
371.23        37.28833
371.68        36.96473
372.13        36.64333
372.58        36.37358
373.03        36.23041
373.48        36.21334
373.93         36.2877
374.38        36.35804
374.83        36.27413
375.28        36.00223
375.72        35.58251
376.17        35.11935
376.62        34.72795
377.07        34.45114
377.52        34.26752
377.97        34.14529
378.42        34.03633
378.87        33.92158
379.32        33.80165
379.77        33.71617
380.22         33.7201
380.67        33.80742
381.11        33.96546
381.56        34.05458
382.01        33.88468
382.46        33.44144
382.91        32.81852
383.36        32.20963
383.81        31.87814
384.26        31.86515
384.71        32.08382
385.15        32.39643
385.60        32.56699
386.05        32.51758
386.50        32.31477
386.95        32.02675
387.40        31.76261
387.85        31.56179
388.29        31.37111
388.74        31.20945
389.19        31.02886
389.64        30.82201
390.09        30.60688
390.54        30.41181
390.98        30.26965
391.43        30.20693
391.88        30.20473
392.33        30.22556
392.78        30.21809
393.23        30.16988
393.67        30.07636
394.12        29.99977
394.57        29.97382
395.02        30.00395
395.47        30.06979
395.91        30.13161
396.36        30.10933
396.81        30.00572
397.26        29.85357
397.71        29.70077
398.15        29.63484
398.60        29.70032
399.05        29.73753
399.50         29.7378
399.95        29.91251
400.39        30.15189
400.84        29.93608
401.29        29.34628
401.74        28.98437
402.18        28.91289
402.63        28.80362
403.08        28.66041
403.53        28.61387
403.97        28.65588
404.42        28.76136
404.87        28.86686
405.32        28.86337
405.76        28.72872
406.21        28.50675
406.66        28.28299
407.11        28.19854
407.55        28.29003
408.00        28.50093
408.45        28.74791
408.90        28.86607
409.34         28.8023
409.79        28.61477
410.24        28.38192
410.68        28.20554
411.13        28.12172
411.58        28.09951
412.03        28.10189
412.47        28.07172
412.92        27.98683
413.37        27.88235
413.81        27.79464
414.26        27.79773
414.71        27.89017
415.15        28.05325
415.60        28.22444
416.05        28.32508
416.49        28.33027
416.94         28.2598
417.39        28.15374
417.83        28.07255
418.28         28.0349
418.73        28.01857
419.17        28.01909
419.62        28.03012
420.07        28.04584
420.51        28.06666
420.96        28.07915
421.41        28.05248
421.85        27.97488
422.30        27.84505
422.74        27.68621
423.19        27.65715
423.64        27.72492
424.08        27.70591
424.53        27.59008
424.98        27.57317
425.42        27.67494
425.87        27.71194
426.31        27.69192
426.76        27.82829
427.21        28.04389
427.65        27.94504
428.10        27.62174
428.54        27.52752
428.99        27.70009
429.44        27.93833
429.88         28.1452
430.33        28.18014
430.77         28.0575
431.22        28.05997
431.66        28.18252
432.11        28.19867
432.56        28.12585
433.00        28.07947
433.45        27.99587
433.89        27.93144
434.34        27.91327
434.78        27.33718
435.23        27.26063
435.67        27.19416
436.12        27.37473
436.57        27.44184
437.01        27.37803
437.46        27.37636
437.90        27.42411
438.35        27.39889
438.79        27.30663
439.24        27.25028
439.68        27.23481
440.13        27.22808
440.57        27.25501
441.02        27.33885
441.46        27.46005
441.91        27.65301
442.35        27.82376
442.80        27.85293
443.24        27.74384
443.69        27.67821
444.13        27.66951
444.58        27.63109
445.02        27.56957
445.47        27.56072
445.91        27.59795
446.36        27.63891
446.80        27.67103
447.24        27.70769
447.69        27.74731
448.13        27.77456
448.58        27.79156
449.02        27.79132
449.47        27.77537
449.91        27.73568
450.36         27.6829
450.80        27.61462
451.25        27.55283
451.69        27.51099
452.13        27.49734
452.58        27.50308
453.02         27.5176
453.47        27.52723
453.91        27.52543
454.36        27.51981
454.80        27.49943
455.24        27.44703
455.69        27.37184
456.13        27.26342
456.58        27.17147
457.02        27.12868
457.46        27.15257
457.91        27.23122
458.35        27.30843
458.79         27.3046
459.24        27.22781
459.68        27.08975
460.13        26.97206
460.57        26.93348
461.01        27.00665
461.46        27.14404
461.90        27.32109
462.34        27.47714
462.79        27.57683
463.23        27.64414
463.68        27.64933
464.12        27.56348
464.56        27.39188
465.01        27.18673
465.45        26.96864
465.89        26.83827
466.34        26.80742
466.78        26.84261
467.22        26.92416
467.67         26.9877
468.11        27.02617
468.55        27.04721
468.99        27.04781
469.44         27.0208
469.88        26.97268
470.32        26.89865
470.77          26.832
471.21        26.83259
471.65        26.90771
472.10        27.04543
472.54        27.18987
472.98        27.26042
473.42        27.23918
473.87        27.15691
474.31         27.0512
474.75        27.00646
475.20        27.04605
475.64        27.13372
476.08        27.23104
476.52         27.2647
476.97        27.21999
477.41        27.13587
477.85        27.06101
478.29        27.03338
478.74        27.08974
479.18         27.2731
479.62        27.51493
480.06        27.65946
480.50        27.68795
480.95        27.64014
481.39        27.53274
481.83        27.65124
482.27        27.60147
482.72        27.69682
483.16         27.8231
483.60        27.90857
484.04        27.93582
484.48        28.09816
484.93        28.39676
485.37        28.07131
485.81        28.19792
486.25        28.05813
486.69        28.71096
487.14        28.69683
487.58        28.76111
488.02        29.01389
488.46        28.37056
488.90        28.79709
489.34        28.94846
489.79        29.21271
490.23         29.2065
490.67         29.1771
491.11        29.15921
491.55        29.09316
491.99        29.02918
492.43        29.01826
492.88        29.08316
493.32         29.2327
493.76        29.44226
494.20        29.65694
494.64         29.8639
495.08        30.05674
495.52        30.21263
495.96         30.3959
496.41        30.58099
496.85        30.52642
497.29         30.2942
497.73        30.50856
498.17         30.7201
498.61         30.8432
499.05        30.74478
499.49        30.72882
499.93        30.74867
500.37        30.96545
500.82         31.2832
501.26        31.46091
501.70         31.4662
502.14        31.43496
502.58        31.43742
503.02        31.52304
503.46        31.71004
503.90         31.9796
504.34        32.25293
504.78        32.40035
505.22        32.39183
505.66        32.26828
506.10        32.11156
506.54        32.05204
506.98        32.12365
507.42        32.28667
507.86        32.48332
508.30        32.61868
508.74        32.66523
509.18        32.65663
509.62        32.62904
510.06        32.63776
510.50        32.69997
510.94        32.79364
511.38        32.90158
511.82        33.00025
512.26        33.07918
512.70        33.14577
513.14        33.20284
513.58        33.25262
514.02        33.29673
514.46        33.33353
514.90        33.35923
515.34        33.37052
515.78        33.36769
516.22        33.35122
516.66        33.33446
517.10        33.33722
517.54        33.36262
517.98        33.40717
518.42        33.44682
518.86        33.44262
519.30        33.38903
519.74        33.29889
520.18        33.20784
520.62        33.17109
521.06        33.20074
521.50        33.28139
521.93        33.37852
522.37        33.42341
522.81        33.40395
523.25        33.33836
523.69        33.26128
524.13        33.22789
524.57        33.24682
525.01        33.29259
525.45        33.33544
525.89        33.32809
526.32        33.25713
526.76        33.15652
527.20         33.0337
527.64        32.90214
528.08        32.77355
528.52        32.63993
528.96        32.53881
529.40        32.52869
529.83        32.60981
530.27         32.7663
530.71        32.91597
531.15        32.92952
531.59        32.78287
532.03        32.51509
532.46        32.21523
532.90         32.0482
533.34        32.04541
533.78        32.14007
534.22        32.25656
534.66        32.31724
535.09        32.27144
535.53         32.0866
535.97         31.8328
536.41        31.70019
536.85        31.71898
537.28        31.79971
537.72        31.91199
538.16        32.03314
538.60        32.14192
539.04        32.24815
539.47        32.33175
539.91        32.38142
540.35        32.39204
540.79         32.3665
541.22        32.33664
541.66        32.36731
542.10         32.4665
542.54          32.618
542.97          32.778
543.41        32.88963
543.85        32.93697
544.29         32.9464
544.72        32.94697
545.16        33.00437
545.60        33.12746
546.04        33.29925
546.47        33.50612
546.91        33.71988
547.35        33.92357
547.79        34.12596
548.22        34.31525
548.66        34.46555
549.10        34.61596
549.53        34.75459
549.97        34.89715
550.41        34.99323
550.84        35.08472
551.28        35.26267
551.72        35.48567
552.15        35.71426
552.59        35.98117
553.03        35.77101
553.46        36.16896
553.90        36.25301
554.34        36.34194
554.77        36.42977
555.21        36.53988
555.65          36.679
556.08        36.83199
556.52        36.97934
556.96        37.09314
557.39        37.22869
557.83        37.35582
558.27        37.27562
558.70        37.06071
559.14        37.05069
559.57        37.23994
560.01        37.41429
560.45        37.54644
560.88         37.6945
561.32        37.85816
561.75        38.03568
562.19        38.19738
562.63        38.16293
563.06        37.98925
563.50        37.98558
563.93        38.12432
564.37        38.21622
564.80        38.27511
565.24        38.35085
565.68        38.35655
566.11        38.90883
566.55        38.60677
566.98        38.65789
567.42         38.7187
567.85         38.8385
568.29        39.03122
568.72        39.32822
569.16        39.74241
569.60        39.95639
570.03          40.076
570.47        40.41114
570.90        40.67156
571.34         40.3976
571.77        40.79934
572.21        41.05261
572.64        41.10416
573.08         41.2641
573.51         41.1095
573.95        41.22662
574.38        41.54658
574.82        41.83898
