SpectraSmart Spectrum 2.9.0.0
--------- Device Information -----------
Spectrum Name :  反射率_0
Saving Time :  2024/04/26 23:38:49
Spectro-Module Model Name : SE2030-DUVN
Spectro-Module Serial Number : OS361AC55029948
Wavelength Start : 200
Wavelength End : 1025
Wavelength Unit : Wavelength(nm)
Spectrum Unit : Reflectance(%)
-----------Spectrum Setting ------------
Integration Time : 20ms
Average : 10
Boxcar : 0
Background removal :  enabled
linearity correction :  enabled
SC :  disabled
Intensity correction :  disabled
DWT denoise :  enabled
savitzky-golay :  disabled
FFT :  disabled
Running average :  disabled
Kalman :  disabled
High pass :  disabled
---------------BEGIN--------------------
Wavelength(nm)             Reflectance(%)
200.29               0
200.75        29.60371
201.21        32.51842
201.67        34.14673
202.13        33.75753
202.58        31.25719
203.04        26.85564
203.50         20.8895
203.96        15.56638
204.42        12.95215
204.88        13.13211
205.34        15.73239
205.80        18.87869
206.26        21.32282
206.72        23.31123
207.18        24.37825
207.64        24.17122
208.10        22.73596
208.55        19.69689
209.01        14.95317
209.47        11.98752
209.93        12.92744
210.39        15.80027
210.85        18.39109
211.31         19.6737
211.77        19.92495
212.23        19.60978
212.69        18.45539
213.14        18.83353
213.60        20.84407
214.06        21.76762
214.52        22.60821
214.98        24.63869
215.44         27.6089
215.90        31.28792
216.36        34.33865
216.81        34.13353
217.27         30.1156
217.73        22.37427
218.19        11.84343
218.65        6.794605
219.11        11.61929
219.57        20.24437
220.02        28.66194
220.48        37.28272
220.94        48.03197
221.40         63.6525
221.86        84.57039
222.32        99.17899
222.77         96.1059
223.23        82.93616
223.69         68.5218
224.15        58.06113
224.61        51.33688
225.06        46.45182
225.52        43.79665
225.98        43.63811
226.44        45.54697
226.90        49.35321
227.36        53.49431
227.81        55.14112
228.27          53.971
228.73        50.90887
229.19        48.07723
229.65        48.01428
230.10        50.79134
230.56        55.47777
231.02        60.14471
231.48        61.72652
231.93        59.73282
232.39        55.82405
232.85        51.81564
233.31        50.01826
233.77        50.68946
234.22        52.96174
234.68        55.78214
235.14        57.63294
235.60        58.00163
236.05        57.41051
236.51         56.0907
236.97        54.62509
237.43        53.38676
237.88        52.19635
238.34        51.22066
238.80        50.99108
239.26        51.66572
239.71        53.72017
240.17        56.61451
240.63        58.92261
241.08        59.76851
241.54        58.66806
242.00        56.96185
242.46        57.72982
242.91        62.95976
243.37        73.17093
243.83        88.52441
244.28        100.9231
244.74        99.16128
245.20        84.91836
245.66        66.84818
246.11        51.33816
246.57        39.16236
247.03        27.88919
247.48        20.44579
247.94        22.19807
248.40        30.66369
248.85        40.83171
249.31           48.68
249.77        51.40351
250.22        49.22835
250.68        42.56306
251.14        32.33582
251.59        24.27602
252.05        23.07498
252.51        27.14506
252.96        32.46225
253.42        35.06089
253.88        34.96957
254.33        33.63878
254.79        33.47054
255.25        36.42205
255.70        42.24966
256.16        49.92356
256.62        56.56108
257.07        57.78879
257.53         54.6528
257.99        49.94112
258.44        45.96624
258.90        44.79018
259.35        45.55915
259.81        47.48622
260.27         49.3145
260.72        49.56136
261.18        48.40118
261.63        46.37971
262.09        44.57958
262.55        43.71461
263.00         43.6775
263.46        44.19603
263.91        44.57619
264.37        44.18659
264.83        43.00528
265.28        41.35889
265.74         39.9065
266.19        39.21281
266.65        39.37726
267.11        40.05803
267.56        40.86649
268.02        41.18465
268.47        40.84497
268.93         40.1004
269.38        39.11097
269.84        38.17032
270.30        37.37843
270.75        36.62168
271.21        36.01375
271.66        35.68768
272.12        35.63149
272.57         35.7892
273.03        35.90931
273.48        35.56347
273.94        34.72879
274.39         33.5293
274.85        32.29878
275.31        31.37593
275.76        30.81613
276.22         30.5397
276.67         30.3753
277.13        30.15643
277.58         29.7922
278.04        29.36801
278.49        28.90694
278.95        28.54434
279.40        28.24801
279.86        28.02122
280.31        27.73708
280.77        27.32287
281.22        26.74386
281.68        26.10155
282.13          25.475
282.59        25.04124
283.04        24.79358
283.50        24.69198
283.95        24.63424
284.41         24.4728
284.86        24.17244
285.32         23.8055
285.77        23.43497
286.22        23.19835
286.68        23.11389
287.13         23.1014
287.59        23.10403
288.04        22.99944
288.50        22.78377
288.95        22.48224
289.41        22.15743
289.86         21.8407
290.32        21.58095
290.77        21.35868
291.22        21.19236
291.68        21.10041
292.13        21.07015
292.59        21.09933
293.04        21.18155
293.50        21.32241
293.95        21.50353
294.40        21.72615
294.86         21.9381
295.31        22.05365
295.77        22.07548
296.22        22.03206
296.68        22.02234
297.13        22.18877
297.58        22.56133
298.04        23.08859
298.49        23.67952
298.95        24.20209
299.40        24.60306
299.85        24.91619
300.31        25.16644
300.76        25.39102
301.21        25.60737
301.67        25.81165
302.12        25.99003
302.58        26.17356
303.03        26.34776
303.48        26.52869
303.94        26.72095
304.39        26.90191
304.84        27.07373
305.30        27.24614
305.75        27.39534
306.20         27.5328
306.66        27.66111
307.11        27.76053
307.57        27.83411
308.02        27.85235
308.47        27.82161
308.93        27.76084
309.38        27.67287
309.83        27.59874
310.29        27.54937
310.74        27.51263
311.19        27.47899
311.65        27.42704
312.10        27.34711
312.55        27.24433
313.00          27.134
313.46        27.03735
313.91         26.9463
314.36        26.85793
314.82        26.74818
315.27        26.58941
315.72        26.37729
316.18        26.13271
316.63        25.87733
317.08        25.65516
317.53        25.47603
317.99        25.32358
318.44        25.18783
318.89        25.04146
319.35         24.8764
319.80        24.70121
320.25        24.51751
320.70        24.32785
321.16        24.13315
321.61        23.93883
322.06        23.74757
322.51         23.5683
322.97        23.39928
323.42         23.2395
323.87        23.09129
324.32        22.96221
324.78        22.84111
325.23        22.73627
325.68        22.60748
326.13        22.39757
326.59        22.10201
327.04        21.75302
327.49        21.40857
327.94         21.1597
328.39        21.02346
328.85        20.96421
329.30         20.9539
329.75        20.90018
330.20        20.77545
330.66        20.60417
331.11        20.41862
331.56        20.25419
332.01        20.12424
332.46        20.00908
332.92        19.90103
333.37        19.82531
333.82        19.77026
334.27        19.73783
334.72        19.70449
335.17        19.62658
335.63        19.49516
336.08        19.33453
336.53        19.17332
336.98        19.06818
337.43        19.03316
337.88        19.04459
338.34        19.08311
338.79        19.13374
339.24          19.174
339.69        19.21061
340.14        19.21003
340.59        19.12084
341.05        18.94813
341.50        18.70732
341.95        18.46681
342.40         18.3318
342.85        18.32604
343.30        18.42078
343.75        18.55594
344.20        18.63163
344.66        18.62037
345.11        18.54558
345.56        18.44854
346.01        18.39584
346.46        18.40706
346.91        18.46268
347.36        18.52438
347.81        18.53774
348.26        18.49151
348.72        18.40287
349.17         18.3174
349.62        18.31564
350.07        18.40919
350.52         18.5719
350.97         18.7251
351.42        18.74345
351.87         18.6059
352.32        18.35948
352.77        18.09704
353.22        17.95543
353.67        17.96282
354.13        18.07532
354.58        18.22294
355.03        18.29347
355.48         18.2539
355.93         18.1463
356.38        18.00941
356.83         17.8998
357.28        17.83359
357.73        17.78278
358.18        17.74579
358.63          17.725
359.08        17.71351
359.53        17.71498
359.98        17.69545
360.43        17.59939
360.88        17.41993
361.33        17.17154
361.78        16.90917
362.23        16.72432
362.68        16.64006
363.13        16.63468
363.58        16.64894
364.03        16.58716
364.48        16.42825
364.93        16.20122
365.38        15.97074
365.83        15.84141
366.28        15.83742
366.73        15.92353
367.18        16.02852
367.63        16.04385
368.08        15.94238
368.53        15.75455
368.98        15.54346
369.43        15.40911
369.88        15.37474
370.33        15.40858
370.78        15.44649
371.23        15.38486
371.68        15.19982
372.13        14.92904
372.58        14.64324
373.03        14.45029
373.48        14.37906
373.93        14.39819
374.38         14.4498
374.83        14.44234
375.28        14.35021
375.72        14.19553
376.17        14.03648
376.62        13.94072
377.07        13.92241
377.52        13.95821
377.97        13.99729
378.42        13.96156
378.87        13.83844
379.32        13.65865
379.77        13.48485
380.22        13.40644
380.67        13.43839
381.11        13.55296
381.56        13.68427
382.01        13.73204
382.46        13.66858
382.91          13.532
383.36        13.37045
383.81        13.24956
384.26        13.18507
384.71        13.15378
385.15        13.14039
385.60        13.12706
386.05        13.10338
386.50        13.07889
386.95        13.05088
387.40        13.01186
387.85         12.9641
388.29        12.90357
388.74        12.85124
389.19        12.80948
389.64        12.77743
390.09        12.74606
390.54        12.71876
390.98        12.69732
391.43        12.68697
391.88          12.687
392.33         12.6721
392.78        12.60575
393.23        12.48858
393.67        12.32893
394.12        12.18455
394.57        12.11452
395.02        12.12834
395.47        12.20427
395.91        12.29527
396.36        12.31246
396.81        12.24203
397.26        12.11324
397.71        11.97242
398.15        11.89445
398.60        11.90667
399.05        11.93211
399.50        11.94734
399.95        12.00905
400.39        12.06841
400.84        11.92702
401.29          11.641
401.74        11.48598
402.18        11.49357
402.63        11.52039
403.08        11.54183
403.53        11.57237
403.97        11.59788
404.42        11.61681
404.87        11.61593
405.32        11.57127
405.76        11.48136
406.21        11.35987
406.66        11.23858
407.11        11.17002
407.55        11.16901
408.00        11.21742
408.45         11.2864
408.90        11.31628
409.34        11.28749
409.79        11.21774
410.24        11.13544
410.68        11.07744
411.13        11.05513
411.58        11.05486
412.03         11.0541
412.47         11.0177
412.92        10.93783
413.37        10.83717
413.81        10.74277
414.26        10.69881
414.71        10.70831
415.15        10.75634
415.60        10.82194
416.05        10.87472
416.49         10.9015
416.94        10.91106
417.39        10.89837
417.83        10.85644
418.28        10.78719
418.73        10.68821
419.17        10.59163
419.62         10.5508
420.07         10.5745
420.51         10.6465
420.96         10.7189
421.41        10.71373
421.85        10.61531
422.30        10.44986
422.74        10.26784
423.19        10.18998
423.64        10.21572
424.08        10.25828
424.53        10.28193
424.98        10.30899
425.42        10.33117
425.87        10.29667
426.31        10.22778
426.76         10.2346
427.21        10.29553
427.65        10.25414
428.10         10.1368
428.54        10.09318
428.99        10.13336
429.44         10.2116
429.88        10.28469
430.33        10.24571
430.77        10.12141
431.22        10.10782
431.66        10.19787
432.11        10.20174
432.56        10.11981
433.00        10.09223
433.45        10.08451
433.89        9.967259
434.34        9.820815
434.78        9.592982
435.23        9.818792
435.67        9.854202
436.12        9.830273
436.57        9.775919
437.01        9.708164
437.46        9.660662
437.90        9.636299
438.35        9.600736
438.79        9.552721
439.24         9.52161
439.68        9.509459
440.13         9.50661
440.57        9.516698
441.02         9.55433
441.46        9.614615
441.91        9.663053
442.35        9.683808
442.80        9.752914
443.24        9.826183
443.69        9.743908
444.13        9.551137
444.58        9.473647
445.02        9.527604
445.47        9.605261
445.91        9.669282
446.36        9.707725
446.80        9.705791
447.24        9.669258
447.69        9.623967
448.13        9.604716
448.58        9.622032
449.02        9.662174
449.47         9.70432
449.91        9.712878
450.36        9.682506
450.80        9.624234
451.25        9.561838
451.69        9.526134
452.13        9.524541
452.58        9.544868
453.02        9.567143
453.47        9.561711
453.91        9.521504
454.36        9.459136
454.80        9.387935
455.24        9.326448
455.69        9.285552
456.13        9.254163
456.58        9.239784
457.02        9.237537
457.46        9.250094
457.91        9.277493
458.35        9.305882
458.79        9.313042
459.24        9.302668
459.68        9.271389
460.13        9.246203
460.57        9.243622
461.01        9.274745
461.46         9.32322
461.90        9.376819
462.34        9.405057
462.79        9.395942
463.23        9.362791
463.68        9.309227
464.12        9.248766
464.56         9.18861
465.01        9.139548
465.45        9.094414
465.89         9.06858
466.34        9.062124
466.78        9.069158
467.22        9.089321
467.67         9.11186
468.11        9.137128
468.55        9.162338
468.99        9.182279
469.44        9.188852
469.88        9.181068
470.32        9.159671
470.77        9.135956
471.21        9.131176
471.65        9.148276
472.10        9.183949
472.54        9.220567
472.98        9.234301
473.42        9.220925
473.87        9.192174
474.31         9.15919
474.75        9.148298
475.20        9.166647
475.64          9.2018
476.08        9.246754
476.52        9.276173
476.97        9.283215
477.41        9.297322
477.85        9.329973
478.29        9.289115
478.74        9.337523
479.18        9.374329
479.62        9.433729
480.06          9.4799
480.50        9.510203
480.95        9.525092
481.39        9.523252
481.83        9.597332
482.27        9.609553
482.72        9.677794
483.16        9.750284
483.60        9.787111
484.04        9.770867
484.48        9.785197
484.93        9.898526
485.37        9.845021
485.81        9.915029
486.25        10.30394
486.69          10.252
487.14        10.13955
487.58        10.59573
488.02         10.6105
488.46        10.28625
488.90        10.44406
489.34        10.42184
489.79        10.56872
490.23        10.62952
490.67        10.76509
491.11        10.91931
491.55        10.88756
491.99         10.7284
492.43        10.70002
492.88        10.83016
493.32        10.97707
493.76        11.10871
494.20        11.24265
494.64        11.36984
495.08        11.46237
495.52        11.52901
495.96        11.66014
496.41        11.83393
496.85         11.8657
497.29        11.78058
497.73        11.89583
498.17        12.03986
498.61        12.13783
499.05        12.13224
499.49        12.15695
499.93        12.19417
500.37        12.30288
500.82        12.45714
501.26         12.5799
501.70        12.65944
502.14        12.74337
502.58        12.83964
503.02        12.93487
503.46        13.02954
503.90          13.127
504.34        13.21474
504.78        13.27264
505.22         13.2983
505.66        13.29823
506.10        13.29415
506.54        13.32096
506.98        13.38594
507.42        13.47839
507.86         13.5775
508.30        13.64805
508.74        13.68045
509.18        13.68649
509.62        13.67964
510.06        13.68208
510.50        13.70154
510.94        13.73011
511.38        13.76609
511.82        13.80708
512.26        13.85026
512.70        13.89792
513.14         13.9431
513.58        13.97297
514.02        13.98621
514.46         13.9866
514.90        13.98453
515.34        13.99817
515.78        14.03095
516.22        14.07511
516.66        14.12348
517.10        14.16407
517.54        14.19234
517.98        14.21346
518.42        14.22231
518.86        14.21136
519.30         14.1814
519.74        14.13277
520.18        14.08463
520.62        14.06689
521.06        14.08499
521.50        14.13367
521.93        14.18472
522.37         14.1848
522.81        14.12646
523.25        14.02468
523.69           13.92
524.13        13.87559
524.57        13.90158
525.01        13.97427
525.45        14.05042
525.89        14.06056
526.32        13.98738
526.76        13.86098
527.20        13.71328
527.64        13.59425
528.08        13.52045
528.52        13.47555
528.96        13.45424
529.40        13.44869
529.83        13.45145
530.27        13.46593
530.71        13.47707
531.15        13.45996
531.59        13.41075
532.03        13.33529
532.46        13.24974
532.90        13.19136
533.34        13.16721
533.78        13.16143
534.22        13.16276
534.66        13.16922
535.09        13.16601
535.53        13.12757
535.97        13.06794
536.41        13.04293
536.85        13.05852
537.28        13.08644
537.72        13.11744
538.16        13.14695
538.60        13.17038
539.04        13.18973
539.47        13.20647
539.91        13.23087
540.35        13.26304
540.79        13.30199
541.22         13.3449
541.66         13.3925
542.10        13.44291
542.54        13.49709
542.97        13.55701
543.41        13.63042
543.85        13.71663
544.29        13.81493
544.72        13.91574
545.16        14.01521
545.60        14.10944
546.04        14.20098
546.47        14.30022
546.91        14.42101
547.35        14.56153
547.79        14.71455
548.22        14.86207
548.66        14.97421
549.10        15.06475
549.53        15.13796
549.97        15.20815
550.41        15.26298
550.84        15.32514
551.28        15.43119
551.72        15.56722
552.15        15.72278
552.59        15.91101
553.03        15.90022
553.46         16.1589
553.90        16.25685
554.34        16.33231
554.77        16.38796
555.21        16.44693
555.65        16.53301
556.08        16.64354
556.52        16.76167
556.96        16.86438
557.39        16.96263
557.83        17.03821
558.27        17.00427
558.70        16.89911
559.14        16.88511
559.57        16.96513
560.01        17.04284
560.45        17.10249
560.88        17.17323
561.32        17.25801
561.75        17.33263
562.19        17.39824
562.63         17.4528
563.06        17.49384
563.50        17.52274
563.93        17.53975
564.37        17.59107
564.80        17.68808
565.24        17.77835
565.68        17.80814
566.11        18.08122
566.55        17.94534
566.98        17.95113
567.42        17.96563
567.85        18.06259
568.29        18.25488
568.72         18.5262
569.16        18.84623
569.60        19.04903
570.03        19.18522
570.47        19.29168
570.90        19.42122
571.34        19.35686
571.77         19.5806
572.21        19.70342
572.64        19.84604
573.08        19.98007
573.51         20.1182
573.95        20.26036
574.38        20.42457
574.82        20.47277
