SpectraSmart Spectrum 2.9.0.0
--------- Device Information -----------
Spectrum Name :  反射率_0
Saving Time :  2024/04/26 23:37:06
Spectro-Module Model Name : SE2030-DUVN
Spectro-Module Serial Number : OS361AC55029948
Wavelength Start : 200
Wavelength End : 1025
Wavelength Unit : Wavelength(nm)
Spectrum Unit : Reflectance(%)
-----------Spectrum Setting ------------
Integration Time : 20ms
Average : 10
Boxcar : 0
Background removal :  enabled
linearity correction :  enabled
SC :  disabled
Intensity correction :  disabled
DWT denoise :  enabled
savitzky-golay :  disabled
FFT :  disabled
Running average :  disabled
Kalman :  disabled
High pass :  disabled
---------------BEGIN--------------------
Wavelength(nm)             Reflectance(%)
200.29               0
200.75        31.79489
201.21        33.30421
201.67         35.3283
202.13        36.97613
202.58        38.14917
203.04         39.7089
203.50        41.83976
203.96         44.1542
204.42        46.19047
204.88        47.38523
205.34        47.87221
205.80        48.59724
206.26        49.55754
206.72        50.18466
207.18        50.07632
207.64        48.70629
208.10        45.85693
208.55        41.46645
209.01        34.91543
209.47        29.44661
209.93        28.52621
210.39        30.84061
210.85        33.81721
211.31        36.41432
211.77        39.30461
212.23        44.08675
212.69        56.57301
213.14        87.13995
213.60           101.8
214.06        92.83067
214.52        80.70332
214.98        70.18132
215.44         59.5741
215.90        47.11398
216.36        35.55301
216.81        29.90701
217.27        32.38058
217.73        43.95694
218.19        63.50994
218.65        75.76366
219.11        72.13811
219.57        61.49574
220.02        54.22953
220.48        56.79233
220.94        69.37091
221.40        93.15527
221.86        128.0959
222.32        153.3861
222.77        148.9032
223.23         127.967
223.69        105.6544
224.15        90.72192
224.61        82.40429
225.06        76.94322
225.52        74.09692
225.98        73.39813
226.44        74.30455
226.90         76.9577
227.36        80.00176
227.81        80.91428
228.27        79.50107
228.73        76.46197
229.19        73.73814
229.65        73.68893
230.10        76.30061
230.56        80.71578
231.02        85.00752
231.48        86.13817
231.93        83.68513
232.39        79.45561
232.85        75.19946
233.31        73.17332
233.77        73.62679
234.22        75.62675
234.68        78.38776
235.14         80.8252
235.60        82.46529
236.05        83.78036
236.51        84.27347
236.97        83.13327
237.43        80.26563
237.88        75.86732
238.34        71.12159
238.80        68.29385
239.26        68.15083
239.71        71.09139
240.17        76.26133
240.63        81.02214
241.08        83.54157
241.54        83.20174
242.00        81.78725
242.46        83.49553
242.91        91.24895
243.37        106.0157
243.83        126.9766
244.28        140.5209
244.74        130.2864
245.20        100.1871
245.66        69.81327
246.11        53.71223
246.57         51.0326
247.03        56.72134
247.48        64.85164
247.94        65.36153
248.40        58.56015
248.85        50.26392
249.31        43.95265
249.77        41.21917
250.22        41.54958
250.68        43.89403
251.14        48.40948
251.59        54.25398
252.05        59.58663
252.51        64.17913
252.96         65.8922
253.42        63.58015
253.88        58.47419
254.33        51.76053
254.79        46.97756
255.25         46.9021
255.70        51.08962
256.16        58.24179
256.62         65.1206
257.07        66.72356
257.53        63.89899
257.99        59.45993
258.44        55.69876
258.90        54.80322
259.35        55.83989
259.81        58.00207
260.27         59.9663
260.72        60.17334
261.18        58.88371
261.63        56.70496
262.09        54.78551
262.55        53.82427
263.00        53.71293
263.46        54.18536
263.91         54.6184
264.37        54.54396
264.83        53.87354
265.28        52.82403
265.74        51.88071
266.19        51.32327
266.65        51.26312
267.11        51.46441
267.56         51.7158
268.02        51.69931
268.47        51.32362
268.93        50.74125
269.38        50.01722
269.84        49.31059
270.30        48.66023
270.75        47.99571
271.21        47.40124
271.66        46.94695
272.12        46.62838
272.57        46.39174
273.03        46.09235
273.48        45.47237
273.94        44.56099
274.39        43.43876
274.85        42.33447
275.31        41.40458
275.76        40.67422
276.22        40.13044
276.67        39.71478
277.13        39.45508
277.58        39.25735
278.04         39.1279
278.49        38.92532
278.95        38.57503
279.40        38.00831
279.86        37.34745
280.31        36.58093
280.77        35.82553
281.22        35.07789
281.68        34.38798
282.13        33.78044
282.59        33.39056
283.04        33.17101
283.50        33.09398
283.95        33.02731
284.41        32.78267
284.86         32.3177
285.32        31.73069
285.77        31.09443
286.22        30.57771
286.68        30.21414
287.13        29.91365
287.59        29.66359
288.04        29.39598
288.50        29.11612
288.95        28.82648
289.41        28.52176
289.86         28.1179
290.32        27.65182
290.77        27.13111
291.22        26.65826
291.68        26.37334
292.13        26.28546
292.59        26.36227
293.04        26.51276
293.50        26.61417
293.95        26.62114
294.40        26.57343
294.86         26.5209
295.31        26.53506
295.77        26.64218
296.22        26.80669
296.68        27.00464
297.13        27.18625
297.58        27.34677
298.04        27.51183
298.49        27.69864
298.95        27.94523
299.40         28.2521
299.85        28.60312
300.31        28.98141
300.76        29.35716
301.21        29.71414
301.67         30.0591
302.12        30.36662
302.58        30.65303
303.03        30.89688
303.48        31.11785
303.94        31.31367
304.39        31.45263
304.84        31.55058
305.30        31.62967
305.75        31.71681
306.20        31.90123
306.66        32.19738
307.11        32.56029
307.57        32.92659
308.02        33.15655
308.47        33.23402
308.93        33.20565
309.38        33.13544
309.83        33.16821
310.29        33.33343
310.74        33.58143
311.19        33.83007
311.65        33.94151
312.10        33.87799
312.55        33.68484
313.00        33.45342
313.46        33.31774
313.91        33.29669
314.36        33.35887
314.82        33.42169
315.27        33.36205
315.72        33.15164
316.18        32.84651
316.63        32.52552
317.08        32.32256
317.53        32.26455
317.99        32.29764
318.44        32.35669
318.89        32.32639
319.35        32.17162
319.80        31.92892
320.25          31.636
320.70        31.35171
321.16        31.09991
321.61        30.87934
322.06        30.68052
322.51        30.49253
322.97        30.30952
323.42        30.13986
323.87        30.01131
324.32        29.97048
324.78        30.00494
325.23         30.1084
325.68        30.18188
326.13         30.0712
326.59        29.74637
327.04        29.27037
327.49        28.75966
327.94        28.40152
328.39         28.2408
328.85        28.21254
329.30        28.26981
329.75        28.26672
330.20          28.154
330.66        27.97302
331.11        27.76275
331.56        27.56008
332.01        27.38323
332.46        27.20811
332.92         27.0333
333.37        26.91025
333.82        26.83274
334.27        26.80392
334.72        26.79617
335.17        26.75438
335.63        26.66465
336.08        26.55659
336.53         26.4612
336.98        26.44233
337.43        26.51228
337.88         26.6385
338.34        26.78692
338.79        26.92948
339.24        27.03283
339.69        27.10617
340.14        27.11844
340.59        27.02384
341.05         26.8358
341.50        26.57336
341.95        26.31285
342.40        26.17078
342.85        26.17312
343.30        26.28494
343.75        26.44992
344.20        26.57187
344.66        26.61963
345.11        26.61702
345.56        26.57481
346.01        26.51299
346.46        26.44806
346.91        26.37563
347.36        26.31157
347.81         26.2875
348.26        26.30514
348.72        26.35109
349.17        26.41215
349.62        26.47544
350.07         26.5322
350.52        26.59498
350.97        26.62038
351.42        26.54118
351.87        26.35892
352.32        26.09614
352.77        25.85813
353.22         25.8027
353.67        25.94881
354.13        26.24454
354.58        26.55852
355.03         26.6696
355.48        26.52458
355.93        26.20126
356.38        25.81803
356.83        25.55422
357.28        25.45475
357.73        25.45451
358.18        25.50341
358.63        25.52168
359.08        25.47598
359.53        25.39876
359.98        25.27598
360.43        25.07889
360.88        24.81119
361.33        24.47655
361.78        24.13194
362.23        23.87602
362.68        23.73494
363.13        23.69161
363.58         23.6832
364.03        23.60429
364.48        23.43072
364.93        23.19023
365.38        22.95247
365.83        22.83272
366.28        22.85206
366.73        22.96534
367.18        23.08646
367.63        23.08386
368.08        22.92936
368.53        22.67011
368.98        22.37686
369.43        22.16165
369.88        22.05588
370.33        22.02014
370.78        22.01962
371.23         21.9981
371.68        21.93184
372.13         21.8417
372.58        21.72408
373.03        21.56854
373.48        21.38169
373.93        21.16822
374.38        20.95623
374.83        20.79598
375.28        20.69805
375.72        20.63948
376.17        20.61527
376.62        20.58869
377.07         20.5482
377.52        20.50655
377.97        20.44797
378.42        20.35102
378.87        20.21662
379.32        20.04481
379.77        19.88485
380.22        19.80924
380.67        19.82725
381.11        19.93128
381.56        20.03149
382.01        19.99356
382.46        19.79583
382.91        19.48914
383.36        19.19156
383.81        19.06846
384.26        19.14174
384.71        19.35383
385.15        19.59399
385.60        19.67954
386.05        19.56286
386.50        19.30965
386.95        19.00904
387.40        18.79907
387.85        18.71597
388.29        18.69557
388.74           18.72
389.19        18.72392
389.64        18.68661
390.09        18.62801
390.54        18.54257
390.98         18.4139
391.43        18.26131
391.88        18.09123
392.33        17.92953
392.78        17.81423
393.23        17.75112
393.67        17.71913
394.12        17.72177
394.57        17.72754
395.02        17.72493
395.47        17.71311
395.91        17.69091
396.36         17.6466
396.81        17.59214
397.26        17.53608
397.71        17.47629
398.15        17.42185
398.60        17.39637
399.05        17.32275
399.50        17.23925
399.95        17.32817
400.39         17.5358
400.84        17.54219
401.29        17.34085
401.74         17.1976
402.18        17.12641
402.63        16.95831
403.08        16.74954
403.53         16.6636
403.97        16.71661
404.42        16.86454
404.87        17.02604
405.32        17.06698
405.76        16.95615
406.21        16.74547
406.66        16.51794
407.11         16.4039
407.55        16.43881
408.00        16.57501
408.45        16.74595
408.90        16.82428
409.34        16.77129
409.79         16.6351
410.24        16.47755
410.68        16.37949
411.13        16.36505
411.58        16.40209
412.03        16.45928
412.47        16.48679
412.92         16.4617
413.37        16.41042
413.81        16.34493
414.26         16.2931
414.71        16.25619
415.15        16.22654
415.60        16.19978
416.05        16.18676
416.49        16.18863
416.94        16.20274
417.39        16.21461
417.83        16.19762
418.28        16.14746
418.73        16.07185
419.17        15.99492
419.62        15.95666
420.07        15.96659
420.51        16.00753
420.96        16.06102
421.41        16.09431
421.85        16.09254
422.30        16.06132
422.74        16.00492
423.19        16.00334
423.64        16.03526
424.08        15.99319
424.53        15.88722
424.98        15.86122
425.42         15.9337
425.87        15.99458
426.31        16.01646
426.76        16.07192
427.21        16.10542
427.65        15.90744
428.10        15.58377
428.54        15.46197
428.99        15.57397
429.44        15.80911
429.88        16.05595
430.33        16.07946
430.77        15.90981
431.22        15.88857
431.66        16.01283
432.11        16.02907
432.56        15.95357
433.00        15.90081
433.45        15.85341
433.89        15.90467
434.34        16.06499
434.78        15.73059
435.23        15.82859
435.67        15.77579
436.12        15.80808
436.57        15.70582
437.01        15.51021
437.46         15.4278
437.90        15.47063
438.35        15.53721
438.79        15.59347
439.24        15.64222
439.68        15.67261
440.13        15.68557
440.57        15.69004
441.02        15.71531
441.46        15.76205
441.91        15.77581
442.35        15.74912
442.80        15.83015
443.24        15.95025
443.69        15.84842
444.13         15.5774
444.58        15.46624
445.02        15.53515
445.47        15.61657
445.91        15.67901
446.36        15.74929
446.80        15.81041
447.24        15.85561
447.69        15.88812
448.13         15.9061
448.58        15.91427
449.02        15.90892
449.47        15.89539
449.91        15.87593
450.36        15.85699
450.80        15.83631
451.25        15.82003
451.69        15.80628
452.13         15.7957
452.58        15.78532
453.02        15.77082
453.47        15.74697
453.91        15.71391
454.36        15.67994
454.80        15.63997
455.24        15.58451
455.69        15.52131
456.13        15.44332
456.58        15.39092
457.02        15.39953
457.46        15.47739
457.91        15.60792
458.35        15.73141
458.79        15.75704
459.24        15.68315
459.68         15.5323
460.13        15.38194
460.57        15.30807
461.01        15.34035
461.46        15.43777
461.90        15.57216
462.34        15.68189
462.79        15.73839
463.23          15.767
463.68        15.75573
464.12         15.6959
464.56        15.59402
465.01        15.47438
465.45        15.35357
465.89        15.29806
466.34        15.31466
466.78        15.38374
467.22        15.47977
467.67        15.53968
468.11        15.55282
468.55        15.52916
468.99        15.49003
469.44        15.46892
469.88        15.47717
470.32        15.50185
470.77        15.53344
471.21         15.5614
471.65        15.57903
472.10        15.59297
472.54        15.60208
472.98        15.60905
473.42        15.61504
473.87        15.62423
474.31        15.62522
474.75        15.61678
475.20        15.60383
475.64        15.58228
476.08        15.56777
476.52        15.57524
476.97        15.60698
477.41        15.66583
477.85        15.73944
478.29        15.78346
478.74        15.80388
479.18        15.84895
479.62        15.91553
480.06         15.9725
480.50        16.02168
480.95        16.06021
481.39        16.07684
481.83        16.20975
482.27         16.2213
482.72        16.31061
483.16        16.40604
483.60        16.46411
484.04         16.4634
484.48        16.52814
484.93        16.71741
485.37        16.59683
485.81        16.68987
486.25         17.0881
486.69        16.93376
487.14        16.97232
487.58        17.39838
488.02        17.49586
488.46        17.17525
488.90        17.33177
489.34        17.41863
489.79        17.63926
490.23        17.75349
490.67        17.78387
491.11        17.75889
491.55        17.80557
491.99        17.93626
492.43         18.0319
492.88        18.09083
493.32         18.1867
493.76        18.31868
494.20        18.45327
494.64         18.5919
495.08        18.72859
495.52         18.8447
495.96        18.98561
496.41        19.13042
496.85        19.10458
497.29        18.96912
497.73        19.17123
498.17        19.43464
498.61        19.67915
499.05        19.77918
499.49        19.87212
499.93        19.91367
500.37        20.02511
500.82        20.18228
501.26        20.29248
501.70        20.35108
502.14        20.42399
502.58        20.53152
503.02        20.66553
503.46        20.82409
503.90        21.00888
504.34        21.17456
504.78        21.24502
505.22        21.20774
505.66        21.08811
506.10        20.94724
506.54        20.88314
506.98        20.92208
507.42        21.03808
507.86        21.19067
508.30        21.31014
508.74         21.3748
509.18        21.40668
509.62        21.42617
510.06        21.46617
510.50        21.53472
510.94        21.61316
511.38        21.69254
511.82        21.76203
512.26        21.81751
512.70        21.86905
513.14        21.90942
513.58        21.92449
514.02        21.91681
514.46        21.89044
514.90        21.87523
515.34        21.91996
515.78        22.02959
516.22        22.18413
516.66        22.34043
517.10        22.42916
517.54        22.43266
517.98        22.37328
518.42        22.27837
518.86         22.1936
519.30        22.13636
519.74        22.09342
520.18        22.06601
520.62        22.05503
521.06        22.05757
521.50        22.07836
521.93        22.10205
522.37        22.09243
522.81        22.04613
523.25        21.96936
523.69        21.88786
524.13        21.84358
524.57        21.84345
525.01        21.87318
525.45        21.90364
525.89        21.88808
526.32        21.81385
526.76         21.7027
527.20        21.58023
527.64        21.48748
528.08        21.43586
528.52        21.41282
528.96        21.40293
529.40        21.38244
529.83        21.34353
530.27        21.29536
530.71          21.245
531.15        21.20485
531.59          21.179
532.03        21.16265
532.46        21.14472
532.90        21.12402
533.34         21.0962
533.78        21.05183
534.22        21.00192
534.66        20.98915
535.09        21.00017
535.53        20.97873
535.97        20.92286
536.41         20.8847
536.85        20.86764
537.28        20.84365
537.72        20.82198
538.16        20.83239
538.60        20.87719
539.04        20.94513
539.47        21.02378
539.91        21.10781
540.35        21.18832
540.79        21.26917
541.22        21.34286
541.66        21.40799
542.10        21.46905
542.54        21.51292
542.97        21.54709
543.41        21.64711
543.85        21.82532
544.29        21.85893
544.72        22.09982
545.16        22.23896
545.60        22.37535
546.04        22.50618
546.47        22.64013
546.91        22.77975
547.35        22.92013
547.79        23.06248
548.22        23.19875
548.66        23.31316
549.10        23.43257
549.53        23.55252
549.97        23.68023
550.41        23.77186
550.84        23.85416
551.28        23.99142
551.72        24.16102
552.15        24.34621
552.59        24.56982
553.03        24.47306
553.46        24.79288
553.90        24.89056
554.34         24.9831
554.77        25.07265
555.21        25.17127
555.65        25.27713
556.08        25.38042
556.52        25.46581
556.96         25.5339
557.39         25.6557
557.83        25.81011
558.27        25.84461
558.70        25.77143
559.14        25.76692
559.57        25.82282
560.01        25.82145
560.45        25.77883
560.88        25.79844
561.32        25.90005
561.75        26.02588
562.19        26.16676
562.63        26.30224
563.06        26.41821
563.50        26.52392
563.93        26.59966
564.37        26.68394
564.80        26.78919
565.24        26.83923
565.68        26.78876
566.11        27.15182
566.55        26.95608
566.98        27.01137
567.42        27.07088
567.85         27.1696
568.29        27.31911
568.72        27.52875
569.16         27.7963
569.60        27.96344
570.03         28.1226
570.47        28.25376
570.90        28.40574
571.34        28.41635
571.77        28.62841
572.21        28.81806
572.64        29.03268
573.08        29.07766
573.51        29.00927
573.95        29.12623
574.38        29.46119
574.82        29.50818
