SpectraSmart Spectrum 2.9.0.0
--------- Device Information -----------
Spectrum Name :  反射率_0
Saving Time :  2024/04/26 23:36:52
Spectro-Module Model Name : SE2030-DUVN
Spectro-Module Serial Number : OS361AC55029948
Wavelength Start : 200
Wavelength End : 1025
Wavelength Unit : Wavelength(nm)
Spectrum Unit : Reflectance(%)
-----------Spectrum Setting ------------
Integration Time : 20ms
Average : 10
Boxcar : 0
Background removal :  enabled
linearity correction :  enabled
SC :  disabled
Intensity correction :  disabled
DWT denoise :  enabled
savitzky-golay :  disabled
FFT :  disabled
Running average :  disabled
Kalman :  disabled
High pass :  disabled
---------------BEGIN--------------------
Wavelength(nm)             Reflectance(%)
200.29               0
200.75        32.71054
201.21        32.60357
201.67        32.89091
202.13        33.24905
202.58        33.56316
203.04        34.27187
203.50        35.82203
203.96        38.69911
204.42        42.79753
204.88        47.54332
205.34        51.23148
205.80        51.61403
206.26        48.48245
206.72         43.0156
207.18        37.31119
207.64        32.50818
208.10        28.24421
208.55        23.98004
209.01         19.0425
209.47         15.2959
209.93        14.94583
210.39        16.98934
210.85        20.14051
211.31        24.67169
211.77        32.34626
212.23        48.23512
212.69        86.62579
213.14        150.9062
213.60        148.3488
214.06        102.4697
214.52          70.936
214.98        55.98182
215.44        48.42424
215.90        42.87103
216.36        38.78825
216.81        36.14138
217.27        35.15115
217.73        37.07112
218.19        40.73857
218.65        40.30563
219.11         35.1895
219.57        29.26862
220.02        26.86289
220.48        30.88979
220.94        41.81618
221.40        61.64533
221.86        90.30505
222.32        110.4597
222.77        105.9061
223.23        87.46168
223.69        68.69244
224.15        57.68427
224.61        53.17253
225.06        51.47166
225.52        51.20311
225.98        50.87634
226.44        50.17134
226.90         49.7322
227.36        49.40355
227.81        48.80003
228.27        48.02883
228.73        46.91445
229.19        46.06136
229.65         46.2568
230.10         47.4313
230.56        49.39759
231.02        51.09157
231.48        50.83995
231.93        48.55434
232.39        45.28687
232.85        42.38728
233.31        41.63576
233.77        43.13091
234.22        46.17327
234.68        49.71785
235.14        52.23463
235.60        53.19093
236.05        53.01246
236.51        51.90889
236.97        50.45118
237.43        49.04465
237.88         47.6342
238.34        46.38861
238.80        45.77195
239.26        45.98146
239.71        47.45895
240.17        50.27175
240.63        54.37383
241.08        59.58486
241.54         65.3232
242.00        71.49744
242.46        78.83325
242.91        88.72372
243.37        101.5503
243.83        117.3359
244.28        129.3433
244.74        127.1291
245.20        111.5635
245.66        92.58538
246.11        77.63377
246.57        67.09292
247.03        58.48926
247.48        52.15504
247.94        49.44922
248.40        49.97308
248.85        52.29755
249.31        54.11253
249.77        53.02788
250.22        48.68936
250.68        40.81731
251.14        31.15774
251.59         27.1063
252.05        32.65878
252.51        44.19963
252.96        54.90414
253.42        59.00456
253.88        57.22631
254.33        52.22541
254.79        48.15564
255.25        48.36741
255.70        52.55853
256.16        59.13861
256.62        64.88457
257.07        65.10072
257.53        61.01357
257.99          55.666
258.44        51.20439
258.90        49.54068
259.35        49.74762
259.81        51.02359
260.27        52.30534
260.72        52.39159
261.18        51.42387
261.63        49.78757
262.09        48.24742
262.55        47.15691
263.00        46.45378
263.46        46.04393
263.91        45.57947
264.37         44.8974
264.83        43.96573
265.28        42.88357
265.74        41.95214
266.19        41.26896
266.65        40.89512
267.11        40.67253
267.56        40.50142
268.02        40.23028
268.47        39.81464
268.93        39.34459
269.38        38.77799
269.84        38.10043
270.30        37.32408
270.75        36.44418
271.21        35.65294
271.66        35.19384
272.12        35.08975
272.57         35.2269
273.03        35.34537
273.48        35.02052
273.94         34.2182
274.39        33.06989
274.85        31.87685
275.31        30.92483
275.76        30.27011
276.22        29.85544
276.67        29.55235
277.13        29.25608
277.58        28.88732
278.04        28.50588
278.49        28.11198
278.95          27.804
279.40        27.53995
279.86        27.33789
280.31        27.07043
280.77        26.66002
281.22        26.07933
281.68        25.43086
282.13        24.81496
282.59         24.4399
283.04        24.29986
283.50        24.33832
283.95         24.4297
284.41        24.38415
284.86        24.15325
285.32        23.82616
285.77        23.46978
286.22        23.22841
286.68        23.13124
287.13        23.09859
287.59        23.10318
288.04        23.06784
288.50        22.98994
288.95        22.87484
289.41        22.74145
289.86         22.5563
290.32        22.35521
290.77        22.13799
291.22        21.95681
291.68        21.87901
292.13        21.91059
292.59        22.04755
293.04        22.26452
293.50        22.53563
293.95        22.83827
294.40        23.18125
294.86        23.55439
295.31        23.93657
295.77        24.32731
296.22        24.71481
296.68        25.11821
297.13        25.55904
297.58        26.04489
298.04        26.57049
298.49        27.10484
298.95        27.61421
299.40        28.08073
299.85        28.51248
300.31        28.93518
300.76        29.38119
301.21        29.85634
301.67        30.35988
302.12        30.83567
302.58        31.25228
303.03        31.58149
303.48        31.85739
303.94        32.12938
304.39         32.4409
304.84        32.80912
305.30        33.21894
305.75         33.6135
306.20        33.95872
306.66        34.24812
307.11        34.48153
307.57        34.67056
308.02        34.78751
308.47        34.84677
308.93         34.8592
309.38        34.85259
309.83        34.91849
310.29        35.06824
310.74         35.2719
311.19        35.45415
311.65        35.48402
312.10        35.33234
312.55        35.04532
313.00        34.71972
313.46         34.4992
313.91        34.40478
314.36        34.40185
314.82        34.41752
315.27        34.34305
315.72        34.14752
316.18        33.88017
316.63        33.58724
317.08         33.3533
317.53        33.19681
317.99        33.07844
318.44         32.9719
318.89        32.82695
319.35        32.62722
319.80        32.39268
320.25        32.12811
320.70        31.83889
321.16        31.53179
321.61         31.2167
322.06        30.90972
322.51        30.64278
322.97        30.41874
323.42        30.23162
323.87        30.07256
324.32        29.92933
324.78        29.78049
325.23        29.64441
325.68        29.47306
326.13        29.20068
326.59        28.82524
327.04        28.38131
327.49        27.94702
327.94        27.64851
328.39        27.50443
328.85        27.46068
329.30        27.46559
329.75        27.37033
330.20        27.13151
330.66        26.79328
331.11        26.40743
331.56        26.03361
332.01        25.69987
332.46        25.38247
332.92        25.09585
333.37        24.90977
333.82        24.81996
334.27        24.82353
334.72        24.85822
335.17        24.81077
335.63        24.65177
336.08         24.4215
336.53        24.18208
336.98        24.05328
337.43        24.06236
337.88        24.15855
338.34        24.28693
338.79        24.38064
339.24        24.39704
339.69        24.36403
340.14         24.2605
340.59        24.05419
341.05        23.76664
341.50        23.41149
341.95        23.07754
342.40        22.90078
342.85        22.90564
343.30         23.0507
343.75        23.24817
344.20        23.35046
344.66        23.31446
345.11        23.17602
345.56        22.98311
346.01        22.81649
346.46        22.70642
346.91        22.63186
347.36        22.57375
347.81        22.50662
348.26        22.42443
348.72        22.34085
349.17        22.27711
349.62        22.27231
350.07        22.32933
350.52        22.43362
350.97        22.52963
351.42        22.53189
351.87        22.42433
352.32        22.23146
352.77        22.02386
353.22        21.90757
353.67        21.89986
354.13        21.96672
354.58        22.03553
355.03        21.99037
355.48        21.80687
355.93         21.5338
356.38        21.23923
356.83        21.01991
357.28        20.90078
357.73        20.84866
358.18        20.83356
358.63        20.80925
359.08         20.7546
359.53        20.68008
359.98        20.58524
360.43        20.46626
360.88        20.32284
361.33        20.15419
361.78         19.9612
362.23        19.75047
362.68         19.5344
363.13        19.32387
363.58          19.138
364.03        19.00092
364.48        18.91576
364.93        18.87201
365.38        18.85851
365.83        18.85611
366.28        18.85132
366.73         18.8421
367.18        18.81065
367.63        18.73261
368.08          18.606
368.53         18.4389
368.98        18.25595
369.43        18.09777
369.88        17.97731
370.33        17.88762
370.78        17.81816
371.23        17.74818
371.68        17.67179
372.13        17.59719
372.58        17.52787
373.03        17.46883
373.48        17.41736
373.93        17.36166
374.38         17.2992
374.83        17.22991
375.28        17.15126
375.72        17.06228
376.17        16.95937
376.62        16.81314
377.07        16.62823
377.52        16.42125
377.97        16.23221
378.42        16.12734
378.87        16.11793
379.32        16.17354
379.77        16.25944
380.22        16.32449
380.67        16.34808
381.11        16.34713
381.56        16.29636
382.01        16.17532
382.46        15.99551
382.91        15.77437
383.36        15.56254
383.81        15.42953
384.26        15.38243
384.71        15.39741
385.15        15.43943
385.60        15.44965
386.05        15.40756
386.50        15.33596
386.95        15.23584
387.40        15.11131
387.85        14.97405
388.29        14.81347
388.74        14.68261
389.19        14.62267
389.64         14.6328
390.09        14.69515
390.54        14.75757
390.98        14.72862
391.43        14.60354
391.88        14.41848
392.33         14.2263
392.78        14.10164
393.23        14.06002
393.67        14.06574
394.12        14.11263
394.57        14.16509
395.02        14.20886
395.47        14.24907
395.91        14.27621
396.36        14.26327
396.81        14.21652
397.26        14.14479
397.71        14.06297
398.15        14.00461
398.60        13.99294
399.05        13.95848
399.50        13.91383
399.95        13.97911
400.39         14.1061
400.84        14.04578
401.29        13.81544
401.74        13.66236
402.18        13.60755
402.63        13.50928
403.08        13.39107
403.53        13.35021
403.97        13.39027
404.42        13.48193
404.87        13.58141
405.32        13.61485
405.76        13.56284
406.21        13.45672
406.66        13.33062
407.11         13.2406
407.55        13.20645
408.00        13.20253
408.45        13.21918
408.90        13.23299
409.34        13.23232
409.79         13.2291
410.24        13.21754
410.68        13.18178
411.13        13.12563
411.58        13.04915
412.03         12.9684
412.47         12.9184
412.92        12.90431
413.37        12.91913
413.81        12.94375
414.26        12.96012
414.71        12.95806
415.15        12.94747
415.60        12.92693
416.05        12.90498
416.49        12.88721
416.94        12.86874
417.39        12.85425
417.83        12.85151
418.28        12.85842
418.73        12.86922
419.17        12.87941
419.62        12.88038
420.07        12.87055
420.51        12.85386
420.96        12.82526
421.41        12.77494
421.85        12.70159
422.30        12.60522
422.74        12.50977
423.19        12.50827
423.64        12.58523
424.08        12.65117
424.53        12.67154
424.98        12.68751
425.42        12.69682
425.87        12.63056
426.31        12.52153
426.76         12.5147
427.21         12.5865
427.65        12.54564
428.10        12.42181
428.54        12.39116
428.99        12.46265
429.44        12.58156
429.88        12.69097
430.33         12.6526
430.77        12.50027
431.22        12.47997
431.66        12.58991
432.11        12.60957
432.56        12.54292
433.00        12.56115
433.45        12.61767
433.89        12.54016
434.34         12.4177
434.78        12.18197
435.23        12.51175
435.67        12.59028
436.12        12.58603
436.57        12.53731
437.01        12.46539
437.46         12.4133
437.90        12.38489
438.35        12.33453
438.79        12.26953
439.24        12.24167
439.68        12.25337
440.13         12.2888
440.57        12.32982
441.02        12.35781
441.46        12.36338
441.91        12.32101
442.35        12.24445
442.80        12.27268
443.24        12.35702
443.69        12.28504
444.13        12.09133
444.58        12.02421
445.02        12.09381
445.47        12.17063
445.91        12.22553
446.36        12.27226
446.80        12.29638
447.24         12.2945
447.69        12.27359
448.13        12.23912
448.58        12.20028
449.02         12.1577
449.47         12.1185
449.91        12.08824
450.36        12.07261
450.80        12.06773
451.25        12.08055
451.69         12.1136
452.13        12.16348
452.58        12.22314
453.02        12.27234
453.47        12.28162
453.91         12.2458
454.36        12.17799
454.80        12.09283
455.24        12.01329
455.69        11.95433
456.13        11.90324
456.58        11.87827
457.02        11.88595
457.46        11.92815
457.91        11.99831
458.35        12.06172
458.79         12.0647
459.24        12.00871
459.68        11.90334
460.13        11.79661
460.57        11.72902
461.01        11.72185
461.46        11.75213
461.90        11.80922
462.34        11.86257
462.79        11.89736
463.23        11.92785
463.68        11.94566
464.12        11.94447
464.56         11.9218
465.01        11.88988
465.45        11.84778
465.89        11.83012
466.34        11.84105
466.78        11.87188
467.22        11.91004
467.67        11.92079
468.11        11.90359
468.55        11.86424
468.99        11.82505
469.44        11.81975
469.88          11.856
470.32        11.92113
470.77        11.99453
471.21        12.04638
471.65        12.06509
472.10        12.06065
472.54        12.04062
472.98         12.0226
473.42         12.0132
473.87        12.01278
474.31        12.01009
474.75        12.00009
475.20        11.98653
475.64        11.96981
476.08        11.96534
476.52        11.98845
476.97        12.04124
477.41        12.12268
477.85        12.21929
478.29        12.29116
478.74        12.33848
479.18        12.39677
479.62        12.46264
480.06        12.51135
480.50        12.54497
480.95        12.56406
481.39        12.55893
481.83        12.63473
482.27        12.61012
482.72        12.64648
483.16        12.69978
483.60        12.75554
484.04        12.80152
484.48        12.91413
484.93        13.14019
485.37        13.11966
485.81        13.24022
486.25        13.53257
486.69        13.52325
487.14         13.2915
487.58        13.84848
488.02        13.80504
488.46        13.47157
488.90        13.72717
489.34         13.7222
489.79        13.93611
490.23        14.03886
490.67        14.22765
491.11        14.45297
491.55        14.52985
491.99        14.49475
492.43        14.53155
492.88          14.658
493.32         14.7692
493.76        14.85593
494.20         14.9629
494.64        15.09429
495.08        15.21008
495.52        15.31099
495.96        15.49543
496.41        15.72851
496.85        15.77712
497.29        15.67899
497.73        15.85209
498.17          16.073
498.61        16.25744
499.05        16.31598
499.49         16.3891
499.93        16.44623
500.37         16.5861
500.82        16.77482
501.26        16.90426
501.70          16.964
502.14        17.02284
502.58        17.10384
503.02        17.20877
503.46         17.3412
503.90        17.49765
504.34        17.65056
504.78        17.75378
505.22        17.79629
505.66        17.79278
506.10        17.76786
506.54        17.76197
506.98        17.78831
507.42        17.83566
507.86        17.89782
508.30         17.9635
508.74        18.02711
509.18        18.09416
509.62        18.15842
510.06         18.2088
510.50        18.24376
510.94        18.26382
511.38        18.28139
511.82        18.31754
512.26        18.37731
512.70        18.45676
513.14        18.53966
513.58        18.59944
514.02        18.62933
514.46        18.63393
514.90        18.63406
515.34        18.66393
515.78        18.72826
516.22        18.81462
516.66        18.89116
517.10        18.90756
517.54        18.85539
517.98        18.75469
518.42        18.64109
518.86        18.57056
519.30        18.55877
519.74        18.58851
520.18        18.63852
520.62         18.6748
521.06         18.6853
521.50        18.67978
521.93        18.66447
522.37        18.64176
522.81         18.6175
523.25        18.58833
523.69        18.55398
524.13        18.51645
524.57        18.47568
525.01         18.4303
525.45        18.38527
525.89        18.34727
526.32         18.3149
526.76        18.29199
527.20        18.26295
527.64        18.20521
528.08        18.11722
528.52        18.00672
528.96        17.89968
529.40        17.83647
529.83        17.82338
530.27        17.84781
530.71        17.87886
531.15        17.86842
531.59        17.80548
532.03        17.70548
532.46        17.59109
532.90        17.51086
533.34        17.47331
533.78        17.45374
534.22        17.43801
534.66        17.42604
535.09        17.39989
535.53        17.32964
535.97        17.23005
536.41        17.16765
536.85        17.15191
537.28        17.14863
537.72        17.16334
538.16        17.21796
538.60        17.30828
539.04        17.42446
539.47        17.54007
539.91        17.62578
540.35        17.67225
540.79         17.6916
541.22        17.69995
541.66        17.73096
542.10        17.79197
542.54        17.87227
542.97        17.96784
543.41        18.07937
543.85        18.20039
544.29        18.33426
544.72        18.46275
545.16        18.56982
545.60         18.6513
546.04        18.71604
546.47         18.7899
546.91        18.91191
547.35        19.08658
547.79        19.29912
548.22        19.52093
548.66        19.70481
549.10        19.86303
549.53        19.99978
549.97        20.12792
550.41        20.22229
550.84        20.30985
551.28         20.4406
551.72         20.5966
552.15        20.76591
552.59        20.97077
553.03        20.91017
553.46        21.21023
553.90         21.3192
554.34        21.42016
554.77        21.50995
555.21        21.61311
555.65        21.75017
556.08        21.91296
556.52        22.08384
556.96        22.22254
557.39         22.3294
557.83        22.38044
558.27        22.26359
558.70        22.05853
559.14        22.02354
559.57        22.16913
560.01        22.35708
560.45        22.52367
560.88        22.64107
561.32         22.7028
561.75        22.69875
562.19        22.67842
562.63        22.71505
563.06        22.81943
563.50        22.96395
563.93         23.1041
564.37        23.23198
564.80        23.34565
565.24         23.4001
565.68        23.35019
566.11        23.63881
566.55        23.42685
566.98        23.39828
567.42        23.37813
567.85         23.5139
568.29        23.79473
568.72        24.08807
569.16        24.37607
569.60        24.58284
570.03        24.78029
570.47        24.92157
570.90        25.05919
571.34        25.00868
571.77        25.26839
572.21        25.40971
572.64        25.52787
573.08        25.71509
573.51        25.78745
573.95        25.83114
574.38        25.86225
574.82        26.05519
