SpectraSmart Spectrum 2.9.0.0
--------- Device Information -----------
Spectrum Name :  反射率_0
Saving Time :  2024/04/26 23:35:40
Spectro-Module Model Name : SE2030-DUVN
Spectro-Module Serial Number : OS361AC55029948
Wavelength Start : 200
Wavelength End : 1025
Wavelength Unit : Wavelength(nm)
Spectrum Unit : Reflectance(%)
-----------Spectrum Setting ------------
Integration Time : 20ms
Average : 10
Boxcar : 0
Background removal :  enabled
linearity correction :  enabled
SC :  disabled
Intensity correction :  disabled
DWT denoise :  enabled
savitzky-golay :  disabled
FFT :  disabled
Running average :  disabled
Kalman :  disabled
High pass :  disabled
---------------BEGIN--------------------
Wavelength(nm)             Reflectance(%)
200.29               0
200.75        43.34692
201.21         40.8025
201.67        38.75647
202.13        37.85771
202.58         38.0248
203.04        39.28864
203.50        42.02592
203.96        46.34405
204.42        51.73394
204.88        57.85591
205.34        62.58931
205.80        63.00352
206.26        59.06352
206.72        52.29378
207.18        45.78563
207.64        41.77803
208.10         40.1654
208.55        40.80561
209.01         42.9187
209.47        44.06098
209.93        43.10767
210.39        41.50108
210.85        41.06427
211.31        43.42251
211.77        49.85217
212.23        64.69032
212.69        100.6963
213.14        156.5835
213.60        145.2139
214.06        99.07047
214.52        70.56541
214.98        59.19183
215.44        55.86285
215.90         55.6003
216.36        57.12456
216.81        59.10809
217.27        61.48493
217.73        66.28819
218.19        72.77816
218.65        74.64097
219.11        70.48654
219.57        64.13811
220.02        60.96109
220.48        65.07943
220.94        76.74072
221.40        97.67124
221.86        127.6885
222.32        148.1795
222.77        142.1349
223.23        122.0583
223.69        101.1165
224.15        86.69313
224.61        78.15634
225.06        72.32091
225.52        69.51347
225.98        69.89893
226.44        72.88039
226.90        78.30074
227.36        84.12954
227.81        86.60778
228.27         85.2973
228.73        81.42284
229.19         77.7239
229.65        77.49514
230.10        80.82981
230.56        86.53132
231.02        92.22922
231.48        94.18485
231.93        91.76544
232.39        87.05349
232.85         82.1263
233.31        79.61704
233.77        79.85894
234.22        81.85836
234.68        84.57573
235.14        86.51696
235.60        87.14314
236.05        87.01194
236.51        86.17382
236.97        84.95164
237.43        83.59362
237.88        81.97746
238.34        80.33631
238.80        79.41001
239.26        79.44033
239.71        80.98745
240.17        83.45467
240.63        85.67809
241.08        87.05907
241.54        87.05885
242.00        87.37128
242.46        91.67407
242.91        102.9446
243.37        122.9813
243.83         152.573
244.28        178.7904
244.74        181.0951
245.20        158.5436
245.66        128.3631
246.11        105.9926
246.57        92.58414
247.03        84.08327
247.48        77.99276
247.94         72.0029
248.40        66.92682
248.85        63.62804
249.31        62.56237
249.77        63.51248
250.22        66.10294
250.68        70.25262
251.14        75.08449
251.59        77.17842
252.05        75.11096
252.51        71.17724
252.96        66.80544
253.42        63.64868
253.88        61.91115
254.33        60.71378
254.79        61.71656
255.25        66.16536
255.70        73.47354
256.16        82.94891
256.62        90.96961
257.07        91.93118
257.53        87.44908
257.99        81.06435
258.44        75.65118
258.90        73.92457
259.35        74.68436
259.81        76.96062
260.27        79.23826
260.72        79.74563
261.18        78.70429
261.63        76.62408
262.09        74.72418
262.55         73.6239
263.00        73.20237
263.46        73.31678
263.91        73.26779
264.37        72.61957
264.83        71.32972
265.28        69.65719
265.74        68.26231
266.19        67.56458
266.65         67.6789
267.11        68.23989
267.56        68.91392
268.02        69.19314
268.47        68.89937
268.93        68.25952
269.38        67.26968
269.84        66.01379
270.30        64.57233
270.75        62.92752
271.21        61.42645
271.66        60.51301
272.12        60.24794
272.57        60.45327
273.03        60.72158
273.48        60.35036
273.94         59.2647
274.39        57.66208
274.85        55.97313
275.31        54.60076
275.76        53.61556
276.22        52.93008
276.67        52.36765
277.13        51.83723
277.58         51.2108
278.04        50.57248
278.49        49.86576
278.95        49.16048
279.40        48.39784
279.86        47.66219
280.31        46.84178
280.77        45.94717
281.22         44.9463
281.68        43.96003
282.13        43.06327
282.59        42.48817
283.04        42.19141
283.50        42.11624
283.95        42.09626
284.41        41.90297
284.86        41.46968
285.32        40.91105
285.77        40.29177
286.22        39.78654
286.68        39.43327
287.13        39.13196
287.59        38.87396
288.04        38.58757
288.50        38.28544
288.95        37.95958
289.41        37.62523
289.86         37.2069
290.32        36.75119
290.77         36.2579
291.22        35.80708
291.68        35.49903
292.13        35.33797
292.59        35.31393
293.04        35.38404
293.50        35.50612
293.95        35.64923
294.40        35.83023
294.86        36.04766
295.31         36.2867
295.77        36.55408
296.22        36.83339
296.68        37.14193
297.13         37.4898
297.58        37.88467
298.04        38.32247
298.49        38.77937
298.95        39.24015
299.40        39.68243
299.85         40.1044
300.31         40.5123
300.76        40.90087
301.21        41.27111
301.67        41.63588
302.12        41.95015
302.58        42.21661
303.03         42.4096
303.48        42.56133
303.94        42.71888
304.39        42.90691
304.84        43.14407
305.30        43.42289
305.75        43.68827
306.20        43.91931
306.66        44.11581
307.11        44.27055
307.57        44.38974
308.02        44.42337
308.47        44.38631
308.93        44.29499
309.38        44.19177
309.83        44.20145
310.29        44.33858
310.74        44.56137
311.19        44.76309
311.65        44.76139
312.10        44.51782
312.55        44.09793
313.00        43.63927
313.46        43.34604
313.91        43.24825
314.36        43.29195
314.82        43.37046
315.27        43.32349
315.72        43.10225
316.18         42.7734
316.63        42.40084
317.08         42.0993
317.53        41.89882
317.99        41.75432
318.44        41.63105
318.89        41.46403
319.35        41.23465
319.80        40.96783
320.25         40.6904
320.70        40.44088
321.16        40.22795
321.61        40.05153
322.06        39.88252
322.51        39.68152
322.97        39.43245
323.42          39.146
323.87        38.86674
324.32        38.67337
324.78        38.56362
325.23        38.53929
325.68        38.48837
326.13        38.23567
326.59        37.75537
327.04        37.12578
327.49        36.50187
327.94        36.12726
328.39        36.05347
328.85        36.19432
329.30        36.45024
329.75        36.56242
330.20        36.44463
330.66        36.15863
331.11        35.80976
331.56        35.54198
332.01        35.40153
332.46        35.33109
332.92         35.2674
333.37        35.16803
333.82        34.99484
334.27        34.78728
334.72        34.57003
335.17        34.37048
335.63        34.20038
336.08        34.06798
336.53        33.97565
336.98        33.94254
337.43        33.96469
337.88        34.02566
338.34        34.09893
338.79        34.17492
339.24        34.22498
339.69        34.25163
340.14        34.22261
340.59        34.09428
341.05        33.87848
341.50        33.58953
341.95        33.30518
342.40        33.14183
342.85        33.12455
343.30         33.2221
343.75        33.36148
344.20         33.4211
344.66           33.37
345.11        33.23971
345.56        33.08491
346.01        32.99358
346.46        32.99261
346.91        33.05795
347.36        33.14423
347.81        33.18612
348.26        33.16684
348.72         33.1034
349.17         33.0433
349.62        33.07515
350.07        33.20866
350.52        33.41256
350.97        33.58859
351.42        33.58316
351.87        33.37133
352.32        33.01001
352.77        32.62326
353.22          32.391
353.67        32.35178
354.13        32.45424
354.58        32.60037
355.03        32.62508
355.48        32.48506
355.93        32.23605
356.38         31.9665
356.83        31.80697
357.28        31.78104
357.73        31.83241
358.18        31.88756
358.63        31.83459
359.08        31.64302
359.53        31.35714
359.98        31.02193
360.43        30.69654
360.88        30.40483
361.33        30.13526
361.78        29.88705
362.23        29.66239
362.68        29.46287
363.13        29.29142
363.58        29.15144
364.03        29.04226
364.48        28.95402
364.93        28.87695
365.38        28.78466
365.83         28.6391
366.28        28.43633
366.73        28.19306
367.18        27.93573
367.63        27.70701
368.08        27.51938
368.53        27.35862
368.98        27.22507
369.43        27.11586
369.88        27.02459
370.33        26.95628
370.78        26.87843
371.23        26.73803
371.68        26.52702
372.13        26.25574
372.58        25.98527
373.03        25.81455
373.48        25.76145
373.93        25.79704
374.38         25.8416
374.83        25.76747
375.28         25.5476
375.72        25.21737
376.17        24.87603
376.62        24.64067
377.07        24.54033
377.52        24.54093
377.97        24.57351
378.42        24.52983
378.87        24.38452
379.32        24.17052
379.77        23.96123
380.22        23.86158
380.67        23.88612
381.11        24.00421
381.56        24.11255
382.01        24.06561
382.46        23.83617
382.91        23.48753
383.36        23.12685
383.81        22.89759
384.26        22.82578
384.71        22.86496
385.15        22.94782
385.60        22.96481
386.05        22.88246
386.50        22.73673
386.95        22.57046
387.40        22.44819
387.85        22.38617
388.29        22.34479
388.74        22.32202
389.19        22.26541
389.64        22.16496
390.09        22.03316
390.54        21.89412
390.98         21.7811
391.43         21.7174
391.88         21.6897
392.33         21.6712
392.78        21.62286
393.23        21.54064
393.67         21.4303
394.12        21.34228
394.57        21.30808
395.02        21.33125
395.47        21.38744
395.91        21.45365
396.36        21.47976
396.81        21.46204
397.26        21.42028
397.71        21.35294
398.15        21.27081
398.60        21.20909
399.05        21.08022
399.50        20.93534
399.95        21.00286
400.39        21.22071
400.84        21.19856
401.29        20.94869
401.74        20.82235
402.18        20.83739
402.63        20.77716
403.08        20.65942
403.53        20.60629
403.97        20.62392
404.42        20.68299
404.87        20.73971
405.32         20.7217
405.76        20.61426
406.21        20.45196
406.66        20.29461
407.11        20.23765
407.55        20.30497
408.00         20.4559
408.45        20.62816
408.90        20.69965
409.34        20.63336
409.79        20.47429
410.24        20.28144
410.68        20.13147
411.13        20.05058
411.58        20.01167
412.03        19.99498
412.47        19.97148
412.92        19.92513
413.37        19.87851
413.81        19.83432
414.26        19.80944
414.71        19.80012
415.15        19.80423
415.60         19.8134
416.05         19.8358
416.49        19.87068
416.94        19.91006
417.39        19.94696
417.83        19.96847
418.28        19.97128
418.73        19.95807
419.17        19.93402
419.62        19.90981
420.07        19.88932
420.51        19.86296
420.96        19.83851
421.41        19.82272
421.85        19.80781
422.30        19.78768
422.74        19.74051
423.19        19.72152
423.64        19.69925
424.08        19.56099
424.53         19.3485
424.98        19.28497
425.42         19.4056
425.87        19.55406
426.31        19.68249
426.76        19.85969
427.21        20.00352
427.65        19.85659
428.10         19.5189
428.54        19.35172
428.99        19.40065
429.44        19.55678
429.88        19.72752
430.33        19.69388
430.77        19.49943
431.22        19.52793
431.66        19.77335
432.11        19.88303
432.56        19.85381
433.00        19.95861
433.45        20.09256
433.89        19.93322
434.34        19.62136
434.78        19.08023
435.23        19.43564
435.67        19.49888
436.12        19.54942
436.57        19.61817
437.01        19.68595
437.46        19.72762
437.90        19.71862
438.35        19.61481
438.79        19.45566
439.24        19.36825
439.68         19.3716
440.13        19.42625
440.57        19.50295
441.02        19.57346
441.46        19.61917
441.91        19.60122
442.35        19.53244
442.80        19.62365
443.24        19.79489
443.69        19.70512
444.13        19.41181
444.58        19.31581
445.02        19.43621
445.47        19.56544
445.91        19.65402
446.36        19.71958
446.80        19.74131
447.24        19.71846
447.69        19.67354
448.13        19.63402
448.58        19.61456
449.02        19.60383
449.47        19.60031
449.91        19.59136
450.36        19.57958
450.80        19.56678
451.25        19.56001
451.69        19.55469
452.13        19.55252
452.58        19.54875
453.02        19.54175
453.47        19.53287
453.91        19.52221
454.36        19.51468
454.80        19.49873
455.24        19.45549
455.69        19.39007
456.13         19.2947
456.58        19.21577
457.02        19.19182
457.46        19.23567
457.91        19.33368
458.35        19.42199
458.79        19.40538
459.24        19.28738
459.68        19.09217
460.13        18.91378
460.57        18.84431
461.01        18.91655
461.46        19.08037
461.90        19.28971
462.34        19.45086
462.79        19.52337
463.23        19.54005
463.68        19.49969
464.12        19.41562
464.56        19.30148
465.01        19.18044
465.45         19.0572
465.89        18.99234
466.34        18.99106
466.78        19.03473
467.22        19.10897
467.67        19.16543
468.11        19.19823
468.55        19.21163
468.99        19.20706
469.44        19.18576
469.88        19.15479
470.32        19.11218
470.77        19.07624
471.21        19.08152
471.65        19.13044
472.10        19.21317
472.54        19.30298
472.98        19.36326
473.42        19.38316
473.87        19.38055
474.31        19.35196
474.75        19.31152
475.20        19.27254
475.64        19.22629
476.08        19.19355
476.52        19.19574
476.97        19.23641
477.41        19.31996
477.85        19.42993
478.29        19.50862
478.74        19.55856
479.18        19.63401
479.62        19.72801
480.06         19.7977
480.50         19.8455
480.95        19.87439
481.39        19.86275
481.83        19.96981
482.27        19.90279
482.72        19.90811
483.16        19.93452
483.60        19.97804
484.04        20.01521
484.48         20.2108
484.93        20.57429
485.37        20.41425
485.81        20.37454
486.25        20.81464
486.69        20.48447
487.14        20.56575
487.58        21.02353
488.02        21.01279
488.46        20.78288
488.90        20.94749
489.34        21.09329
489.79        21.34331
490.23        21.45872
490.67        21.53791
491.11        21.57505
491.55        21.55218
491.99        21.51929
492.43        21.54998
492.88         21.6669
493.32        21.85245
493.76        22.06684
494.20        22.26188
494.64        22.42389
495.08         22.5162
495.52        22.56831
495.96        22.76032
496.41        23.04995
496.85        23.12411
497.29        22.99287
497.73         23.1099
498.17        23.17992
498.61        23.31053
499.05        23.39836
499.49        23.49086
499.93        23.54389
500.37        23.80028
500.82        24.17472
501.26        24.39586
501.70        24.42978
502.14        24.40779
502.58        24.39401
503.02        24.44177
503.46        24.57262
503.90        24.76587
504.34        24.96605
504.78        25.08224
505.22        25.09322
505.66        25.03305
506.10        24.95109
506.54        24.92451
506.98        24.97554
507.42        25.07702
507.86        25.20933
508.30        25.34094
508.74        25.45638
509.18        25.56685
509.62        25.66065
510.06        25.71789
510.50        25.73846
510.94        25.72503
511.38        25.70582
511.82        25.72928
512.26        25.80573
512.70        25.92238
513.14        26.04906
513.58        26.13485
514.02        26.16587
514.46        26.15647
514.90        26.12997
515.34        26.12465
515.78        26.15047
516.22        26.19403
516.66        26.23842
517.10        26.25712
517.54        26.24503
517.98         26.2161
518.42        26.18224
518.86        26.16069
519.30        26.15691
519.74        26.16161
520.18        26.17689
520.62         26.2067
521.06         26.2478
521.50        26.30007
521.93        26.34342
522.37        26.33553
522.81        26.27443
523.25        26.17135
523.69         26.0614
524.13        26.00018
524.57        25.99727
525.01        26.03298
525.45        26.07438
525.89        26.06718
526.32        25.99562
526.76        25.88797
527.20         25.7622
527.64        25.64774
528.08         25.5575
528.52        25.48209
528.96        25.42938
529.40        25.41254
529.83        25.42721
530.27        25.46856
530.71        25.50919
531.15        25.50708
531.59        25.45188
532.03        25.35352
532.46        25.22837
532.90        25.12201
533.34        25.04421
533.78        24.97392
534.22         24.9052
534.66        24.85807
535.09        24.81281
535.53         24.7173
535.97        24.59408
536.41        24.54082
536.85        24.56564
537.28        24.61697
537.72         24.6791
538.16        24.74591
538.60        24.80688
539.04        24.86212
539.47        24.90522
539.91        24.94311
540.35         24.9747
540.79         25.0033
541.22        25.03459
541.66        25.08699
542.10        25.16121
542.54        25.25171
542.97        25.35625
543.41        25.48064
543.85        25.61905
544.29        25.77393
544.72        25.92218
545.16        26.04673
545.60        26.14122
546.04        26.21356
546.47        26.29963
546.91        26.45302
547.35        26.67846
547.79        26.95786
548.22        27.23863
548.66        27.43539
549.10         27.5647
549.53        27.63871
549.97        27.70411
550.41        27.77406
550.84        27.89566
551.28        28.12354
551.72        28.39607
552.15        28.63795
552.59        28.86468
553.03        28.67785
553.46        28.97413
553.90        29.05318
554.34        29.17962
554.77        29.33673
555.21        29.51789
555.65        29.68861
556.08        29.82735
556.52        29.92971
556.96        30.00061
557.39        30.12838
557.83        30.29404
558.27        30.31653
558.70        30.22405
559.14        30.24637
559.57        30.37378
560.01        30.45717
560.45        30.49242
560.88        30.56477
561.32        30.68817
561.75        30.81112
562.19        30.93285
562.63        31.02945
563.06        31.10016
563.50        31.19025
563.93        31.26915
564.37        31.33669
564.80        31.40667
565.24        31.42126
565.68        31.33193
566.11        31.73347
566.55        31.49184
566.98        31.55317
567.42        31.63495
567.85        31.78934
568.29        32.02357
568.72        32.33885
569.16        32.72622
569.60         32.9484
570.03        33.10437
570.47        33.26974
570.90        33.51682
571.34        33.31053
571.77        33.63583
572.21        33.82462
572.64        33.94669
573.08        34.11132
573.51        34.27841
573.95        34.47525
574.38        34.74592
574.82        34.77211
