SpectraSmart Spectrum 2.9.0.0
--------- Device Information -----------
Spectrum Name :  反射率_0
Saving Time :  2024/04/26 23:35:21
Spectro-Module Model Name : SE2030-DUVN
Spectro-Module Serial Number : OS361AC55029948
Wavelength Start : 200
Wavelength End : 1025
Wavelength Unit : Wavelength(nm)
Spectrum Unit : Reflectance(%)
-----------Spectrum Setting ------------
Integration Time : 20ms
Average : 10
Boxcar : 0
Background removal :  enabled
linearity correction :  enabled
SC :  disabled
Intensity correction :  disabled
DWT denoise :  enabled
savitzky-golay :  disabled
FFT :  disabled
Running average :  disabled
Kalman :  disabled
High pass :  disabled
---------------BEGIN--------------------
Wavelength(nm)             Reflectance(%)
200.29               0
200.75         25.5256
201.21        30.13198
201.67        34.51213
202.13        37.32751
202.58        38.59047
203.04        39.31583
203.50        39.84621
203.96        40.51749
204.42        41.57852
204.88        42.66069
205.34        43.72493
205.80        45.04837
206.26        46.34169
206.72        47.09715
207.18        47.43232
207.64        47.51696
208.10        47.39658
208.55        47.55896
209.01        46.46038
209.47        42.00344
209.93        35.99393
210.39        31.15356
210.85        28.70894
211.31        28.71306
211.77        31.24961
212.23        38.71702
212.69        59.29122
213.14        98.40286
213.60        103.6336
214.06        81.37674
214.52        65.11523
214.98        58.74155
215.44        57.52383
215.90        57.99857
216.36        59.54288
216.81        61.60132
217.27        64.40812
217.73        69.88188
218.19        77.51979
218.65        80.87144
219.11        77.66341
219.57        71.55776
220.02        68.05809
220.48        71.30674
220.94        81.44074
221.40        100.0769
221.86        126.6205
222.32        143.5257
222.77        135.9347
223.23         115.962
223.69        96.85203
224.15        85.96455
224.61         81.8724
225.06        80.84857
225.52        81.86892
225.98        83.67098
226.44        85.92168
226.90        89.14822
227.36        92.74519
227.81         95.2634
228.27        96.46558
228.73        96.38287
229.19         96.1601
229.65        97.37221
230.10        100.0413
230.56        103.7446
231.02        107.0112
231.48        107.5492
231.93        105.1019
232.39        101.2176
232.85        97.41207
233.31        95.69005
233.77         96.2177
234.22        98.16948
234.68        100.7097
235.14        102.6086
235.60          103.39
236.05        103.5713
236.51        102.7694
236.97        100.6011
237.43        97.16978
237.88        92.60233
238.34        88.00385
238.80        85.49441
239.26        85.73396
239.71         89.2677
240.17        94.81263
240.63        98.85771
241.08         99.1229
241.54        94.88863
242.00        88.82262
242.46        86.65748
242.91        91.83018
243.37        105.3196
243.83        126.6103
244.28         141.605
244.74        133.0719
245.20        104.7436
245.66        75.27377
246.11        58.78442
246.57        54.77003
247.03        58.25046
247.48        64.22161
247.94        64.53029
248.40        59.28715
248.85        52.99575
249.31        48.55601
249.77        47.36861
250.22        49.10396
250.68          53.056
251.14         59.0499
251.59        64.94646
252.05        68.51821
252.51        70.45633
252.96        69.95975
253.42        67.03899
253.88        62.75665
254.33        57.66949
254.79        54.77996
255.25         56.4598
255.70        62.18279
256.16        70.74034
256.62        78.80361
257.07        81.04679
257.53        78.43601
257.99         74.0552
258.44         70.1928
258.90        69.16452
259.35        70.05652
259.81        72.15684
260.27        74.37861
260.72        75.46214
261.18        75.52589
261.63        74.75797
262.09        74.03225
262.55        73.66451
263.00        73.54553
263.46        73.68332
263.91        73.53708
264.37        72.86326
264.83        71.65218
265.28        70.10661
265.74        68.80269
266.19        68.04571
266.65        67.96169
267.11        68.25947
267.56        68.72048
268.02        69.01186
268.47        68.98619
268.93         68.7859
269.38        68.31627
269.84        67.52879
270.30        66.44724
270.75        65.08047
271.21        63.75125
271.66        62.87164
272.12        62.51719
272.57        62.52169
273.03        62.56498
273.48        62.08657
273.94        61.04647
274.39        59.60518
274.85        58.11805
275.31        56.86972
275.76        55.90719
276.22        55.18378
276.67        54.56933
277.13        54.04657
277.58        53.49341
278.04        52.96053
278.49        52.34513
278.95        51.66149
279.40        50.83707
279.86        49.98535
280.31        49.02327
280.77        48.00619
281.22        46.91336
281.68        45.86228
282.13        44.91016
282.59        44.26925
283.04        43.89076
283.50        43.72519
283.95        43.62561
284.41        43.39886
284.86        42.97432
285.32        42.44051
285.77        41.82534
286.22        41.25607
286.68        40.76135
287.13        40.26357
287.59        39.76637
288.04        39.21555
288.50        38.64752
288.95        38.06219
289.41        37.50895
289.86        36.95996
290.32        36.46066
290.77        35.98462
291.22        35.57233
291.68        35.26455
292.13        35.04232
292.59        34.90469
293.04        34.80389
293.50        34.69615
293.95        34.55931
294.40        34.41491
294.86        34.29289
295.31        34.22708
295.77        34.24183
296.22        34.32324
296.68        34.46655
297.13        34.64227
297.58         34.8471
298.04        35.08146
298.49        35.35468
298.95         35.7029
299.40        36.10669
299.85        36.54096
300.31        36.94621
300.76        37.22193
301.21        37.35688
301.67        37.40202
302.12        37.39196
302.58          37.445
303.03        37.56269
303.48        37.73279
303.94         37.9465
304.39        38.14965
304.84        38.33789
305.30        38.53546
305.75         38.7042
306.20        38.84228
306.66        38.95881
307.11        39.03568
307.57        39.09888
308.02        39.14001
308.47        39.17109
308.93        39.19488
309.38        39.20301
309.83        39.23554
310.29        39.29222
310.74        39.35574
311.19        39.38046
311.65        39.28596
312.10        39.06023
312.55        38.73977
313.00        38.40152
313.46        38.15752
313.91        38.01954
314.36         37.9618
314.82        37.93513
315.27        37.86849
315.72         37.7359
316.18          37.574
316.63        37.38603
317.08        37.19469
317.53        37.00745
317.99        36.80138
318.44        36.60325
318.89        36.44947
319.35        36.34135
319.80        36.27075
320.25        36.18248
320.70        35.98574
321.16        35.66622
321.61        35.27036
322.06        34.86514
322.51        34.56577
322.97        34.40067
323.42        34.33538
323.87         34.3376
324.32        34.36065
324.78        34.36295
325.23         34.3733
325.68        34.32718
326.13        34.12992
326.59        33.77385
327.04        33.30081
327.49        32.81272
327.94        32.47794
328.39        32.33339
328.85        32.32389
329.30         32.4024
329.75        32.40867
330.20        32.29437
330.66        32.10386
331.11        31.89644
331.56        31.74138
332.01         31.6635
332.46        31.62533
332.92        31.60369
333.37        31.61875
333.82        31.64228
334.27        31.67728
334.72        31.69078
335.17         31.6239
335.63        31.46427
336.08        31.24718
336.53        31.01345
336.98        30.84432
337.43         30.7669
337.88        30.76017
338.34        30.80374
338.79        30.88982
339.24        30.98998
339.69        31.10767
340.14        31.20944
340.59        31.24259
341.05        31.20577
341.50        31.10509
341.95        30.98375
342.40        30.91457
342.85        30.91504
343.30        30.96026
343.75        31.02616
344.20        31.07199
344.66        31.08847
345.11        31.09503
345.56        31.08127
346.01        31.03072
346.46        30.95096
346.91        30.84487
347.36        30.76272
347.81        30.78694
348.26        30.92275
348.72        31.13876
349.17        31.35326
349.62        31.44953
350.07        31.40087
350.52         31.2504
350.97        31.04352
351.42        30.86005
351.87        30.72973
352.32        30.62207
352.77        30.55222
353.22         30.5396
353.67         30.5762
354.13        30.66736
354.58        30.73896
355.03        30.66378
355.48          30.427
355.93        30.07141
356.38        29.72194
356.83        29.57072
357.28        29.64578
357.73        29.87335
358.18        30.13118
358.63        30.21714
359.08        30.07498
359.53        29.77739
359.98        29.38982
360.43        29.00813
360.88         28.6702
361.33        28.34499
361.78        28.05862
362.23        27.85657
362.68        27.74402
363.13        27.72306
363.58        27.72716
364.03        27.64154
364.48        27.44238
364.93        27.15295
365.38        26.85699
365.83        26.69918
366.28        26.70653
366.73        26.82529
367.18        26.95254
367.63        26.92977
368.08         26.7199
368.53        26.37602
368.98        25.98088
369.43        25.66377
369.88        25.46487
370.33        25.34909
370.78        25.26987
371.23        25.15126
371.68        24.97162
372.13        24.75951
372.58        24.55496
373.03        24.41445
373.48        24.34892
373.93        24.33445
374.38        24.32476
374.83        24.25208
375.28        24.10072
375.72        23.88557
376.17        23.66831
376.62        23.51175
377.07        23.43114
377.52        23.40769
377.97        23.39755
378.42        23.33296
378.87        23.19896
379.32        23.01503
379.77        22.83192
380.22         22.7219
380.67        22.69344
381.11        22.72808
381.56         22.7496
382.01        22.65581
382.46        22.43426
382.91        22.13814
383.36        21.84519
383.81        21.65838
384.26        21.59406
384.71        21.61097
385.15        21.67359
385.60        21.72466
386.05        21.73705
386.50        21.72893
386.95        21.68147
387.40         21.5682
387.85        21.39705
388.29        21.16628
388.74         20.9557
389.19        20.82618
389.64        20.78599
390.09        20.81496
390.54        20.86088
390.98        20.83109
391.43        20.71928
391.88        20.55333
392.33        20.38688
392.78        20.29546
393.23         20.2897
393.67        20.32993
394.12        20.38995
394.57        20.39391
395.02         20.3245
395.47        20.19594
395.91        20.05071
396.36        19.94881
396.81         19.9212
397.26        19.95503
397.71        19.99866
398.15        19.98875
398.60        19.94013
399.05         19.7925
399.50        19.62857
399.95        19.71123
400.39        19.99133
400.84        20.08356
401.29        19.95422
401.74        19.86778
402.18        19.82585
402.63        19.64473
403.08        19.39441
403.53        19.27207
403.97        19.30267
404.42        19.43312
404.87        19.57865
405.32        19.60105
405.76        19.46771
406.21        19.23514
406.66        18.99064
407.11         18.8689
407.55        18.90658
408.00        19.05414
408.45        19.23597
408.90        19.30899
409.34        19.23086
409.79        19.05372
410.24        18.85684
410.68        18.74498
411.13        18.74746
411.58        18.82865
412.03         18.9338
412.47        18.97203
412.92        18.91053
413.37        18.78754
413.81        18.65298
414.26        18.59235
414.71          18.614
415.15         18.6948
415.60        18.78196
416.05        18.80272
416.49        18.73903
416.94        18.61944
417.39        18.48659
417.83        18.40064
418.28        18.38001
418.73        18.40389
419.17        18.46247
419.62        18.54072
420.07        18.62516
420.51        18.71048
420.96        18.78285
421.41         18.8161
421.85        18.79917
422.30        18.73364
422.74        18.62648
423.19        18.57415
423.64        18.55561
424.08        18.45236
424.53         18.2856
424.98        18.23133
425.42        18.31378
425.87        18.40658
426.31        18.47355
426.76        18.57874
427.21        18.65699
427.65        18.49035
428.10        18.18031
428.54        18.05191
428.99        18.14362
429.44         18.3613
429.88        18.59355
430.33        18.58916
430.77        18.38371
431.22        18.35426
431.66        18.51419
432.11        18.56608
432.56        18.51736
433.00        18.60944
433.45        18.73989
433.89        18.59842
434.34        18.30996
434.78        17.80937
435.23        18.13324
435.67        18.14791
436.12        18.11531
436.57        18.07353
437.01        18.03679
437.46        18.03653
437.90        18.06308
438.35        18.05745
438.79        18.02244
439.24          18.025
439.68        18.06718
440.13        18.12498
440.57         18.1831
441.02        18.22668
441.46        18.24446
441.91        18.22434
442.35        18.17148
442.80        18.20708
443.24        18.28904
443.69        18.25694
444.13        18.12817
444.58        18.08567
445.02        18.13377
445.47        18.17585
445.91        18.19857
446.36        18.22962
446.80        18.25915
447.24        18.28092
447.69        18.28786
448.13        18.26141
448.58        18.20652
449.02        18.12851
449.47        18.05111
449.91        18.00223
450.36        17.99442
450.80        18.01544
451.25        18.05571
451.69         18.0878
452.13        18.10461
452.58        18.10736
453.02        18.09989
453.47        18.09168
453.91        18.08504
454.36        18.08142
454.80        18.06467
455.24        18.00928
455.69        17.92206
456.13        17.80401
456.58        17.70946
457.02        17.68959
457.46        17.75861
457.91        17.89517
458.35        18.03426
458.79        18.07802
459.24         18.0212
459.68        17.88415
460.13        17.74475
460.57         17.6749
461.01         17.7055
461.46        17.79626
461.90        17.91736
462.34        18.00392
462.79        18.02906
463.23        18.02143
463.68        17.98138
464.12        17.92093
464.56        17.84656
465.01        17.77351
465.45        17.69756
465.89        17.66419
466.34        17.67592
466.78        17.71964
467.22        17.77556
467.67        17.78997
468.11        17.76003
468.55        17.69315
468.99        17.61728
469.44        17.57531
469.88        17.58047
470.32        17.61949
470.77        17.67317
471.21        17.71362
471.65        17.72937
472.10        17.73034
472.54        17.72465
472.98        17.73132
473.42        17.75417
473.87         17.7917
474.31        17.82014
474.75        17.82159
475.20        17.79908
475.64        17.75502
476.08        17.71649
476.52         17.7147
476.97        17.75533
477.41        17.83513
477.85        17.93656
478.29        18.00323
478.74        18.03894
479.18        18.10212
479.62        18.18187
480.06        18.23144
480.50        18.25263
480.95         18.2438
481.39        18.21058
481.83        18.33768
482.27        18.35944
482.72        18.49216
483.16        18.62697
483.60        18.67643
484.04        18.62154
484.48        18.58143
484.93        18.64449
485.37        18.47269
485.81        18.69778
486.25        18.89833
486.69        19.01276
487.14        19.01802
487.58        19.50626
488.02        19.54371
488.46        19.05092
488.90        19.34401
489.34        19.19769
489.79        19.41615
490.23        19.55788
490.67        19.72573
491.11         19.8668
491.55        19.84645
491.99        19.72753
492.43        19.71226
492.88        19.82895
493.32        19.96271
493.76        20.08491
494.20        20.21595
494.64        20.35294
495.08        20.45086
495.52         20.5199
495.96        20.71013
496.41        20.97923
496.85        21.00254
497.29        20.82519
497.73        21.00765
498.17        21.24238
498.61        21.39018
499.05        21.34728
499.49        21.34808
499.93        21.36177
500.37        21.49691
500.82        21.70212
501.26        21.83444
501.70        21.87739
502.14        21.91878
502.58         21.9979
503.02        22.13241
503.46        22.32622
503.90        22.56725
504.34        22.79712
504.78        22.91964
505.22        22.91492
505.66        22.81717
506.10        22.68494
506.54        22.61238
506.98        22.62841
507.42         22.7051
507.86        22.82303
508.30        22.94836
508.74        23.06264
509.18         23.1758
509.62        23.27156
510.06        23.32222
510.50        23.32537
510.94        23.28665
511.38        23.23261
511.82        23.20979
512.26        23.23222
512.70        23.29059
513.14         23.3696
513.58        23.44149
514.02         23.4961
514.46        23.53947
514.90        23.57775
515.34        23.62091
515.78        23.66926
516.22        23.71521
516.66        23.74742
517.10        23.75041
517.54        23.72297
517.98        23.67411
518.42        23.61782
518.86        23.57516
519.30        23.55357
519.74         23.5481
520.18        23.55566
520.62         23.5696
521.06        23.58673
521.50        23.61006
521.93        23.63526
522.37        23.64631
522.81        23.64337
523.25        23.62614
523.69        23.60472
524.13        23.59744
524.57        23.60468
525.01        23.61653
525.45        23.61789
525.89        23.58452
526.32        23.51002
526.76        23.41323
527.20        23.30091
527.64        23.18524
528.08        23.07461
528.52        22.96624
528.96        22.87806
529.40        22.83667
529.83        22.84238
530.27        22.88921
530.71        22.93928
531.15         22.9334
531.59        22.85984
532.03        22.73438
532.46        22.59525
532.90        22.52047
533.34        22.52175
533.78        22.56261
534.22        22.60601
534.66        22.62287
535.09        22.58478
535.53        22.46097
535.97         22.2917
536.41        22.19685
536.85        22.19499
537.28        22.23025
537.72        22.28933
538.16         22.3673
538.60        22.45228
539.04        22.54703
539.47        22.63251
539.91        22.69325
540.35        22.72401
540.79        22.73017
541.22        22.73456
541.66        22.78446
542.10        22.88443
542.54        23.01823
542.97        23.15938
543.41        23.27454
543.85        23.35311
544.29        23.41532
544.72        23.46428
545.16        23.52026
545.60        23.58784
546.04        23.66208
546.47         23.7693
546.91        23.94745
547.35        24.19221
547.79        24.48809
548.22        24.77551
548.66        24.95893
549.10         25.0513
549.53        25.06799
549.97        25.06535
550.41        25.08047
550.84        25.16395
551.28         25.3594
551.72        25.60511
552.15        25.82154
552.59        26.01974
553.03        25.84715
553.46         26.1116
553.90        26.18039
554.34        26.29197
554.77        26.42761
555.21        26.58897
555.65        26.75846
556.08        26.91623
556.52        27.05328
556.96        27.15431
557.39        27.26932
557.83        27.37739
558.27         27.3259
558.70        27.16619
559.14        27.14542
559.57        27.26383
560.01        27.37367
560.45        27.45182
560.88        27.54693
561.32        27.66441
561.75        27.76288
562.19        27.84859
562.63        27.92572
563.06        27.99103
563.50        28.04592
563.93        28.07911
564.37        28.14692
564.80        28.26374
565.24        28.34897
565.68         28.3348
566.11        28.73125
566.55        28.50491
566.98        28.52316
567.42        28.54857
567.85        28.65611
568.29        28.86141
568.72        29.16034
569.16        29.54276
569.60        29.77131
570.03        29.92699
570.47        30.10942
570.90        30.39203
571.34        30.12846
571.77        30.53123
572.21        30.65279
572.64        30.80699
573.08        30.90768
573.51        30.99985
573.95        31.10406
574.38        31.26256
574.82        31.45287
