SpectraSmart Spectrum 2.9.0.0
--------- Device Information -----------
Spectrum Name :  反射率_0
Saving Time :  2024/04/26 23:41:33
Spectro-Module Model Name : SE2030-DUVN
Spectro-Module Serial Number : OS361AC55029948
Wavelength Start : 200
Wavelength End : 1025
Wavelength Unit : Wavelength(nm)
Spectrum Unit : Reflectance(%)
-----------Spectrum Setting ------------
Integration Time : 20ms
Average : 10
Boxcar : 0
Background removal :  enabled
linearity correction :  enabled
SC :  disabled
Intensity correction :  disabled
DWT denoise :  enabled
savitzky-golay :  disabled
FFT :  disabled
Running average :  disabled
Kalman :  disabled
High pass :  disabled
---------------BEGIN--------------------
Wavelength(nm)             Reflectance(%)
200.29               0
200.75        27.92609
201.21        22.67319
201.67        18.10553
202.13        16.15384
202.58         16.8197
203.04        20.22753
203.50        25.62543
203.96        29.74233
204.42        30.20893
204.88        26.89913
205.34        22.76375
205.80        23.72954
206.26        30.17698
206.72        38.64207
207.18        44.95921
207.64        45.71761
208.10        40.65621
208.55        30.00241
209.01        13.67929
209.47        2.006799
209.93        2.931326
210.39        10.51677
210.85        18.13186
211.31        22.96436
211.77        25.98945
212.23        29.47885
212.69        35.96635
213.14        47.43765
213.60        47.39093
214.06        39.45659
214.52        34.06788
214.98        32.21399
215.44        32.19772
215.90        32.84813
216.36        34.54545
216.81        37.88058
217.27        43.57595
217.73        53.51366
218.19        66.10334
218.65        69.79244
219.11        61.39548
219.57        49.13502
220.02        41.32184
220.48        42.22416
220.94        51.40952
221.40        70.01666
221.86        98.39675
222.32        120.2901
222.77        119.2268
223.23         105.082
223.69        89.19028
224.15        78.55718
224.61        72.86838
225.06        69.07201
225.52        67.65008
225.98        69.01631
226.44        72.67779
226.90        78.55053
227.36        84.54858
227.81        86.75179
228.27        84.82191
228.73        80.22493
229.19        75.86916
229.65        75.19541
230.10        78.31252
230.56        83.92709
231.02        89.79435
231.48        92.33817
231.93        90.83163
232.39        87.23102
232.85        83.20791
233.31         80.8997
233.77        80.62789
234.22        81.53943
234.68        83.05904
235.14         84.4644
235.60        85.41771
236.05        86.33749
236.51        86.76389
236.97        85.90985
237.43        83.63881
237.88        80.13641
238.34        76.33981
238.80        74.15522
239.26        74.18046
239.71        76.68801
240.17        80.76311
240.63        84.03719
241.08        84.94724
241.54        83.09563
242.00        79.87853
242.46         78.3008
242.91        80.16856
243.37        84.86195
243.83        92.13897
244.28        96.83222
244.74        92.20171
245.20        80.65743
245.66         67.5583
246.11        55.32565
246.57        44.32764
247.03        33.41499
247.48        25.00492
247.94        24.05171
248.40        29.33265
248.85        36.46393
249.31        42.57294
249.77        45.91772
250.22        46.69362
250.68        45.49665
251.14        42.52891
251.59        39.28051
252.05        37.71635
252.51        38.12697
252.96        39.11021
253.42        39.34596
253.88        39.00403
254.33        38.42141
254.79        39.76645
255.25        44.91885
255.70        53.50035
256.16        64.59708
256.62        74.37473
257.07        76.76995
257.53        73.12649
257.99        67.19411
258.44        62.25956
258.90        61.27731
259.35        63.09001
259.81        66.52358
260.27        69.78496
260.72        70.69374
261.18        69.47555
261.63        66.95631
262.09        64.60945
262.55        63.37907
263.00        63.15802
263.46        63.62108
263.91        63.96071
264.37        63.54255
264.83        62.30626
265.28        60.59447
265.74        59.10729
266.19        58.35123
266.65         58.4505
267.11        59.03631
267.56        59.74849
268.02        60.03553
268.47        59.72406
268.93        59.05519
269.38        58.10653
269.84        57.06734
270.30        56.02634
270.75        54.92167
271.21        53.96975
271.66        53.43336
272.12        53.33568
272.57        53.55475
273.03        53.79763
273.48        53.55371
273.94        52.77128
274.39        51.57176
274.85        50.27559
275.31        49.15099
275.76        48.25961
276.22        47.58534
276.67        47.00488
277.13        46.48373
277.58        45.91945
278.04        45.34633
278.49         44.7561
278.95        44.27832
279.40        43.84007
279.86        43.49424
280.31        42.98906
280.77        42.11855
281.22        40.86143
281.68        39.43574
282.13        38.11532
282.59        37.39167
283.04        37.26322
283.50        37.56718
283.95        38.00304
284.41        38.11592
284.86        37.76709
285.32        37.14019
285.77        36.35741
286.22        35.66555
286.68        35.13458
287.13        34.64748
287.59          34.209
288.04        33.78381
288.50        33.38771
288.95        33.01287
289.41        32.66043
289.86        32.23597
290.32        31.76926
290.77        31.26703
291.22        30.78597
291.68        30.39551
292.13        30.10152
292.59        29.89983
293.04        29.78356
293.50        29.76852
293.95         29.8351
294.40         29.9771
294.86        30.16147
295.31        30.32369
295.77        30.45733
296.22        30.57326
296.68        30.69344
297.13        30.83863
297.58        31.02671
298.04        31.24863
298.49        31.52234
298.95         31.8945
299.40        32.35126
299.85         32.8743
300.31        33.39765
300.76        33.80697
301.21         34.0851
301.67        34.28145
302.12         34.4341
302.58        34.66438
303.03        34.97097
303.48         35.3303
303.94         35.7209
304.39        36.07714
304.84        36.38904
305.30        36.68171
305.75        36.92138
306.20        37.11184
306.66        37.26415
307.11        37.36131
307.57        37.42941
308.02        37.46137
308.47        37.47353
308.93        37.47696
309.38        37.46989
309.83        37.49673
310.29        37.56244
310.74        37.65191
311.19        37.72631
311.65        37.71511
312.10        37.60088
312.55        37.40557
313.00        37.19143
313.46        37.05176
313.91        36.99138
314.36        36.98909
314.82        36.98296
315.27        36.88454
315.72        36.66965
316.18        36.37976
316.63        36.05951
317.08        35.79309
317.53        35.60099
317.99        35.45227
318.44        35.32122
318.89        35.15438
319.35        34.93824
319.80        34.69427
320.25         34.4409
320.70        34.20542
321.16        33.99444
321.61        33.80733
322.06        33.63437
322.51        33.46522
322.97        33.29055
323.42        33.11648
323.87        32.95007
324.32        32.80907
324.78        32.68071
325.23        32.57301
325.68        32.43808
326.13        32.21067
326.59        31.88449
327.04        31.49893
327.49        31.11181
327.94        30.81569
328.39        30.62874
328.85        30.50928
329.30        30.44664
329.75        30.35902
330.20        30.22165
330.66        30.05328
331.11        29.87494
331.56        29.69555
332.01        29.52095
332.46        29.33467
332.92         29.1357
333.37        28.97818
333.82        28.85386
334.27        28.76038
334.72        28.66756
335.17        28.51736
335.63          28.302
336.08        28.06798
336.53        27.85241
336.98        27.72541
337.43        27.70706
337.88        27.76134
338.34        27.88441
338.79        28.09877
339.24        28.36707
339.69        28.67031
340.14        28.89821
340.59        28.88019
341.05        28.60285
341.50        28.12728
341.95        27.59918
342.40         27.2431
342.85        27.12203
343.30        27.17667
343.75        27.33743
344.20        27.48327
344.66        27.56846
345.11        27.62343
345.56        27.64922
346.01        27.64643
346.46        27.62238
346.91        27.56937
347.36        27.49653
347.81        27.43081
348.26        27.37921
348.72        27.33533
349.17        27.30445
349.62        27.30454
350.07        27.33106
350.52        27.38047
350.97        27.40269
351.42        27.31715
351.87        27.11746
352.32        26.83752
352.77         26.5536
353.22        26.37608
353.67        26.32777
354.13        26.37607
354.58         26.4639
355.03        26.49772
355.48        26.44506
355.93        26.32866
356.38         26.1842
356.83        26.06557
357.28        25.98222
357.73        25.91083
358.18        25.81415
358.63        25.63945
359.08         25.3814
359.53         25.0671
359.98        24.74349
360.43         24.4733
360.88        24.26922
361.33        24.11307
361.78        23.97286
362.23        23.79743
362.68         23.5787
363.13        23.34143
363.58        23.11059
364.03        22.92098
364.48        22.78195
364.93        22.67749
365.38        22.60367
365.83        22.55729
366.28        22.52788
366.73        22.50895
367.18        22.47705
367.63        22.39664
368.08        22.25958
368.53        22.07529
368.98        21.85961
369.43        21.64033
369.88        21.42894
370.33         21.2206
370.78        21.02128
371.23        20.83967
371.68        20.67936
372.13        20.54538
372.58        20.42653
373.03        20.29951
373.48         20.1587
373.93        20.00684
374.38        19.85928
374.83        19.74504
375.28        19.66437
375.72        19.59413
376.17        19.52426
376.62        19.41459
377.07         19.2613
377.52        19.08817
377.97        18.90171
378.42        18.71601
378.87         18.5438
379.32        18.37473
379.77        18.25012
380.22        18.23024
380.67        18.31157
381.11        18.48062
381.56        18.62817
382.01        18.58501
382.46        18.32633
382.91        17.92488
383.36        17.51356
383.81        17.27683
384.26        17.24864
384.71        17.36736
385.15         17.5594
385.60        17.70161
386.05        17.74699
386.50        17.73529
386.95         17.6779
387.40         17.5935
387.85        17.49688
388.29        17.36534
388.74        17.24871
389.19        17.18105
389.64        17.16435
390.09        17.18951
390.54        17.21589
390.98        17.16873
391.43        17.04769
391.88         16.8789
392.33        16.71063
392.78        16.61072
393.23        16.58969
393.67        16.61325
394.12         16.6633
394.57        16.68161
395.02        16.65284
395.47        16.58719
395.91        16.50619
396.36        16.43598
396.81        16.39721
397.26        16.38473
397.71        16.37515
398.15        16.34549
398.60        16.31184
399.05        16.21453
399.50         16.1024
399.95        16.16329
400.39        16.35169
400.84        16.36279
401.29        16.18785
401.74        16.07036
402.18        16.02192
402.63        15.88917
403.08        15.72083
403.53        15.66339
403.97        15.73139
404.42        15.88239
404.87         16.0507
405.32         16.1285
405.76        16.08668
406.21        15.96626
406.66        15.82535
407.11        15.75634
407.55        15.78764
408.00        15.88455
408.45        16.00186
408.90        16.05243
409.34        16.00916
409.79        15.90321
410.24        15.78528
410.68        15.72021
411.13        15.72695
411.58        15.78494
412.03        15.85028
412.47        15.84979
412.92        15.76379
413.37        15.62819
413.81        15.49723
414.26         15.4597
414.71        15.52566
415.15        15.67001
415.60        15.84047
416.05        15.95735
416.49         15.9913
416.94        15.96234
417.39        15.89843
417.83        15.84292
418.28        15.81059
418.73        15.78644
419.17        15.76812
419.62        15.75407
420.07         15.7434
420.51        15.73823
420.96        15.73833
421.41        15.73561
421.85        15.72281
422.30        15.69616
422.74        15.65346
423.19        15.66467
423.64        15.70696
424.08        15.68098
424.53        15.59553
424.98        15.58891
425.42        15.67888
425.87        15.75388
426.31        15.79569
426.76        15.89204
427.21        15.98904
427.65         15.8728
428.10        15.62283
428.54        15.52701
428.99          15.615
429.44        15.79512
429.88        15.98071
430.33        15.97515
430.77        15.81139
431.22         15.8103
431.66        15.96755
432.11        15.99884
432.56        15.90753
433.00        15.90871
433.45        15.94697
433.89        15.81869
434.34        15.64134
434.78        15.32875
435.23        15.72911
435.67        15.80459
436.12        15.76555
436.57        15.66457
437.01        15.53636
437.46        15.44736
437.90        15.40754
438.35        15.35922
438.79        15.30376
439.24        15.29475
439.68        15.33337
440.13        15.40257
440.57        15.49033
441.02        15.58946
441.46        15.68511
441.91        15.73198
442.35         15.7272
442.80        15.82772
443.24        15.96915
443.69        15.88392
444.13        15.62861
444.58        15.54199
445.02        15.64452
445.47        15.76567
445.91         15.8618
446.36        15.94122
446.80        15.98312
447.24        15.98565
447.69        15.96578
448.13        15.94336
448.58        15.92941
449.02        15.91649
449.47         15.8983
449.91        15.85791
450.36        15.79957
450.80        15.72953
451.25        15.67091
451.69        15.64642
452.13        15.66164
452.58        15.70525
453.02        15.75445
453.47         15.7758
453.91        15.75963
454.36         15.7174
454.80         15.6603
455.24         15.6053
455.69        15.56569
456.13        15.52886
456.58        15.50925
457.02        15.50364
457.46        15.51818
457.91        15.55142
458.35        15.58686
458.79        15.60102
459.24        15.60036
459.68        15.57916
460.13        15.56501
460.57         15.5621
461.01        15.58596
461.46        15.61969
461.90        15.66568
462.34        15.71512
462.79        15.75678
463.23         15.7959
463.68        15.81204
464.12        15.78268
464.56        15.70461
465.01        15.60948
465.45        15.49824
465.89        15.41331
466.34        15.36192
466.78        15.33089
467.22        15.32348
467.67        15.33042
468.11        15.35578
468.55        15.39442
468.99        15.43714
469.44        15.46635
469.88        15.47837
470.32        15.47513
470.77        15.46453
471.21        15.46466
471.65        15.47804
472.10        15.50047
472.54        15.52345
472.98        15.54028
473.42        15.54776
473.87        15.55336
474.31        15.54764
474.75         15.5306
475.20        15.50803
475.64        15.47654
476.08        15.44808
476.52        15.43206
476.97        15.43207
477.41        15.45409
477.85         15.4973
478.29         15.5367
478.74        15.57932
479.18        15.66282
479.62        15.77065
480.06        15.84962
480.50        15.89675
480.95        15.92034
481.39        15.90777
481.83        15.99513
482.27        15.94784
482.72        15.95546
483.16        15.97936
483.60        16.01713
484.04         16.0525
484.48        16.23696
484.93        16.55062
485.37        16.40624
485.81        16.34034
486.25        16.64805
486.69        16.31712
487.14         16.5675
487.58        16.99304
488.02        17.11475
488.46        16.63883
488.90        16.95935
489.34        16.97032
489.79        17.18394
490.23         17.2085
490.67        17.25681
491.11        17.31989
491.55        17.31759
491.99        17.29554
492.43        17.34049
492.88        17.46673
493.32         17.6367
493.76        17.81603
494.20        17.97197
494.64        18.09643
495.08        18.16381
495.52        18.19002
495.96        18.32046
496.41        18.52504
496.85          18.516
497.29        18.34143
497.73        18.50528
498.17         18.7387
498.61        18.91885
499.05        18.94251
499.49        18.99724
499.93        19.04803
500.37        19.19098
500.82        19.39003
501.26        19.53556
501.70         19.6137
502.14        19.69521
502.58        19.79519
503.02        19.89785
503.46        20.00394
503.90        20.11841
504.34        20.21626
504.78        20.25575
505.22        20.23276
505.66        20.16402
506.10        20.09002
506.54        20.07452
506.98        20.13303
507.42        20.24674
507.86        20.38629
508.30         20.5015
508.74        20.57532
509.18        20.62185
509.62        20.65109
510.06        20.68056
510.50        20.71648
510.94        20.74936
511.38        20.78155
511.82        20.81868
512.26        20.86158
512.70        20.91383
513.14        20.96454
513.58        20.99408
514.02        20.99927
514.46        20.98282
514.90        20.96631
515.34        20.98565
515.78        21.04474
516.22        21.13005
516.66        21.20757
517.10        21.22286
517.54        21.16636
517.98        21.06005
518.42        20.93759
518.86        20.85245
519.30        20.82114
519.74         20.8268
520.18        20.85765
520.62         20.8943
521.06        20.92701
521.50        20.96257
521.93         20.9917
522.37        20.99021
522.81        20.95851
523.25        20.90003
523.69        20.83497
524.13         20.7976
524.57        20.79374
525.01        20.81138
525.45        20.83255
525.89        20.82685
526.32        20.78445
526.76        20.72303
527.20        20.64846
527.64        20.57148
528.08        20.49859
528.52        20.42541
528.96        20.36397
529.40         20.3335
529.83        20.33344
530.27        20.35842
530.71        20.38131
531.15        20.36021
531.59        20.28637
532.03        20.17128
532.46        20.03901
532.90        19.94257
533.34        19.89172
533.78        19.86341
534.22        19.83838
534.66        19.81029
535.09        19.75923
535.53        19.65169
535.97        19.51793
536.41          19.455
536.85        19.47429
537.28        19.52781
537.72         19.5982
538.16        19.67196
538.60        19.73787
539.04         19.8011
539.47        19.85238
539.91        19.89102
540.35        19.91525
540.79        19.92481
541.22        19.93865
541.66        19.99521
542.10        20.09741
542.54        20.23578
542.97        20.37792
543.41        20.48004
543.85        20.53207
544.29        20.55328
544.72        20.57102
545.16         20.6416
545.60        20.77347
546.04        20.95129
546.47        21.15732
546.91        21.35791
547.35        21.53615
547.79        21.69998
548.22        21.84728
548.66        21.97082
549.10        22.09822
549.53        22.21938
549.97        22.33935
550.41        22.41699
550.84        22.47891
551.28        22.58941
551.72        22.73115
552.15        22.89257
552.59        23.09747
553.03        23.00865
553.46        23.31778
553.90        23.42257
554.34        23.52452
554.77        23.62271
555.21        23.72904
555.65        23.84229
556.08        23.95327
556.52        24.05082
556.96         24.1258
557.39         24.2305
557.83        24.34571
558.27          24.332
558.70        24.22847
559.14        24.24309
559.57        24.37105
560.01        24.48469
560.45          24.558
560.88        24.62267
561.32        24.68523
561.75        24.72683
562.19        24.77145
562.63        24.81785
563.06        24.88355
563.50        25.03486
563.93        25.21663
564.37        25.34153
564.80        25.40716
565.24        25.40626
565.68        25.31204
566.11         25.6122
566.55        25.39858
566.98        25.43195
567.42        25.48791
567.85        25.61426
568.29        25.81868
568.72        26.10189
569.16        26.44117
569.60        26.64619
570.03        26.79817
570.47        26.90426
570.90        27.02541
571.34        26.97595
571.77        27.18578
572.21        27.33577
572.64        27.50865
573.08        27.57895
573.51        27.58845
573.95        27.71579
574.38        27.96834
574.82        28.04702
