SpectraSmart Spectrum 2.9.0.0
--------- Device Information -----------
Spectrum Name :  反射率_0
Saving Time :  2024/04/26 23:33:25
Spectro-Module Model Name : SE2030-DUVN
Spectro-Module Serial Number : OS361AC55029948
Wavelength Start : 200
Wavelength End : 1025
Wavelength Unit : Wavelength(nm)
Spectrum Unit : Reflectance(%)
-----------Spectrum Setting ------------
Integration Time : 20ms
Average : 10
Boxcar : 0
Background removal :  enabled
linearity correction :  enabled
SC :  disabled
Intensity correction :  disabled
DWT denoise :  enabled
savitzky-golay :  disabled
FFT :  disabled
Running average :  disabled
Kalman :  disabled
High pass :  disabled
---------------BEGIN--------------------
Wavelength(nm)             Reflectance(%)
200.29               0
200.75         25.9849
201.21        26.14817
201.67        26.60275
202.13        26.92467
202.58        26.99264
203.04        27.45818
203.50        28.22857
203.96        28.68444
204.42        28.48841
204.88        27.25291
205.34        26.34229
205.80        28.32755
206.26        32.94817
206.72        38.51698
207.18        42.52219
207.64        42.86443
208.10         39.4878
208.55        32.49629
209.01        22.14803
209.47        16.12451
209.93        19.10675
210.39        26.17213
210.85        32.82717
211.31        37.86463
211.77        42.84873
212.23        51.27872
212.69         70.1853
213.14        101.8031
213.60        99.51697
214.06        75.66183
214.52        59.98774
214.98        53.80858
215.44        52.07458
215.90        51.95972
216.36         52.1919
216.81        50.80134
217.27        47.32534
217.73        42.30424
218.19         35.4356
218.65        29.65059
219.11        28.53478
219.57         30.1775
220.02        33.54469
220.48        39.46878
220.94        48.83505
221.40        63.83125
221.86        83.78671
222.32        94.90276
222.77        86.49069
223.23         68.4597
223.69        51.80393
224.15        42.44529
224.61        38.92414
225.06        38.27057
225.52        39.12392
225.98        40.11459
226.44        40.94835
226.90        42.11956
227.36        43.45672
227.81         44.4554
228.27        45.03068
228.73        45.00062
229.19        44.84692
229.65        45.27007
230.10        46.28704
230.56        47.76112
231.02        48.93456
231.48        48.63081
231.93        46.78632
232.39        44.22344
232.85        41.93185
233.31        41.20959
233.77        42.13684
234.22        44.26365
234.68        46.75474
235.14        48.41153
235.60        48.84204
236.05        48.34478
236.51        47.28704
236.97        46.50767
237.43        46.39939
237.88        46.80461
238.34        47.36045
238.80        47.69522
239.26        47.67815
239.71         47.5994
240.17        47.61361
240.63        48.63998
241.08         51.2742
241.54        55.17624
242.00         59.7234
242.46        63.86211
242.91        67.59406
243.37        70.37321
243.83        72.52347
244.28        74.67822
244.74        75.89409
245.20        75.61927
245.66        73.25553
246.11        67.73985
246.57        60.03053
247.03        50.54305
247.48         41.9602
247.94        39.41312
248.40        42.62785
248.85        47.77641
249.31        52.34179
249.77        54.49492
250.22        54.27711
250.68        52.22663
251.14        48.78595
251.59        46.09172
252.05        46.06268
252.51        48.15824
252.96        50.30456
253.42        50.87302
253.88        49.90981
254.33        47.84201
254.79        46.87088
255.25        48.60616
255.70         52.6969
256.16        58.45026
256.62         62.9135
257.07        61.89518
257.53        56.99306
257.99        51.06997
258.44        46.53264
258.90        45.48495
259.35        46.84954
259.81        49.63528
260.27        52.27647
260.72        52.88134
261.18        51.61614
261.63        49.21122
262.09        46.95934
262.55        45.76391
263.00        45.53556
263.46        45.93793
263.91        46.21718
264.37        45.68712
264.83         44.3195
265.28        42.47092
265.74        40.84308
266.19        40.03793
266.65        40.15809
267.11        40.85035
267.56         41.6734
268.02        41.93074
268.47         41.4442
268.93        40.48644
269.38        39.30368
269.84        38.32394
270.30        37.65469
270.75        37.12209
271.21        36.71874
271.66        36.39376
272.12        36.10611
272.57        35.87984
273.03        35.56535
273.48        34.89703
273.94        33.91234
274.39        32.68727
274.85        31.53656
275.31        30.77571
275.76        30.42401
276.22        30.38481
276.67        30.43375
277.13        30.32568
277.58        29.95675
278.04        29.44176
278.49        28.82689
278.95        28.28752
279.40        27.82183
279.86        27.43647
280.31        27.04954
280.77        26.64552
281.22        26.18921
281.68        25.75572
282.13        25.36489
282.59        25.11214
283.04        24.97318
283.50         24.9248
283.95        24.90004
284.41        24.80768
284.86        24.62363
285.32        24.40294
285.77        24.16547
286.22        23.99305
286.68        23.90064
287.13        23.82712
287.59        23.77773
288.04        23.72132
288.50         23.6629
288.95        23.58858
289.41        23.47718
289.86        23.23824
290.32        22.90088
290.77        22.48531
291.22        22.09346
291.68        21.86334
292.13         21.8155
292.59        21.92837
293.04        22.12562
293.50        22.30142
293.95        22.41914
294.40        22.51399
294.86        22.64308
295.31        22.88812
295.77        23.26809
296.22        23.73913
296.68        24.24083
297.13        24.67314
297.58        25.01679
298.04        25.30142
298.49        25.57692
298.95         25.9372
299.40        26.39006
299.85        26.89718
300.31        27.39713
300.76        27.79311
301.21        28.06241
301.67        28.24738
302.12        28.36988
302.58        28.51288
303.03        28.67572
303.48        28.85364
303.94         29.0326
304.39        29.16545
304.84        29.25383
305.30        29.32358
305.75        29.37691
306.20        29.46209
306.66        29.59077
307.11        29.73293
307.57        29.86566
308.02        29.91681
308.47        29.88469
308.93        29.79929
309.38         29.6912
309.83        29.64708
310.29        29.68334
310.74        29.76831
311.19        29.85256
311.65        29.85293
312.10        29.74285
312.55        29.54455
313.00        29.31309
313.46        29.12809
313.91        28.99763
314.36        28.91079
314.82        28.80893
315.27        28.60777
315.72        28.29573
316.18        27.91548
316.63        27.54769
317.08        27.32552
317.53         27.2702
317.99        27.33045
318.44        27.41826
318.89        27.38066
319.35        27.17539
319.80        26.84587
320.25         26.4596
320.70        26.12686
321.16        25.88027
321.61        25.69691
322.06        25.53647
322.51        25.33648
322.97        25.07831
323.42        24.79172
323.87        24.51953
324.32        24.32926
324.78        24.22455
325.23         24.1914
325.68        24.15781
326.13        24.01397
326.59        23.73558
327.04        23.37041
327.49         22.9899
327.94        22.70737
328.39         22.5479
328.85        22.46531
329.30         22.4357
329.75         22.3727
330.20        22.25032
330.66        22.09716
331.11        21.93425
331.56         21.7746
332.01        21.62711
332.46        21.47421
332.92        21.32906
333.37        21.25661
333.82        21.25188
334.27        21.30497
334.72        21.35726
335.17        21.30685
335.63        21.13253
336.08        20.87989
336.53        20.61607
336.98        20.46166
337.43        20.45045
337.88        20.53986
338.34         20.6857
338.79        20.83251
339.24        20.93609
339.69        21.00739
340.14        21.01563
340.59        20.91471
341.05        20.71458
341.50        20.43345
341.95         20.1307
342.40        19.89946
342.85        19.76794
343.30        19.71405
343.75        19.72316
344.20        19.76626
344.66        19.82783
345.11        19.91177
345.56         19.9875
346.01        20.00696
346.46        19.96607
346.91        19.87835
347.36        19.78238
347.81        19.74529
348.26        19.78173
348.72        19.86852
349.17        19.97859
349.62        20.07968
350.07        20.15384
350.52        20.20868
350.97        20.22443
351.42        20.17042
351.87        20.04857
352.32        19.87256
352.77        19.68254
353.22        19.53756
353.67        19.45106
354.13        19.41023
354.58        19.38998
355.03        19.35168
355.48        19.28268
355.93        19.19539
356.38        19.10044
356.83        19.01252
357.28        18.93308
357.73        18.85146
358.18         18.7607
358.63        18.65388
359.08        18.53208
359.53        18.40388
359.98        18.27167
360.43        18.13523
360.88        17.99557
361.33         17.8515
361.78        17.71587
362.23        17.60977
362.68        17.53738
363.13        17.49508
363.58        17.45646
364.03         17.3798
364.48        17.25551
364.93         17.0912
365.38        16.92519
365.83        16.82061
366.28        16.79188
366.73        16.82378
367.18        16.86116
367.63        16.81804
368.08        16.67737
368.53        16.46188
368.98        16.24176
369.43        16.12888
369.88        16.14439
370.33        16.25295
370.78        16.36689
371.23        16.34167
371.68         16.1438
372.13         15.8219
372.58        15.47053
373.03        15.23871
373.48        15.16605
373.93        15.20698
374.38        15.29176
374.83        15.30869
375.28        15.22525
375.72        15.07407
376.17         14.9094
376.62        14.79018
377.07        14.73319
377.52        14.71593
377.97        14.70878
378.42        14.67064
378.87        14.59056
379.32        14.48064
379.77        14.37257
380.22        14.30974
380.67        14.29639
381.11        14.32187
381.56        14.33212
382.01        14.25263
382.46         14.0765
382.91        13.84258
383.36        13.61572
383.81        13.48211
384.26        13.45563
384.71        13.50549
385.15        13.59297
385.60        13.65697
386.05        13.67246
386.50        13.65867
386.95        13.62013
387.40        13.56537
387.85        13.50254
388.29        13.41843
388.74        13.34578
389.19        13.30276
389.64        13.28934
390.09         13.2974
390.54        13.30408
390.98        13.26667
391.43        13.18696
391.88          13.081
392.33        12.97036
392.78        12.88429
393.23        12.83108
393.67         12.7959
394.12         12.7859
394.57        12.78654
395.02        12.79138
395.47         12.7965
395.91        12.80348
396.36        12.80479
396.81        12.80538
397.26        12.80861
397.71        12.79769
398.15        12.75747
398.60        12.70565
399.05        12.59607
399.50        12.47644
399.95         12.5069
400.39        12.65368
400.84        12.67556
401.29        12.55714
401.74        12.47174
402.18        12.42203
402.63        12.29397
403.08         12.1256
403.53        12.03062
403.97        12.02529
404.42        12.08101
404.87         12.1566
405.32        12.18369
405.76        12.14304
406.21         12.0598
406.66        11.97735
407.11        11.96454
407.55        12.03871
408.00        12.17312
408.45        12.31342
408.90         12.3584
409.34        12.28224
409.79        12.12098
410.24        11.94607
410.68         11.8549
411.13        11.87022
411.58        11.95969
412.03        12.06762
412.47        12.09723
412.92        12.01882
413.37        11.87524
413.81        11.71426
414.26        11.60944
414.71        11.57423
415.15        11.58692
415.60        11.62589
416.05        11.66323
416.49        11.68647
416.94        11.70535
417.39        11.71867
417.83        11.72181
418.28         11.7148
418.73         11.6934
419.17        11.66979
419.62        11.66755
420.07         11.6893
420.51        11.72333
420.96        11.75301
421.41         11.7496
421.85        11.70381
422.30        11.62567
422.74        11.52451
423.19        11.46564
423.64        11.43772
424.08        11.36683
424.53        11.26346
424.98        11.23587
425.42        11.29761
425.87        11.36508
426.31        11.41847
426.76        11.51035
427.21        11.59621
427.65        11.52215
428.10        11.33978
428.54        11.25087
428.99        11.27881
429.44        11.36021
429.88        11.44614
430.33        11.41811
430.77        11.30269
431.22        11.32028
431.66        11.45652
432.11        11.48575
432.56        11.40428
433.00        11.37241
433.45        11.35508
433.89        11.21679
434.34        11.05161
434.78         10.7987
435.23        11.06005
435.67        11.11001
436.12        11.09667
436.57         11.0553
437.01        11.00334
437.46        10.97514
437.90        10.97096
438.35        10.94757
438.79        10.90886
439.24        10.89848
439.68        10.91875
440.13        10.95728
440.57        10.99762
441.02         11.0228
441.46        11.02661
441.91        10.98728
442.35        10.92389
442.80        10.97041
443.24         11.0832
443.69        11.06555
444.13        10.93705
444.58        10.90497
445.02        10.97392
445.47        11.03376
445.91        11.05896
446.36        11.06365
446.80        11.04008
447.24        10.98671
447.69        10.92657
448.13        10.89049
448.58          10.889
449.02        10.91263
449.47        10.94523
449.91        10.95523
450.36         10.9386
450.80        10.90419
451.25        10.87045
451.69        10.85989
452.13          10.877
452.58        10.90847
453.02         10.9403
453.47        10.95275
453.91        10.94028
454.36        10.91425
454.80        10.87228
455.24        10.80908
455.69        10.73274
456.13        10.63743
456.58         10.5605
457.02        10.53931
457.46        10.58253
457.91        10.67772
458.35        10.77105
458.79        10.77744
459.24         10.6937
459.68        10.54171
460.13        10.39631
460.57        10.33987
461.01        10.39704
461.46        10.52852
461.90         10.6893
462.34         10.7925
462.79        10.80693
463.23        10.76379
463.68        10.68144
464.12        10.59933
464.56        10.53361
465.01         10.4843
465.45        10.44245
465.89        10.42723
466.34        10.43713
466.78        10.46769
467.22         10.5087
467.67        10.52876
468.11        10.52536
468.55        10.50133
468.99        10.46836
469.44        10.44548
469.88        10.43948
470.32        10.44505
470.77        10.45978
471.21        10.48198
471.65        10.50806
472.10        10.54086
472.54        10.57444
472.98        10.60352
473.42        10.62661
473.87        10.64748
474.31        10.66136
474.75        10.67332
475.20        10.68662
475.64        10.69416
476.08        10.70204
476.52        10.71383
476.97        10.72959
477.41        10.75449
477.85        10.78145
478.29        10.78222
478.74        10.76439
479.18         10.7619
479.62        10.77799
480.06        10.80192
480.50        10.83393
480.95        10.86323
481.39        10.87908
481.83        10.97218
482.27        10.98293
482.72        11.05044
483.16         11.1141
483.60        11.14747
484.04        11.13595
484.48        11.11987
484.93        11.21282
485.37        11.24985
485.81        11.44104
486.25        11.89256
486.69         11.5242
487.14        11.19638
487.58        12.09945
488.02        12.19583
488.46        11.83075
488.90        11.88844
489.34        11.72356
489.79        11.88299
490.23        12.06668
490.67        12.22019
491.11        12.29017
491.55        12.25913
491.99         12.1843
492.43        12.20196
492.88        12.33084
493.32        12.47751
493.76         12.6094
494.20         12.7307
494.64         12.8349
495.08        12.89409
495.52         12.9232
495.96        13.03366
496.41         13.2054
496.85        13.23122
497.29        13.14094
497.73        13.29046
498.17        13.48591
498.61        13.63876
499.05        13.67611
499.49        13.73617
499.93         13.7935
500.37        13.91688
500.82        14.07481
501.26        14.17835
501.70        14.21847
502.14        14.25322
502.58        14.30454
503.02        14.37781
503.46         14.4781
503.90        14.60296
504.34        14.72953
504.78        14.81906
505.22        14.86144
505.66        14.86746
506.10        14.85843
506.54        14.86893
506.98        14.90977
507.42        14.97266
507.86        15.04429
508.30        15.10287
508.74        15.14165
509.18        15.16602
509.62        15.18925
510.06        15.23192
510.50        15.29714
510.94        15.37732
511.38        15.45134
511.82        15.48627
512.26        15.47678
512.70        15.43521
513.14        15.38889
513.58        15.38135
514.02        15.42381
514.46         15.5031
514.90        15.59632
515.34        15.66649
515.78        15.70156
516.22         15.7106
516.66        15.70684
517.10        15.71175
517.54        15.73093
517.98        15.75673
518.42        15.77685
518.86        15.77325
519.30        15.74356
519.74        15.69643
520.18        15.64831
520.62        15.62296
521.06        15.62606
521.50         15.6507
521.93        15.68382
522.37        15.69733
522.81        15.68643
523.25        15.65825
523.69        15.62395
524.13        15.60129
524.57        15.59304
525.01        15.58974
525.45        15.58268
525.89        15.55936
526.32        15.51421
526.76         15.4567
527.20        15.38704
527.64        15.30599
528.08        15.21815
528.52        15.12673
528.96        15.04285
529.40         14.9827
529.83        14.94967
530.27        14.94038
530.71         14.9442
531.15        14.94466
531.59         14.9353
532.03        14.91668
532.46        14.89067
532.90        14.87221
533.34        14.86057
533.78        14.84362
534.22        14.81312
534.66        14.77539
535.09        14.72029
535.53         14.6203
535.97        14.49988
536.41        14.43409
536.85        14.43253
537.28        14.46134
537.72        14.50654
538.16        14.55455
538.60        14.59628
539.04        14.63631
539.47        14.67023
539.91         14.7009
540.35         14.7282
540.79         14.7523
541.22        14.78286
541.66        14.84194
542.10        14.93025
542.54        15.04072
542.97         15.1584
543.41        15.26534
543.85        15.35408
544.29        15.43199
544.72        15.50146
545.16        15.57796
545.60        15.66373
546.04        15.75778
546.47        15.86527
546.91        15.99091
547.35         16.1315
547.79        16.28461
548.22        16.43956
548.66        16.57633
549.10        16.71096
549.53        16.84066
549.97        16.96956
550.41        17.06584
550.84        17.14837
551.28        17.26226
551.72        17.39604
552.15        17.54538
552.59        17.72907
553.03        17.68858
553.46        17.94817
553.90        18.03328
554.34        18.09913
554.77        18.14958
555.21        18.20949
555.65        18.30276
556.08        18.42525
556.52        18.55805
556.96        18.67546
557.39        18.78901
557.83         18.8786
558.27         18.8489
558.70        18.73985
559.14        18.72767
559.57        18.81452
560.01         18.8943
560.45        18.95679
560.88        19.03887
561.32        19.14281
561.75        19.25805
562.19         19.3726
562.63        19.41617
563.06        19.40566
563.50        19.45529
563.93        19.54747
564.37        19.61393
564.80        19.66409
565.24        19.70657
565.68        19.70024
566.11        19.98521
566.55        19.84544
566.98        19.87549
567.42        19.91634
567.85        20.05488
568.29        20.28785
568.72         20.5486
569.16        20.81899
569.60        20.99393
570.03        21.13631
570.47         21.2353
570.90        21.34568
571.34        21.28804
571.77        21.50599
572.21        21.64947
572.64        21.80532
573.08        21.92938
573.51         22.0544
573.95        22.14957
574.38        22.23513
574.82         22.4953
