SpectraSmart Spectrum 2.9.0.0
--------- Device Information -----------
Spectrum Name :  反射率_0
Saving Time :  2024/04/26 23:32:48
Spectro-Module Model Name : SE2030-DUVN
Spectro-Module Serial Number : OS361AC55029948
Wavelength Start : 200
Wavelength End : 1025
Wavelength Unit : Wavelength(nm)
Spectrum Unit : Reflectance(%)
-----------Spectrum Setting ------------
Integration Time : 20ms
Average : 10
Boxcar : 0
Background removal :  enabled
linearity correction :  enabled
SC :  disabled
Intensity correction :  disabled
DWT denoise :  enabled
savitzky-golay :  disabled
FFT :  disabled
Running average :  disabled
Kalman :  disabled
High pass :  disabled
---------------BEGIN--------------------
Wavelength(nm)             Reflectance(%)
200.29               0
200.75        26.19856
201.21        22.26834
201.67        18.47952
202.13        16.79113
202.58        17.21685
203.04        19.74806
203.50        23.02836
203.96        22.91671
204.42        17.10251
204.88        6.159845
205.34        -4.59001
205.80       -5.827325
206.26         3.34891
206.72        18.02026
207.18        31.15804
207.64        37.48172
208.10        37.07308
208.55         31.0664
209.01        20.08108
209.47        12.99432
209.93        15.52476
210.39        22.41004
210.85        28.34684
211.31        31.11117
211.77        31.09379
212.23        28.20799
212.69        20.85269
213.14        17.48168
213.60        31.76599
214.06        45.46668
214.52        49.64289
214.98        47.77948
215.44         42.4476
215.90        34.32568
216.36        26.02222
216.81        21.58128
217.27        22.77366
217.73        30.01058
218.19        41.38605
218.65        45.18646
219.11        37.56749
219.57         26.7099
220.02         20.3289
220.48        22.26026
220.94        32.42902
221.40        52.18474
221.86        81.17426
222.32        101.2533
222.77        95.92826
223.23        76.75843
223.69        57.60196
224.15        46.57864
224.61        42.30474
225.06        40.93227
225.52        41.02364
225.98         41.1738
226.44        41.05306
226.90        41.32647
227.36        41.67244
227.81        41.38961
228.27        40.54211
228.73         39.0936
229.19        37.94633
229.65        38.24862
230.10        39.94969
230.56        42.70766
231.02        45.20198
231.48        45.33265
231.93        42.92693
232.39        39.20272
232.85        35.75441
233.31        34.63986
233.77        36.02058
234.22        39.15041
234.68        42.85278
235.14        45.38642
235.60        46.19343
236.05        45.76485
236.51        44.57677
236.97        43.68117
237.43        43.56923
237.88        43.91735
238.34        44.50005
238.80        45.20786
239.26        46.03415
239.71        47.52969
240.17        49.48699
240.63        51.47057
241.08        53.23205
241.54        54.17396
242.00        55.31407
242.46        59.13629
242.91        67.66702
243.37        82.39117
243.83        103.2785
244.28        119.2409
244.74        115.4967
245.20        93.54527
245.66        68.55678
246.11        52.83748
246.57          46.594
247.03        45.92392
247.48        48.22205
247.94         49.1274
248.40        47.92254
248.85        46.35418
249.31        45.32412
249.77        45.00167
250.22         45.1409
250.68        45.30184
251.14        45.34482
251.59        45.20924
252.05        45.16677
252.51         45.6995
252.96        45.65111
253.42        44.11087
253.88        41.49469
254.33        38.24352
254.79        36.58842
255.25        38.26985
255.70        42.88606
256.16        49.54489
256.62        55.38586
257.07        56.07803
257.53         52.7163
257.99        48.01987
258.44        44.19461
258.90        43.23214
259.35        44.26231
259.81        46.45491
260.27        48.58371
260.72        49.18545
261.18        48.38332
261.63        46.69112
262.09        45.09351
262.55        44.20635
263.00        43.95168
263.46        44.11561
263.91           44.14
264.37        43.57094
264.83        42.39507
265.28        40.87445
265.74          39.534
266.19         38.7606
266.65        38.64634
267.11        38.92862
267.56        39.35278
268.02        39.51631
268.47        39.29526
268.93        38.84704
269.38        38.22644
269.84          37.568
270.30        36.91903
270.75        36.21857
271.21        35.57847
271.66        35.13163
272.12        34.88511
272.57        34.77721
273.03        34.64655
273.48        34.21258
273.94        33.47602
274.39        32.52575
274.85          31.564
275.31        30.74357
275.76        30.09526
276.22        29.59478
276.67        29.20551
277.13        28.95309
277.58        28.76954
278.04        28.66412
278.49        28.50996
278.95        28.22495
279.40        27.75091
279.86        27.18287
280.31        26.54957
280.77        25.98903
281.22         25.5045
281.68        25.11936
282.13        24.79354
282.59        24.54282
283.04        24.33095
283.50        24.16442
283.95        24.03742
284.41        23.94941
284.86          23.886
285.32        23.85837
285.77        23.80387
286.22        23.69072
286.68        23.51945
287.13        23.27429
287.59        23.03151
288.04        22.87005
288.50        22.82104
288.95        22.83234
289.41        22.84254
289.86        22.70277
290.32        22.42628
290.77        22.06039
291.22        21.71261
291.68        21.52656
292.13        21.52901
292.59        21.68885
293.04        21.94882
293.50        22.23814
293.95        22.51569
294.40        22.79556
294.86        23.09007
295.31        23.41103
295.77        23.76343
296.22        24.13021
296.68        24.48064
297.13        24.76187
297.58        24.97611
298.04         25.1432
298.49        25.32826
298.95        25.64679
299.40        26.10535
299.85        26.66135
300.31        27.21745
300.76         27.6178
301.21        27.82939
301.67        27.91302
302.12        27.92613
302.58        28.00782
303.03        28.17107
303.48        28.39147
303.94        28.63317
304.39        28.81751
304.84        28.93594
305.30        29.02431
305.75        29.09123
306.20        29.19298
306.66        29.34346
307.11        29.50731
307.57        29.65676
308.02        29.71614
308.47        29.68032
308.93        29.57573
309.38        29.43865
309.83        29.36407
310.29         29.3684
310.74         29.4211
311.19        29.45641
311.65         29.3633
312.10        29.12224
312.55        28.77976
313.00         28.4278
313.46        28.19879
313.91        28.11035
314.36        28.12651
314.82        28.17461
315.27        28.14435
315.72        28.00193
316.18         27.7908
316.63        27.55025
317.08        27.35423
317.53        27.21978
317.99        27.11095
318.44        27.01007
318.89        26.88314
319.35        26.71779
319.80         26.5292
320.25        26.31542
320.70        26.06931
321.16        25.79648
321.61        25.51324
322.06        25.23917
322.51        25.01079
322.97        24.83366
323.42        24.69591
323.87        24.59864
324.32         24.5451
324.78        24.51768
325.23        24.53074
325.68        24.50939
326.13         24.3381
326.59        24.00197
327.04        23.54404
327.49        23.09029
327.94        22.84318
328.39        22.83989
328.85        23.01377
329.30        23.25269
329.75        23.30289
330.20         23.0921
330.66        22.69986
331.11        22.24793
331.56        21.91404
332.01        21.75708
332.46        21.71345
332.92          21.744
333.37        21.82012
333.82        21.89592
334.27        21.98767
334.72        22.04479
335.17        21.97627
335.63        21.76902
336.08        21.46019
336.53        21.12022
336.98        20.88382
337.43        20.79165
337.88        20.80332
338.34        20.89088
338.79        21.01902
339.24        21.14814
339.69        21.28985
340.14        21.38078
340.59        21.31998
341.05        21.10682
341.50        20.77088
341.95        20.41951
342.40        20.22333
342.85        20.22099
343.30        20.36108
343.75        20.56746
344.20        20.70992
344.66        20.74854
345.11        20.72301
345.56        20.65496
346.01        20.57958
346.46        20.51814
346.91        20.45669
347.36        20.41567
347.81        20.43427
348.26         20.5137
348.72        20.64235
349.17        20.78291
349.62        20.88298
350.07        20.92602
350.52        20.92773
350.97        20.88999
351.42        20.82045
351.87        20.72996
352.32        20.61648
352.77        20.51098
353.22        20.45973
353.67        20.46571
354.13        20.51666
354.58         20.5668
355.03        20.54131
355.48        20.42609
355.93        20.25275
356.38        20.06246
356.83        19.91697
357.28        19.83101
357.73         19.7772
358.18         19.7497
358.63        19.74021
359.08        19.73593
359.53        19.74037
359.98         19.7135
360.43        19.59176
360.88         19.3702
361.33          19.069
361.78        18.75391
362.23        18.53534
362.68         18.4404
363.13        18.43791
363.58         18.4687
364.03        18.43558
364.48        18.31351
364.93        18.13496
365.38        17.93885
365.83        17.78922
366.28        17.70552
366.73         17.6614
367.18        17.63802
367.63         17.6095
368.08        17.56293
368.53        17.50657
368.98        17.43462
369.43        17.33507
369.88        17.20851
370.33        17.05842
370.78        16.89834
371.23        16.75458
371.68        16.63709
372.13        16.54121
372.58        16.46513
373.03        16.40215
373.48        16.34631
373.93        16.29797
374.38        16.24502
374.83        16.16917
375.28        16.06656
375.72        15.93578
376.17        15.80173
376.62        15.68243
377.07        15.58421
377.52        15.50502
377.97        15.43405
378.42         15.3544
378.87        15.26462
379.32        15.17023
379.77        15.08962
380.22        15.04866
380.67        15.04674
381.11        15.07492
381.56        15.09492
382.01        15.05892
382.46        14.95883
382.91        14.81836
383.36        14.66701
383.81        14.54327
384.26         14.4558
384.71        14.39117
385.15        14.34744
385.60        14.32601
386.05        14.32081
386.50        14.33265
386.95        14.34054
387.40          14.312
387.85         14.2434
388.29        14.13573
388.74        14.03139
389.19        13.95872
389.64        13.92041
390.09        13.90103
390.54         13.8792
390.98        13.81744
391.43        13.71907
391.88        13.60159
392.33        13.47961
392.78        13.37071
393.23        13.28276
393.67        13.20505
394.12         13.1566
394.57        13.13951
395.02        13.14955
395.47        13.17693
395.91        13.21057
396.36        13.22132
396.81        13.20911
397.26        13.18505
397.71        13.14364
398.15        13.08679
398.60        13.03564
399.05        12.93518
399.50        12.82786
399.95        12.86936
400.39        13.02285
400.84        13.04515
401.29        12.91963
401.74        12.82277
402.18        12.75867
402.63        12.60924
403.08        12.42313
403.53        12.33308
403.97        12.35523
404.42        12.45154
404.87        12.56316
405.32        12.59317
405.76        12.51687
406.21        12.37274
406.66        12.21365
407.11        12.12248
407.55        12.12293
408.00        12.18212
408.45         12.2617
408.90         12.2885
409.34        12.24066
409.79        12.14814
410.24        12.04457
410.68        11.97073
411.13        11.94042
411.58        11.93505
412.03        11.94137
412.47        11.94085
412.92        11.92139
413.37        11.89485
413.81        11.86001
414.26        11.82227
414.71        11.77934
415.15        11.73081
415.60        11.67954
416.05        11.64198
416.49        11.62472
416.94        11.62557
417.39        11.63442
417.83        11.63319
418.28        11.61618
418.73        11.58469
419.17        11.55511
419.62        11.55453
420.07        11.58563
420.51        11.63482
420.96        11.67463
421.41        11.66128
421.85        11.58578
422.30        11.46451
422.74        11.32614
423.19         11.2641
423.64        11.27018
424.08        11.25969
424.53        11.22232
424.98        11.22943
425.42        11.28459
425.87         11.3195
426.31        11.32292
426.76        11.36041
427.21        11.39608
427.65        11.27337
428.10        11.06602
428.54        11.00538
428.99         11.1132
429.44        11.31466
429.88        11.51724
430.33        11.53296
430.77        11.37896
431.22        11.30168
431.66        11.32625
432.11        11.29552
432.56        11.22668
433.00         11.2588
433.45        11.33446
433.89        11.27009
434.34        11.13729
434.78         10.8886
435.23        11.14159
435.67         11.1787
436.12        11.15497
436.57        11.10021
437.01        11.03059
437.46        10.98135
437.90        10.95456
438.35        10.91043
438.79        10.85829
439.24        10.84697
439.68        10.87912
440.13        10.94028
440.57        11.00594
441.02        11.04584
441.46          11.049
441.91        10.99531
442.35        10.91229
442.80        10.94529
443.24        11.05293
443.69        11.03798
444.13        10.91014
444.58        10.86026
445.02        10.89217
445.47         10.9029
445.91        10.88708
446.36         10.8888
446.80        10.90368
447.24        10.91699
447.69        10.92819
448.13        10.93099
448.58        10.92681
449.02        10.91981
449.47        10.90503
449.91        10.86966
450.36        10.81761
450.80        10.75019
451.25        10.69461
451.69        10.68711
452.13        10.73164
452.58        10.81361
453.02        10.89387
453.47        10.91088
453.91        10.85225
454.36         10.7412
454.80        10.61117
455.24        10.51511
455.69        10.47267
456.13        10.45829
456.58        10.47129
457.02          10.493
457.46        10.51938
457.91        10.55541
458.35        10.57617
458.79        10.54201
459.24        10.46082
459.68        10.33961
460.13        10.22882
460.57        10.17646
461.01        10.20072
461.46        10.27487
461.90        10.37694
462.34        10.45747
462.79          10.495
463.23        10.50785
463.68        10.49075
464.12        10.44409
464.56        10.37429
465.01        10.29581
465.45        10.21818
465.89        10.18461
466.34        10.19843
466.78        10.24573
467.22        10.30942
467.67         10.3471
468.11        10.35124
468.55        10.32963
468.99        10.29334
469.44        10.25923
469.88        10.23586
470.32        10.21911
470.77        10.21335
471.21        10.22841
471.65        10.26266
472.10        10.31396
472.54        10.37013
472.98        10.41642
473.42        10.44564
473.87        10.46114
474.31        10.45716
474.75        10.43708
475.20        10.40712
475.64        10.36708
476.08        10.32416
476.52        10.28253
476.97        10.24746
477.41        10.22634
477.85        10.23112
478.29        10.26381
478.74        10.33146
479.18        10.45123
479.62        10.59401
480.06        10.69806
480.50        10.75036
480.95        10.75628
481.39         10.7226
481.83        10.76559
482.27         10.7379
482.72        10.76954
483.16        10.80779
483.60        10.82535
484.04        10.80529
484.48        10.81901
484.93        10.94603
485.37        10.94577
485.81        11.08717
486.25        11.54361
486.69        11.19925
487.14        11.08869
487.58        11.83838
488.02        11.62133
488.46        11.50061
488.90        11.56455
489.34        11.41919
489.79        11.49822
490.23        11.56166
490.67        11.71366
491.11        11.88451
491.55        11.91674
491.99        11.84135
492.43        11.85107
492.88        11.96082
493.32        12.04358
493.76        12.09451
494.20        12.17992
494.64        12.30411
495.08        12.42191
495.52         12.5251
495.96        12.68379
496.41        12.86606
496.85        12.88198
497.29        12.76989
497.73        12.88858
498.17        13.05519
498.61        13.18039
499.05        13.19565
499.49        13.23836
499.93        13.28556
500.37        13.40507
500.82         13.5663
501.26        13.68124
501.70        13.73865
502.14        13.79209
502.58        13.86002
503.02        13.94417
503.46        14.04764
503.90        14.16856
504.34        14.28244
504.78        14.34876
505.22        14.35953
505.66        14.32823
506.10        14.28444
506.54        14.27504
506.98         14.3132
507.42        14.38686
507.86        14.47619
508.30         14.5476
508.74        14.59058
509.18        14.61476
509.62        14.63335
510.06         14.6675
510.50        14.72166
510.94        14.78618
511.38        14.84799
511.82        14.88763
512.26         14.9011
512.70        14.89727
513.14        14.88712
513.58        14.88755
514.02        14.90412
514.46        14.93076
514.90        14.96541
515.34        15.00445
515.78        15.04481
516.22        15.08831
516.66         15.1264
517.10        15.14522
517.54        15.14266
517.98         15.1208
518.42        15.09381
518.86        15.08594
519.30        15.10074
519.74        15.12939
520.18        15.15491
520.62        15.14958
521.06        15.10883
521.50        15.04591
521.93         14.9751
522.37        14.91359
522.81        14.87234
523.25         14.8443
523.69        14.83378
524.13        14.84762
524.57        14.88067
525.01        14.92674
525.45        14.96406
525.89         14.9573
526.32         14.8982
526.76        14.80308
527.20        14.68938
527.64          14.587
528.08        14.50762
528.52        14.44424
528.96        14.40016
529.40        14.37927
529.83         14.3778
530.27        14.39437
530.71        14.41141
531.15        14.40085
531.59        14.35655
532.03        14.28519
532.46        14.19994
532.90         14.1338
533.34        14.09322
533.78        14.06318
534.22        14.03709
534.66         14.0212
535.09         14.0029
535.53        13.95494
535.97          13.889
536.41        13.85865
536.85        13.86925
537.28        13.89191
537.72        13.92404
538.16         13.9718
538.60        14.03088
539.04        14.09877
539.47        14.16203
539.91        14.20988
540.35        14.23786
540.79        14.24963
541.22        14.25929
541.66        14.29533
542.10        14.36125
542.54        14.44981
542.97        14.54287
543.41        14.61678
543.85        14.66613
544.29        14.70379
544.72        14.74233
545.16        14.81132
545.60        14.91457
546.04        15.04351
546.47        15.19452
546.91        15.35795
547.35        15.52386
547.79        15.69283
548.22        15.85032
548.66        15.97178
549.10        16.07431
549.53        16.15679
549.97        16.23713
550.41          16.308
550.84        16.39271
551.28        16.52903
551.72        16.69071
552.15        16.84793
552.59        17.01257
553.03        16.94441
553.46        17.15952
553.90        17.22448
554.34        17.29219
554.77        17.35845
555.21        17.43603
555.65         17.5303
556.08         17.6344
556.52        17.73926
556.96        17.82789
557.39        17.92288
557.83        18.00732
558.27        17.98192
558.70        17.88804
559.14        17.89971
559.57        18.01742
560.01        18.13907
560.45        18.23238
560.88        18.30504
561.32        18.35906
561.75        18.37702
562.19        18.38642
562.63        18.42626
563.06        18.50206
563.50        18.60245
563.93        18.70013
564.37        18.80093
564.80        18.90534
565.24        18.96859
565.68        18.95563
566.11        19.22339
566.55        19.08582
566.98        19.11847
567.42        19.15858
567.85        19.25164
568.29        19.40834
568.72        19.62567
569.16        19.89314
569.60        20.08433
570.03        20.26014
570.47        20.40984
570.90        20.56094
571.34         20.6005
571.77        20.76572
572.21        20.89521
572.64        21.01234
573.08        21.11681
573.51        21.22663
573.95        21.35101
574.38        21.51286
574.82         21.6437
