SpectraSmart Spectrum 2.9.0.0
--------- Device Information -----------
Spectrum Name :  反射率_0
Saving Time :  2024/04/26 23:37:56
Spectro-Module Model Name : SE2030-DUVN
Spectro-Module Serial Number : OS361AC55029948
Wavelength Start : 200
Wavelength End : 1025
Wavelength Unit : Wavelength(nm)
Spectrum Unit : Reflectance(%)
-----------Spectrum Setting ------------
Integration Time : 20ms
Average : 10
Boxcar : 0
Background removal :  enabled
linearity correction :  enabled
SC :  disabled
Intensity correction :  disabled
DWT denoise :  enabled
savitzky-golay :  disabled
FFT :  disabled
Running average :  disabled
Kalman :  disabled
High pass :  disabled
---------------BEGIN--------------------
Wavelength(nm)             Reflectance(%)
200.29               0
200.75        29.63029
201.21        30.70864
201.67        31.77447
202.13         32.0118
202.58        31.26359
203.04        29.86339
203.50        28.37214
203.96        28.42428
204.42        31.03555
204.88         35.9066
205.34         41.2991
205.80        44.05062
206.26        43.40553
206.72        40.54306
207.18        37.52778
207.64        36.14534
208.10        36.62272
208.55        39.07987
209.01         42.9911
209.47        45.52795
209.93        44.97497
210.39        43.13441
210.85        42.22029
211.31        43.98189
211.77        49.59625
212.23        62.88914
212.69        96.43143
213.14        153.9382
213.60        152.7503
214.06        113.2727
214.52        86.31676
214.98         74.2842
215.44        69.22166
215.90        66.23968
216.36        64.57865
216.81        63.77593
217.27        63.95885
217.73        66.68688
218.19        71.25156
218.65        72.38396
219.11        68.98766
219.57        64.08032
220.02        62.06001
220.48        66.62051
220.94        78.17697
221.40        98.67928
221.86        127.6924
222.32        146.6557
222.77        139.3336
223.23        118.2971
223.69        97.51738
224.15        84.85584
224.61        79.00854
225.06        76.21392
225.52        75.69708
225.98        76.43295
226.44        78.00587
226.90        80.85799
227.36        83.99838
227.81        85.45456
228.27        85.06567
228.73        83.18724
229.19        81.55219
229.65         82.3616
230.10        85.57838
230.56        90.44128
231.02        94.90154
231.48        95.74453
231.93        92.56622
232.39        87.28973
232.85        81.94714
233.31        79.12075
233.77        79.10663
234.22        80.96624
234.68        83.61684
235.14        85.46489
235.60        85.94411
236.05        85.59515
236.51        84.53957
236.97        83.26522
237.43        82.06827
237.88        80.78013
238.34        79.45372
238.80        78.53827
239.26         78.1237
239.71        78.63819
240.17        79.56618
240.63        80.24998
241.08        80.46577
241.54        79.88175
242.00         79.5179
242.46        81.30865
242.91        86.93971
243.37        96.97652
243.83        112.3395
244.28        127.7126
244.74        132.4038
245.20        124.2621
245.66        110.0265
246.11        96.34143
246.57        84.40888
247.03        72.65299
247.48        60.91902
247.94        51.27095
248.40        45.79707
248.85        43.68241
249.31         43.6176
249.77        44.22374
250.22        45.05383
250.68        46.25463
251.14        48.27818
251.59        51.51675
252.05        55.48119
252.51        59.57168
252.96        61.54381
253.42        60.13345
253.88        56.35583
254.33        51.29493
254.79        48.35586
255.25        50.28455
255.70        56.63984
256.16        66.14674
256.62        75.04565
257.07        77.42171
257.53        74.31854
257.99        69.14623
258.44        64.79042
258.90         63.9517
259.35        65.55157
259.81        68.59505
260.27        71.44372
260.72        72.13194
261.18        70.92395
261.63        68.53552
262.09        66.39265
262.55        65.39448
263.00         65.3996
263.46        66.07988
263.91         66.5994
264.37        66.29573
264.83        65.09939
265.28        63.37125
265.74         61.8108
266.19        60.90374
266.65        60.79649
267.11        61.13992
267.56        61.63495
268.02        61.83303
268.47        61.57428
268.93        61.04933
269.38        60.28144
269.84        59.37917
270.30        58.39242
270.75        57.27619
271.21        56.21576
271.66         55.4257
272.12        54.94228
272.57        54.67234
273.03        54.42121
273.48        53.83646
273.94        52.91323
274.39         51.7348
274.85        50.54693
275.31        49.50712
275.76        48.63868
276.22        47.94053
276.67        47.32283
277.13        46.79862
277.58        46.27345
278.04        45.77391
278.49        45.22406
278.95        44.66251
279.40        44.01841
279.86          43.379
280.31        42.62672
280.77        41.74465
281.22        40.71132
281.68        39.65577
282.13        38.67674
282.59        38.02403
283.04        37.66785
283.50        37.54324
283.95        37.49594
284.41        37.31032
284.86        36.91853
285.32        36.42296
285.77        35.86678
286.22        35.38464
286.68        35.00779
287.13        34.65253
287.59        34.32434
288.04        33.98303
288.50        33.64622
288.95         33.2985
289.41        32.95098
289.86        32.53159
290.32        32.07905
290.77        31.59982
291.22        31.15316
291.68        30.80931
292.13        30.57138
292.59        30.43186
293.04        30.37733
293.50         30.4135
293.95         30.5134
294.40        30.66865
294.86        30.83976
295.31        30.95389
295.77        31.00781
296.22        31.02177
296.68        31.03089
297.13         31.0742
297.58        31.17992
298.04        31.34034
298.49        31.58067
298.95        31.95547
299.40        32.44929
299.85        33.03777
300.31        33.63907
300.76        34.11632
301.21        34.44056
301.67        34.65747
302.12        34.81085
302.58        35.03315
303.03        35.32928
303.48        35.68385
303.94        36.06121
304.39        36.37318
304.84        36.61577
305.30        36.82523
305.75         37.0226
306.20        37.29242
306.66        37.65135
307.11         38.0507
307.57        38.43472
308.02        38.67105
308.47        38.75282
308.93        38.73106
309.38        38.67936
309.83        38.76122
310.29        39.00891
310.74        39.36806
311.19        39.74144
311.65        39.96192
312.10        39.98323
312.55        39.85907
313.00        39.69125
313.46        39.63415
313.91         39.7071
314.36         39.8634
314.82        40.01853
315.27        40.04934
315.72        39.91905
316.18        39.68744
316.63        39.40121
317.08         39.1469
317.53        38.95295
317.99        38.78732
318.44         38.6498
318.89        38.52805
319.35        38.41322
319.80        38.31353
320.25        38.20734
320.70        38.05762
321.16        37.85331
321.61        37.60904
322.06        37.34568
322.51        37.10781
322.97        36.90047
323.42        36.71284
323.87        36.53003
324.32        36.33266
324.78        36.10136
325.23        35.87175
325.68        35.61071
326.13         35.2774
326.59        34.88054
327.04        34.44933
327.49        34.06341
327.94        33.85108
328.39        33.82777
328.85        33.93938
329.30        34.10897
329.75        34.12616
330.20         33.9302
330.66        33.57049
331.11        33.15641
331.56        32.84266
332.01        32.67626
332.46        32.60328
332.92        32.56054
333.37        32.49298
333.82        32.35685
334.27        32.19191
334.72        32.00496
335.17        31.79742
335.63        31.57812
336.08        31.35899
336.53        31.17418
336.98        31.09752
337.43        31.13658
337.88        31.25881
338.34        31.40439
338.79        31.50068
339.24        31.50474
339.69        31.44499
340.14        31.31265
340.59        31.10199
341.05        30.84085
341.50        30.52957
341.95        30.25719
342.40        30.15887
342.85        30.25336
343.30        30.50124
343.75        30.78472
344.20        30.90599
344.66        30.81866
345.11        30.57815
345.56        30.28519
346.01        30.10541
346.46        30.08508
346.91        30.17031
347.36        30.29678
347.81        30.36906
348.26        30.35569
348.72         30.2878
349.17        30.19351
349.62        30.12576
350.07         30.0999
350.52         30.1039
350.97        30.09407
351.42        30.00643
351.87        29.83567
352.32        29.60603
352.77        29.39895
353.22        29.33083
353.67        29.41499
354.13        29.61216
354.58        29.81542
355.03          29.848
355.48        29.67025
355.93        29.34342
356.38        28.98006
356.83        28.74922
357.28        28.68848
357.73        28.73929
358.18        28.82761
358.63        28.83404
359.08        28.72137
359.53        28.53213
359.98        28.29996
360.43        28.06929
360.88        27.85596
361.33        27.64259
361.78        27.42925
362.23        27.22279
362.68        27.02724
363.13        26.85037
363.58        26.68794
364.03        26.52629
364.48        26.36049
364.93        26.19008
365.38         26.0245
365.83        25.88136
366.28        25.76429
366.73        25.66868
367.18        25.57382
367.63         25.4481
368.08        25.28517
368.53        25.09277
368.98        24.90034
369.43         24.7539
369.88        24.66331
370.33        24.61768
370.78        24.57889
371.23        24.48429
371.68        24.32062
372.13        24.10582
372.58        23.89008
373.03        23.75364
373.48        23.70938
373.93        23.72579
374.38        23.74594
374.83        23.67949
375.28        23.50795
375.72        23.26447
376.17        23.00457
376.62        22.78102
377.07        22.61513
377.52        22.48813
377.97        22.40566
378.42        22.37993
378.87        22.39974
379.32        22.45124
379.77        22.49799
380.22        22.48403
380.67        22.39493
381.11        22.25149
381.56        22.05259
382.01        21.83278
382.46        21.62119
382.91        21.42341
383.36        21.26616
383.81        21.18056
384.26        21.16223
384.71        21.19698
385.15        21.25198
385.60        21.27169
386.05        21.23548
386.50        21.15584
386.95         21.0389
387.40        20.89967
387.85        20.75224
388.29        20.58643
388.74        20.44536
389.19        20.33848
389.64        20.26562
390.09         20.2189
390.54        20.18655
390.98        20.14199
391.43        20.09043
391.88        20.03755
392.33        19.98097
392.78        19.91772
393.23        19.84943
393.67        19.76447
394.12        19.69745
394.57        19.66239
395.02        19.65693
395.47        19.66566
395.91         19.6679
396.36        19.61689
396.81        19.51866
397.26        19.40158
397.71         19.2764
398.15        19.16891
398.60        19.11244
399.05        19.01702
399.50        18.92887
399.95        19.05683
400.39        19.33943
400.84        19.41685
401.29        19.26602
401.74        19.15622
402.18        19.09504
402.63        18.90206
403.08        18.63772
403.53        18.48336
403.97        18.46349
404.42        18.53102
404.87        18.62653
405.32        18.64959
405.76        18.57228
406.21        18.43822
406.66        18.29439
407.11        18.21393
407.55        18.22074
408.00        18.28084
408.45        18.36198
408.90        18.40065
409.34        18.37504
409.79        18.30881
410.24        18.23184
410.68         18.1799
411.13        18.16611
411.58        18.17479
412.03        18.18377
412.47        18.15963
412.92         18.0906
413.37         18.0006
413.81         17.9104
414.26        17.86224
414.71        17.85815
415.15        17.89005
415.60        17.93957
416.05        17.99099
416.49        18.03445
416.94        18.06838
417.39        18.08836
417.83        18.08742
418.28        18.06337
418.73        18.01338
419.17        17.94781
419.62        17.88586
420.07        17.83574
420.51         17.7947
420.96        17.75685
421.41        17.70675
421.85        17.63759
422.30        17.54989
422.74        17.45707
423.19        17.45708
423.64        17.52563
424.08         17.5452
424.53        17.49971
424.98        17.49988
425.42        17.55524
425.87         17.5535
426.31        17.50691
426.76        17.56347
427.21        17.67631
427.65        17.59411
428.10        17.37686
428.54        17.30092
428.99        17.38774
429.44        17.54819
429.88        17.70436
430.33        17.66545
430.77        17.47476
431.22        17.47836
431.66        17.65588
432.11        17.67058
432.56        17.52098
433.00        17.45128
433.45         17.4214
433.89        17.24912
434.34        17.07499
434.78         16.7931
435.23        17.30281
435.67        17.42465
436.12        17.37996
436.57        17.23543
437.01        17.05963
437.46        16.97706
437.90        17.00526
438.35        17.05769
438.79         17.0897
439.24        17.09534
439.68        17.06388
440.13        16.99985
440.57         16.9295
441.02        16.91384
441.46        16.96152
441.91        17.00502
442.35        17.01829
442.80        17.13868
443.24        17.28586
443.69        17.17909
444.13        16.88612
444.58        16.78139
445.02        16.88841
445.47        17.01737
445.91        17.11303
446.36        17.17389
446.80        17.17812
447.24        17.13171
447.69         17.0664
448.13        17.02349
448.58        17.01929
449.02        17.03766
449.47        17.06423
449.91        17.06843
450.36        17.04775
450.80           17.01
451.25        16.97363
451.69        16.95363
452.13        16.95626
452.58        16.97279
453.02        16.98989
453.47        16.99006
453.91        16.96906
454.36        16.93592
454.80        16.89616
455.24        16.85714
455.69        16.82708
456.13        16.79072
456.58         16.7662
457.02        16.75469
457.46        16.76187
457.91         16.7852
458.35        16.79411
458.79        16.74495
459.24        16.64847
459.68        16.51229
460.13        16.39195
460.57        16.32824
461.01        16.34326
461.46        16.40751
461.90        16.50579
462.34        16.59721
462.79        16.65947
463.23        16.70889
463.68        16.72651
464.12        16.69391
464.56        16.61143
465.01        16.50619
465.45        16.39147
465.89        16.33202
466.34        16.33508
466.78        16.38062
467.22        16.44702
467.67        16.47861
468.11        16.46862
468.55        16.42648
468.99         16.3716
469.44        16.33258
469.88        16.32068
470.32        16.32673
470.77        16.34459
471.21        16.36826
471.65          16.392
472.10        16.41947
472.54        16.44816
472.98        16.47965
473.42        16.51186
473.87        16.54659
474.31        16.56701
474.75        16.56481
475.20        16.54493
475.64        16.50767
476.08        16.47179
476.52        16.45672
476.97        16.46771
477.41        16.50636
477.85        16.56881
478.29        16.62294
478.74        16.67485
479.18        16.76934
479.62        16.88333
480.06        16.95255
480.50         16.9737
480.95        16.95555
481.39        16.90671
481.83        17.00267
482.27        17.00354
482.72        17.11133
483.16        17.24104
483.60        17.33521
484.04         17.3697
484.48        17.45424
484.93        17.66211
485.37        17.57566
485.81        17.73391
486.25        18.05509
486.69        18.02276
487.14        17.83261
487.58         18.3839
488.02        18.37432
488.46        18.08671
488.90        17.93078
489.34        18.17326
489.79        18.37916
490.23        18.52645
490.67        18.64577
491.11        18.73113
491.55        18.79213
491.99        18.85018
492.43        18.92749
492.88        19.03285
493.32        19.16197
493.76        19.30463
494.20        19.45487
494.64        19.61377
495.08        19.75049
495.52        19.85814
495.96        20.04296
496.41        20.26677
496.85        20.25286
497.29        20.06432
497.73        20.24674
498.17        20.51041
498.61        20.72649
499.05        20.77751
499.49        20.85616
499.93        20.92089
500.37        21.08315
500.82        21.30038
501.26        21.44625
501.70        21.50701
502.14        21.56316
502.58        21.64295
503.02        21.74761
503.46        21.88264
503.90        22.04958
504.34        22.20865
504.78        22.29321
505.22        22.29071
505.66        22.22076
506.10        22.13909
506.54        22.13451
506.98        22.22742
507.42        22.39247
507.86        22.57587
508.30        22.68897
508.74         22.7083
509.18        22.66064
509.62        22.59413
510.06        22.58572
510.50        22.65543
510.94        22.77859
511.38         22.9142
511.82        22.99772
512.26        23.01333
512.70        22.98377
513.14        22.94538
513.58        22.95497
514.02        23.02609
514.46        23.13663
514.90        23.25518
515.34        23.33391
515.78        23.35785
516.22        23.34132
516.66         23.3021
517.10        23.26802
517.54        23.24898
517.98        23.23766
518.42        23.22549
518.86         23.1996
519.30        23.15853
519.74        23.11002
520.18        23.06631
520.62        23.04367
521.06        23.04505
521.50        23.06412
521.93        23.08879
522.37        23.09206
522.81         23.0696
523.25        23.02579
523.69        22.97189
524.13        22.92604
524.57        22.89156
525.01          22.862
525.45        22.82623
525.89         22.7667
526.32        22.67995
526.76        22.58202
527.20        22.48474
527.64        22.40716
528.08        22.35472
528.52        22.31981
528.96        22.30042
529.40         22.2935
529.83        22.29317
530.27        22.29957
530.71        22.29696
531.15        22.26346
531.59         22.1957
532.03        22.09873
532.46        21.98826
532.90        21.90554
533.34        21.85668
533.78        21.82212
534.22        21.78745
534.66        21.75558
535.09        21.70696
535.53        21.60068
535.97        21.46527
536.41        21.40062
536.85        21.41811
537.28        21.46873
537.72        21.53658
538.16        21.61172
538.60        21.68321
539.04        21.75394
539.47        21.81473
539.91        21.86636
540.35        21.90624
540.79        21.93479
541.22        21.96548
541.66         22.0287
542.10        22.12664
542.54        22.25236
542.97        22.38397
543.41        22.49522
543.85        22.57821
544.29        22.64626
544.72         22.7126
545.16        22.81348
545.60        22.95225
546.04        23.11956
546.47         23.3094
546.91         23.5069
547.35        23.70034
547.79        23.89272
548.22        24.07147
548.66        24.21308
549.10        24.34478
549.53        24.46086
549.97        24.57767
550.41        24.66686
550.84        24.76006
551.28        24.92052
551.72        25.11559
552.15        25.31149
552.59         25.5303
553.03        25.40807
553.46        25.71929
553.90        25.81503
554.34        25.92264
554.77        26.03485
555.21        26.16362
555.65        26.30615
556.08        26.44863
556.52        26.57791
556.96        26.67596
557.39        26.78785
557.83        26.89169
558.27         26.8398
558.70        26.68464
559.14        26.67096
559.57        26.79902
560.01        26.92202
560.45        27.01295
560.88        27.11452
561.32        27.23029
561.75        27.31912
562.19         27.3923
562.63        27.46208
563.06        27.52709
563.50        27.58849
563.93        27.62547
564.37        27.67825
564.80        27.76048
565.24        27.79839
565.68        27.74452
566.11        28.12921
566.55         27.9441
566.98        28.01965
567.42        28.09996
567.85         28.2396
568.29        28.44161
568.72         28.6739
569.16        28.93681
569.60        29.12778
570.03        29.35159
570.47        29.51306
570.90        29.63632
571.34        29.79344
571.77        30.00099
572.21        30.18298
572.64         30.2852
573.08        30.59236
573.51        30.56248
573.95         30.6208
574.38        30.71823
574.82        30.78049
