SpectraSmart Spectrum 2.9.0.0
--------- Device Information -----------
Spectrum Name :  反射率_0
Saving Time :  2024/04/26 23:35:56
Spectro-Module Model Name : SE2030-DUVN
Spectro-Module Serial Number : OS361AC55029948
Wavelength Start : 200
Wavelength End : 1025
Wavelength Unit : Wavelength(nm)
Spectrum Unit : Reflectance(%)
-----------Spectrum Setting ------------
Integration Time : 20ms
Average : 10
Boxcar : 0
Background removal :  enabled
linearity correction :  enabled
SC :  disabled
Intensity correction :  disabled
DWT denoise :  enabled
savitzky-golay :  disabled
FFT :  disabled
Running average :  disabled
Kalman :  disabled
High pass :  disabled
---------------BEGIN--------------------
Wavelength(nm)             Reflectance(%)
200.29               0
200.75         33.1962
201.21        30.49228
201.67        28.98204
202.13        28.97419
202.58        30.28024
203.04        33.53125
203.50        38.48658
203.96        42.93867
204.42        45.11795
204.88        44.73624
205.34        42.78138
205.80          42.133
206.26        43.39249
206.72        45.11818
207.18        46.40281
207.64        46.51108
208.10        45.39605
208.55        43.72241
209.01        40.83094
209.47        37.53164
209.93        35.90194
210.39        35.98486
210.85         37.4832
211.31        40.95116
211.77        47.84027
212.23        62.74014
212.69        100.3893
213.14        169.0577
213.60        175.6782
214.06        134.1212
214.52         102.143
214.98         84.2859
215.44         72.2749
215.90        60.86199
216.36        50.71545
216.81         43.9692
217.27        41.54658
217.73        44.14384
218.19        50.96798
218.65        54.90506
219.11         52.6859
219.57        48.08393
220.02        45.97698
220.48        50.12899
220.94        61.15287
221.40        80.87838
221.86        109.0631
222.32        128.3711
222.77        123.0361
223.23         104.323
223.69        85.93506
224.15        75.92851
224.61        72.81351
225.06        72.62225
225.52        73.92713
225.98         75.0594
226.44        75.77689
226.90        76.92896
227.36        78.28642
227.81        79.14587
228.27        79.55432
228.73        79.32703
229.19        79.42688
229.65        81.20644
230.10        84.59363
230.56        89.18705
231.02        93.36202
231.48        94.51889
231.93        92.33514
232.39        88.40153
232.85        84.44308
233.31        82.73862
233.77        83.51469
234.22        85.88792
234.68        88.89765
235.14        91.12856
235.60        92.03717
236.05        92.13383
236.51        91.22089
236.97        89.21333
237.43        86.30818
237.88        82.60173
238.34        78.78843
238.80        76.26791
239.26        75.47199
239.71        76.83495
240.17        79.78652
240.63        82.93072
241.08        85.39258
241.54        86.68445
242.00        87.85841
242.46        91.49334
242.91        99.73354
243.37        112.9643
243.83        131.2712
244.28        145.8339
244.74        143.4869
245.20        125.6037
245.66        103.5675
246.11        85.93517
246.57        73.43871
247.03        63.43373
247.48        56.77076
247.94        55.81279
248.40        59.21694
248.85        64.03594
249.31        68.24689
249.77        70.13039
250.22        69.66659
250.68        67.08839
251.14        62.31731
251.59        56.94435
252.05        53.48746
252.51        52.50036
252.96        53.00011
253.42         53.9564
253.88        55.01398
254.33        55.99664
254.79        58.32201
255.25        63.01839
255.70         69.7543
256.16        78.04093
256.62        84.89426
257.07        85.70614
257.53         81.9939
257.99        76.74221
258.44        72.43121
258.90        71.53039
259.35        72.92177
259.81        75.73757
260.27        78.52781
260.72        79.55296
261.18        78.98862
261.63        77.29479
262.09        75.65187
262.55        74.64578
263.00        74.18492
263.46        74.18067
263.91        73.97757
264.37        73.20258
264.83        71.82487
265.28        70.07793
265.74        68.63002
266.19        67.90422
266.65        68.01202
267.11        68.60144
267.56        69.28824
268.02        69.48199
268.47        69.00311
268.93        68.10477
269.38        66.89587
269.84        65.63358
270.30        64.41392
270.75        63.14738
271.21        62.03314
271.66        61.29321
272.12        60.94118
272.57        60.87325
273.03         60.7951
273.48        60.18581
273.94        59.03062
274.39        57.47722
274.85        55.89927
275.31        54.62162
275.76        53.69219
276.22         53.0453
276.67        52.53498
277.13        52.11001
277.58        51.63896
278.04        51.18064
278.49        50.62033
278.95        49.94941
279.40         49.1053
279.86        48.21321
280.31        47.22953
280.77        46.26226
281.22        45.29314
281.68        44.40371
282.13        43.62421
282.59         43.1278
283.04        42.85465
283.50        42.76859
283.95        42.70855
284.41        42.45581
284.86        41.95127
285.32        41.30544
285.77        40.59697
286.22        40.02214
286.68        39.62163
287.13        39.29464
287.59         39.0171
288.04        38.68936
288.50        38.32495
288.95        37.93208
289.41        37.54879
289.86        37.13237
290.32        36.73325
290.77        36.33261
291.22        35.99649
291.68        35.80714
292.13        35.75601
292.59          35.832
293.04        35.97715
293.50        36.12695
293.95        36.24865
294.40        36.36864
294.86        36.50386
295.31        36.66984
295.77        36.88575
296.22        37.13102
296.68        37.42673
297.13        37.78434
297.58        38.21014
298.04        38.70285
298.49        39.22196
298.95        39.72559
299.40        40.18331
299.85        40.59227
300.31        40.98245
300.76        41.38742
301.21        41.81248
301.67        42.25925
302.12        42.63948
302.58        42.89178
303.03         42.9845
303.48        42.97653
303.94        42.97683
304.39        43.09954
304.84        43.37998
305.30        43.78266
305.75        44.19312
306.20        44.49992
306.66        44.68338
307.11        44.76423
307.57        44.80183
308.02        44.82558
308.47        44.86523
308.93        44.90812
309.38        44.94525
309.83        45.02648
310.29        45.15195
310.74        45.30668
311.19        45.42954
311.65        45.41097
312.10        45.22738
312.55        44.91325
313.00        44.56833
313.46        44.34196
313.91        44.24943
314.36        44.25866
314.82        44.27427
315.27        44.15409
315.72        43.86172
316.18        43.45886
316.63        43.02566
317.08        42.70316
317.53        42.52226
317.99        42.43004
318.44        42.36427
318.89        42.21223
319.35        41.94333
319.80        41.59703
320.25        41.22106
320.70         40.8888
321.16        40.62167
321.61        40.41079
322.06        40.22401
322.51        40.01675
322.97        39.76867
323.42        39.49243
323.87        39.22799
324.32        39.04472
324.78         38.9371
325.23        38.90814
325.68        38.84444
326.13        38.57109
326.59        38.06518
327.04        37.40625
327.49        36.75848
327.94        36.38021
328.39        36.32397
328.85        36.49734
329.30        36.79064
329.75        36.92398
330.20        36.80478
330.66        36.50478
331.11        36.12793
331.56        35.81704
332.01        35.62101
332.46        35.47662
332.92        35.34893
333.37        35.24584
333.82        35.13465
334.27        35.04058
334.72        34.92673
335.17         34.7165
335.63        34.40307
336.08        34.03319
336.53        33.68195
336.98        33.48953
337.43        33.49001
337.88        33.63171
338.34        33.85295
338.79        34.08054
339.24        34.25153
339.69        34.37982
340.14        34.41757
340.59        34.29576
341.05        34.02977
341.50        33.64621
341.95        33.24646
342.40        32.98954
342.85        32.91425
343.30        32.97406
343.75        33.11651
344.20        33.24786
344.66        33.33084
345.11         33.3903
345.56        33.40181
346.01        33.32845
346.46        33.18127
346.91        32.97599
347.36        32.78036
347.81        32.70838
348.26        32.77932
348.72        32.95244
349.17        33.17078
349.62        33.35431
350.07        33.46978
350.52        33.54326
350.97        33.54706
351.42        33.44135
351.87        33.23598
352.32         32.9446
352.77        32.66018
353.22        32.52166
353.67        32.55032
354.13        32.70978
354.58         32.8956
355.03         32.9276
355.48        32.76073
355.93        32.45064
356.38        32.10127
356.83        31.86986
357.28        31.78776
357.73        31.79694
358.18         31.8163
358.63        31.71828
359.08        31.47301
359.53        31.13546
359.98        30.76263
360.43        30.43095
360.88        30.16371
361.33        29.93453
361.78        29.73471
362.23        29.55485
362.68        29.38896
363.13        29.24584
363.58        29.10982
364.03        28.95047
364.48        28.76106
364.93        28.54481
365.38        28.32502
365.83        28.14559
366.28        28.01629
366.73        27.92245
367.18        27.83727
367.63        27.71786
368.08        27.55307
368.53        27.35762
368.98        27.14875
369.43        26.95285
369.88        26.77858
370.33        26.61683
370.78        26.46257
371.23        26.31003
371.68        26.15666
372.13        26.00559
372.58        25.85718
373.03        25.70902
373.48        25.55962
373.93        25.40858
374.38        25.25319
374.83        25.09143
375.28        24.92527
375.72         24.7514
376.17        24.59356
376.62        24.45502
377.07        24.34037
377.52         24.2526
377.97        24.18334
378.42         24.1222
378.87        24.06225
379.32        23.99175
379.77        23.93127
380.22        23.91211
380.67        23.93171
381.11        23.99118
381.56        24.00571
382.01        23.86129
382.46        23.55403
382.91        23.14113
383.36        22.75186
383.81        22.56266
384.26        22.59601
384.71        22.79017
385.15        23.03606
385.60        23.15062
386.05        23.07705
386.50        22.87188
386.95        22.59945
387.40        22.36187
387.85        22.19646
388.29        22.06098
388.74        21.96606
389.19        21.87513
389.64        21.77805
390.09        21.68435
390.54         21.6049
390.98        21.54636
391.43        21.52158
391.88        21.52097
392.33        21.51817
392.78        21.47893
393.23        21.39938
393.67        21.27803
394.12        21.17212
394.57        21.12453
395.02        21.14043
395.47        21.19858
395.91        21.25764
396.36        21.23524
396.81        21.13006
397.26        20.98002
397.71        20.82653
398.15        20.74162
398.60        20.76259
399.05        20.77183
399.50        20.77789
399.95        20.95132
400.39        21.21687
400.84        21.20268
401.29        20.92528
401.74        20.74588
402.18        20.69297
402.63         20.5486
403.08          20.359
403.53         20.2896
403.97        20.35209
404.42        20.50475
404.87        20.66694
405.32        20.70459
405.76        20.58531
406.21         20.3593
406.66         20.1122
407.11         19.9789
407.55         19.9978
408.00        20.12389
408.45        20.28156
408.90        20.32668
409.34        20.22016
409.79        20.01493
410.24        19.80323
410.68         19.7083
411.13        19.75883
411.58        19.91134
412.03        20.08549
412.47        20.14412
412.92        20.04476
413.37        19.84674
413.81        19.62668
414.26        19.50845
414.71        19.51156
415.15        19.60204
415.60        19.72852
416.05         19.8197
416.49         19.8489
416.94        19.83879
417.39        19.80641
417.83        19.77417
418.28        19.75097
418.73        19.72158
419.17        19.69673
419.62        19.69868
420.07        19.72839
420.51        19.77713
420.96         19.8209
421.41        19.81478
421.85        19.74721
422.30        19.63031
422.74        19.48989
423.19        19.45182
423.64        19.49629
424.08        19.48697
424.53        19.42102
424.98        19.44416
425.42        19.56876
425.87        19.66477
426.31        19.70979
426.76        19.81318
427.21        19.90993
427.65        19.73059
428.10         19.3883
428.54        19.26284
428.99         19.3943
429.44        19.66526
429.88        19.94585
430.33         19.9559
430.77        19.72971
431.22        19.67467
431.66         19.8125
432.11        19.83749
432.56        19.76403
433.00        19.85172
433.45        19.98611
433.89        19.82749
434.34        19.50809
434.78        18.96008
435.23        19.30469
435.67        19.36099
436.12        19.40786
436.57        19.47566
437.01        19.54024
437.46        19.57154
437.90        19.54388
438.35        19.41106
438.79        19.22914
439.24        19.14829
439.68        19.19011
440.13        19.31286
440.57         19.4507
441.02        19.51408
441.46        19.47794
441.91        19.32735
442.35        19.13724
442.80        19.19753
443.24        19.43932
443.69        19.49951
444.13        19.36839
444.58        19.34075
445.02        19.41385
445.47        19.41644
445.91        19.35437
446.36        19.33072
446.80        19.34781
447.24         19.3747
447.69        19.40785
448.13        19.43462
448.58        19.45396
449.02        19.47017
449.47        19.47768
449.91        19.45516
450.36        19.40838
450.80        19.33985
451.25         19.2782
451.69        19.25534
452.13        19.27919
452.58        19.33506
453.02        19.39771
453.47        19.42853
453.91         19.4172
454.36        19.38077
454.80        19.32487
455.24        19.25863
455.69        19.19506
456.13        19.11632
456.58        19.05877
457.02        19.04761
457.46        19.09101
457.91        19.17951
458.35        19.25362
458.79        19.22377
459.24         19.0957
459.68        18.89331
460.13         18.7056
460.57        18.61755
461.01        18.66211
461.46        18.79268
461.90        18.97496
462.34        19.13473
462.79        19.23508
463.23         19.3011
463.68        19.31598
464.12        19.26669
464.56        19.15916
465.01        19.02495
465.45        18.87867
465.89        18.79373
466.34         18.7798
466.78        18.81519
467.22        18.88562
467.67        18.94394
468.11        18.98317
468.55        19.00595
468.99         19.0131
469.44         19.0043
469.88        18.98408
470.32         18.9502
470.77        18.91297
471.21        18.89423
471.65         18.8983
472.10        18.92451
472.54        18.96206
472.98        18.99916
473.42        19.02988
473.87        19.06003
474.31        19.08064
474.75        19.09666
475.20         19.1133
475.64        19.12301
476.08        19.12713
476.52         19.1182
476.97        19.09731
477.41        19.07661
477.85        19.07405
478.29        19.08976
478.74        19.14135
479.18        19.26994
479.62        19.43317
480.06        19.53033
480.50        19.55105
480.95        19.51579
481.39        19.44133
481.83        19.53985
482.27        19.53532
482.72        19.64847
483.16        19.78239
483.60        19.87474
484.04        19.91417
484.48        20.00635
484.93        20.18475
485.37        20.05549
485.81         20.3304
486.25        20.28656
486.69        20.48574
487.14        20.50467
487.58        21.10692
488.02         21.0385
488.46        20.47274
488.90        20.79777
489.34        20.99652
489.79        21.26025
490.23        21.19434
490.67        21.24027
491.11        21.38801
491.55        21.43542
491.99        21.41793
492.43        21.46271
492.88        21.58641
493.32        21.74399
493.76         21.9161
494.20        22.09571
494.64        22.28027
495.08        22.42902
495.52        22.54091
495.96        22.76028
496.41        23.03739
496.85        23.02207
497.29        22.78041
497.73        22.94877
498.17        23.19721
498.61         23.3707
499.05        23.34448
499.49        23.35487
499.93        23.36371
500.37        23.49467
500.82        23.70674
501.26        23.86881
501.70        23.96395
502.14        24.07457
502.58         24.2205
503.02        24.38469
503.46        24.56457
503.90        24.76348
504.34        24.93222
504.78        24.99096
505.22        24.92957
505.66        24.77588
506.10        24.60786
506.54        24.54925
506.98        24.62954
507.42        24.81448
507.86        25.03949
508.30        25.19485
508.74        25.24887
509.18        25.23569
509.62         25.1973
510.06        25.20139
510.50        25.26801
510.94        25.37089
511.38        25.48848
511.82        25.58994
512.26        25.66378
512.70         25.7222
513.14        25.77058
513.58         25.8147
514.02        25.85749
514.46         25.8942
514.90        25.92497
515.34        25.95284
515.78        25.97768
516.22        25.99919
516.66        26.01668
517.10        26.02732
517.54        26.03171
517.98        26.03378
518.42        26.03156
518.86        26.02208
519.30        26.00565
519.74        25.98051
520.18        25.95973
520.62        25.96336
521.06        25.99342
521.50        26.04613
521.93        26.09501
522.37        26.08738
522.81        26.01888
523.25        25.90457
523.69        25.78713
524.13        25.73312
524.57        25.75341
525.01        25.82326
525.45        25.89882
525.89        25.90934
526.32        25.83414
526.76         25.7047
527.20        25.54888
527.64        25.41195
528.08        25.31047
528.52        25.23116
528.96        25.17191
529.40        25.12973
529.83        25.09929
530.27        25.08479
530.71        25.07373
531.15        25.04633
531.59        24.99879
532.03        24.93451
532.46        24.85987
532.90        24.80465
533.34        24.77086
533.78        24.73722
534.22        24.69957
534.66        24.68191
535.09        24.66393
535.53        24.59085
535.97        24.47585
536.41        24.40311
536.85        24.38147
537.28        24.36802
537.72         24.3652
538.16         24.3945
538.60        24.45354
539.04         24.5354
539.47         24.6209
539.91        24.69656
540.35        24.75299
540.79        24.79527
541.22        24.83363
541.66        24.89386
542.10        24.97856
542.54        25.08148
542.97        25.18927
543.41        25.29167
543.85        25.38368
544.29        25.47489
544.72        25.56978
545.16        25.69189
545.60        25.84097
546.04        26.01237
546.47        26.20558
546.91        26.41446
547.35        26.62852
547.79        26.84577
548.22        27.05028
548.66        27.21326
549.10        27.36406
549.53        27.49911
549.97        27.63149
550.41        27.72044
550.84        27.80178
551.28        27.94889
551.72         28.1384
552.15        28.35439
552.59         28.6232
553.03        28.52642
553.46        28.91652
553.90        29.03771
554.34        29.14157
554.77        29.23546
555.21        29.33907
555.65        29.45877
556.08        29.58504
556.52        29.69846
556.96        29.80078
557.39        29.96423
557.83        30.16157
558.27        30.25147
558.70        30.23895
559.14        30.23475
559.57        30.26408
560.01        30.36814
560.45        30.52175
560.88        30.62229
561.32        30.67873
561.75        30.75429
562.19        30.85682
562.63        30.91325
563.06        30.93575
563.50        31.01523
563.93        31.11743
564.37        31.20645
564.80        31.29204
565.24         31.3307
565.68        31.27504
566.11        31.71344
566.55        31.51072
566.98        31.61357
567.42        31.72462
567.85        31.87446
568.29        32.07083
568.72        32.32076
569.16        32.63869
569.60        32.84805
570.03        33.05791
570.47        33.27479
570.90         33.5279
571.34        33.44159
571.77        33.68905
572.21        33.75168
572.64          33.817
573.08        33.91475
573.51        33.98236
573.95        34.20104
574.38        34.51252
574.82        34.77783
