SpectraSmart Spectrum 2.9.0.0
--------- Device Information -----------
Spectrum Name :  反射率_0
Saving Time :  2024/04/26 23:36:13
Spectro-Module Model Name : SE2030-DUVN
Spectro-Module Serial Number : OS361AC55029948
Wavelength Start : 200
Wavelength End : 1025
Wavelength Unit : Wavelength(nm)
Spectrum Unit : Reflectance(%)
-----------Spectrum Setting ------------
Integration Time : 20ms
Average : 10
Boxcar : 0
Background removal :  enabled
linearity correction :  enabled
SC :  disabled
Intensity correction :  disabled
DWT denoise :  enabled
savitzky-golay :  disabled
FFT :  disabled
Running average :  disabled
Kalman :  disabled
High pass :  disabled
---------------BEGIN--------------------
Wavelength(nm)             Reflectance(%)
200.29               0
200.75        36.68407
201.21        35.43357
201.67        35.07986
202.13        35.20783
202.58         35.6102
203.04        36.85211
203.50        39.37578
203.96        43.29512
204.42        48.25401
204.88        53.74466
205.34        58.11876
205.80        59.38121
206.26        57.33226
206.72        52.73546
207.18         47.9979
207.64        44.96797
208.10        43.54477
208.55        43.72762
209.01          44.151
209.47        41.94728
209.93        37.67786
210.39        34.14347
210.85        32.79182
211.31        34.40611
211.77        39.92676
212.23        53.28313
212.69        88.74235
213.14        157.0427
213.60        169.6752
214.06        133.1587
214.52        104.0356
214.98        89.14961
215.44        80.97394
215.90        74.07068
216.36        68.65239
216.81        66.08058
217.27        67.15079
217.73        73.67741
218.19        84.93492
218.65        91.21807
219.11        88.00143
219.57        80.54898
220.02         76.0472
220.48        79.77666
220.94        91.90789
221.40        113.9769
221.86        145.1694
222.32         164.776
222.77        155.2815
223.23        131.1632
223.69        107.8021
224.15        93.54085
224.61         86.8699
225.06        83.71476
225.52        83.12905
225.98        83.89066
226.44         85.5415
226.90        88.51809
227.36        91.93015
227.81        93.94694
228.27        94.29969
228.73        93.13718
229.19        91.98251
229.65        92.81045
230.10        95.62665
230.56        99.89408
231.02         103.642
231.48        103.8173
231.93        100.1484
232.39        94.51131
232.85        89.18091
233.31        87.09069
233.77        88.45523
234.22        92.14841
234.68        96.55925
235.14        99.20356
235.60        99.26904
236.05        97.50415
236.51        94.37965
236.97        91.31481
237.43        89.08503
237.88        87.38038
238.34        86.13924
238.80        85.51328
239.26        85.50857
239.71        86.92325
240.17        89.22042
240.63        91.41537
241.08        93.06649
241.54        93.44689
242.00        94.24271
242.46        99.29059
242.91        111.7236
243.37        133.4652
243.83        165.3033
244.28        193.2624
244.74        194.9969
245.20        169.3131
245.66        134.8906
246.11        108.1562
246.57        90.07674
247.03        76.43027
247.48        64.98898
247.94        54.85784
248.40        47.75767
248.85        44.11319
249.31        43.21435
249.77        44.07781
250.22        46.28261
250.68        49.98576
251.14        55.28046
251.59        60.75437
252.05          64.841
252.51        67.79297
252.96        68.84586
253.42        68.28999
253.88        66.85506
254.33        64.47334
254.79        64.06429
255.25        68.06603
255.70        75.87864
256.16        86.37531
256.62        95.26154
257.07        95.95596
257.53         90.3875
257.99         82.8932
258.44        76.71357
258.90        74.75533
259.35        75.74847
259.81         78.5482
260.27        81.60673
260.72        83.10078
261.18        83.09574
261.63        81.96011
262.09        80.82462
262.55        80.20187
263.00        79.98151
263.46         80.1164
263.91        79.89446
264.37        78.91175
264.83        77.17307
265.28        74.96976
265.74        73.09863
266.19         72.1125
266.65        72.14562
267.11        72.80107
267.56        73.62117
268.02        73.89771
268.47        73.41048
268.93        72.43842
269.38        71.13776
269.84        69.84401
270.30        68.66409
270.75        67.48162
271.21        66.42746
271.66         65.6182
272.12        65.06322
272.57         64.7037
273.03        64.35446
273.48        63.66302
273.94        62.63853
274.39         61.3418
274.85        60.04657
275.31        58.93021
275.76        58.00805
276.22        57.28232
276.67        56.62202
277.13        56.00912
277.58        55.33304
278.04        54.64512
278.49        53.89327
278.95         53.1753
279.40        52.42163
279.86         51.7172
280.31        50.90482
280.77        49.93843
281.22        48.78004
281.68        47.58843
282.13        46.47905
282.59        45.74902
283.04        45.36457
283.50        45.25401
283.95         45.2298
284.41        45.03526
284.86         44.5888
285.32        44.00948
285.77        43.36997
286.22        42.86068
286.68        42.52061
287.13        42.24527
287.59        41.99512
288.04        41.64931
288.50        41.22263
288.95        40.72159
289.41        40.22875
289.86        39.76179
290.32        39.37564
290.77        39.02779
291.22        38.71775
291.68        38.42371
292.13        38.12651
292.59        37.86332
293.04        37.65523
293.50        37.56416
293.95        37.59128
294.40        37.72149
294.86        37.92986
295.31        38.16338
295.77        38.41216
296.22        38.67278
296.68        38.95493
297.13         39.2517
297.58        39.57045
298.04        39.90921
298.49        40.25987
298.95        40.63701
299.40        41.02696
299.85        41.42236
300.31        41.82096
300.76        42.20179
301.21        42.55932
301.67        42.90743
302.12        43.20263
302.58        43.45249
303.03        43.62861
303.48         43.7596
303.94        43.88285
304.39        44.00739
304.84        44.15503
305.30        44.33107
305.75        44.49631
306.20        44.65472
306.66        44.81251
307.11         44.9513
307.57        45.07738
308.02        45.13871
308.47        45.14357
308.93          45.108
309.38        45.04824
309.83        45.05086
310.29        45.12618
310.74        45.24217
311.19        45.33101
311.65        45.27594
312.10        45.05156
312.55        44.70194
313.00        44.32292
313.46        44.05395
313.91        43.91137
314.36         43.8652
314.82        43.83873
315.27        43.72107
315.72        43.47965
316.18        43.16352
316.63        42.82467
317.08        42.56135
317.53        42.39358
317.99        42.27978
318.44        42.17849
318.89        42.01126
319.35        41.75988
319.80        41.45709
320.25        41.13506
320.70        40.84396
321.16        40.59709
321.61        40.38642
322.06        40.20335
322.51        40.03971
322.97        39.88086
323.42        39.73363
323.87        39.58468
324.32        39.41804
324.78        39.21539
325.23        39.00299
325.68        38.75871
326.13        38.46657
326.59        38.13694
327.04        37.79347
327.49        37.48449
327.94        37.29024
328.39        37.21724
328.85        37.22182
329.30        37.26959
329.75        37.22086
330.20        37.03794
330.66          36.753
331.11        36.43395
331.56        36.16346
332.01        35.97066
332.46        35.82306
332.92        35.69516
333.37        35.60188
333.82        35.51699
334.27        35.45584
334.72        35.39072
335.17        35.26791
335.63          35.078
336.08        34.85311
336.53        34.64452
336.98        34.55388
337.43        34.60229
337.88        34.75011
338.34        34.93539
338.79        35.08894
339.24        35.15958
339.69        35.16627
340.14        35.09956
340.59        34.94984
341.05        34.74273
341.50        34.48781
341.95        34.23982
342.40        34.08291
342.85        34.03689
343.30        34.07472
343.75        34.17311
344.20        34.28893
344.66        34.39989
345.11        34.51253
345.56        34.58491
346.01        34.55478
346.46        34.42474
346.91        34.21953
347.36        34.01508
347.81        33.93615
348.26        34.00468
348.72        34.17537
349.17        34.38435
349.62        34.54189
350.07        34.61496
350.52        34.63704
350.97        34.59011
351.42         34.4493
351.87         34.2285
352.32        33.93507
352.77        33.66059
353.22        33.54079
353.67        33.59489
354.13        33.79055
354.58        34.01009
355.03        34.05123
355.48        33.86586
355.93          33.513
356.38        33.12854
356.83        32.91838
357.28        32.92196
357.73        33.06997
358.18        33.23176
358.63        33.19876
359.08         32.9213
359.53        32.47225
359.98        31.97516
360.43        31.60778
360.88        31.41105
361.33        31.33114
361.78        31.27569
362.23        31.10054
362.68        30.77919
363.13        30.37204
363.58         29.9711
364.03        29.71119
364.48        29.61935
364.93        29.64077
365.38         29.7044
365.83         29.6993
366.28        29.58946
366.73        29.41109
367.18        29.18901
367.63        28.96159
368.08        28.74637
368.53        28.52787
368.98         28.3196
369.43        28.14659
369.88        28.01006
370.33        27.90751
370.78         27.8112
371.23        27.67071
371.68        27.47608
372.13        27.24403
372.58        27.00418
373.03        26.80428
373.48        26.65683
373.93        26.54512
374.38        26.45425
374.83        26.36112
375.28        26.25566
375.72        26.13864
376.17        26.02195
376.62        25.89028
377.07        25.74621
377.52        25.59421
377.97        25.44602
378.42        25.32743
378.87        25.24034
379.32        25.16532
379.77        25.10042
380.22        25.04022
380.67        24.97565
381.11        24.92125
381.56        24.81841
382.01        24.60102
382.46        24.28014
382.91         23.8982
383.36        23.55992
383.81        23.40611
384.26        23.45161
384.71        23.64747
385.15        23.89721
385.60        24.03731
386.05         24.0154
386.50        23.87564
386.95        23.67435
387.40        23.50477
387.85        23.39557
388.29         23.3005
388.74        23.22803
389.19        23.13562
389.64        23.01472
390.09        22.88169
390.54        22.74642
390.98        22.61579
391.43        22.51116
391.88        22.42681
392.33         22.3608
392.78        22.31129
393.23         22.2737
393.67        22.23333
394.12         22.2114
394.57        22.19503
395.02        22.18022
395.47        22.16294
395.91        22.13599
396.36        22.07705
396.81         21.9996
397.26        21.91631
397.71        21.84219
398.15        21.81213
398.60        21.85332
399.05        21.85812
399.50        21.83719
399.95        21.96951
400.39        22.17921
400.84        22.07555
401.29        21.69901
401.74        21.46332
402.18        21.40681
402.63        21.29676
403.08        21.15368
403.53        21.10283
403.97        21.14493
404.42         21.2494
404.87        21.35768
405.32        21.37069
405.76        21.26582
406.21        21.08392
406.66        20.88995
407.11        20.78898
407.55        20.81221
408.00        20.91953
408.45         21.0603
408.90        21.13268
409.34        21.10269
409.79        21.00556
410.24        20.88919
410.68        20.81492
411.13        20.80304
411.58        20.83051
412.03        20.86301
412.47         20.8467
412.92        20.76397
413.37        20.64718
413.81        20.53163
414.26        20.48288
414.71        20.50466
415.15        20.58049
415.60        20.67423
416.05        20.74267
416.49         20.7682
416.94        20.76021
417.39        20.72714
417.83        20.68022
418.28        20.62651
418.73          20.561
419.17         20.4986
419.62        20.46503
420.07        20.46642
420.51        20.49378
420.96        20.53226
421.41        20.55155
421.85        20.53609
422.30        20.48475
422.74        20.40633
423.19        20.40718
423.64           20.46
424.08        20.43065
424.53        20.31513
424.98        20.26636
425.42        20.30447
425.87        20.29751
426.31        20.25027
426.76        20.31573
427.21        20.43416
427.65        20.31902
428.10        20.05123
428.54        19.96592
428.99        20.09112
429.44        20.32132
429.88        20.54803
430.33        20.52217
430.77        20.29128
431.22        20.26478
431.66        20.44917
432.11        20.50565
432.56        20.44054
433.00        20.52363
433.45        20.66048
433.89        20.54006
434.34        20.30002
434.78        19.84961
435.23        20.30728
435.67         20.3592
436.12        20.28716
436.57        20.14637
437.01         19.9892
437.46        19.91292
437.90        19.92651
438.35        19.95342
438.79        19.95786
439.24        19.95422
439.68        19.93494
440.13        19.89103
440.57        19.85817
441.02         19.9101
441.46        20.04601
441.91        20.19938
442.35         20.3033
442.80        20.43026
443.24        20.50409
443.69         20.3085
444.13        19.93992
444.58        19.77584
445.02        19.85164
445.47        19.99374
445.91        20.13063
446.36        20.22048
446.80         20.2316
447.24        20.18326
447.69        20.11261
448.13        20.06734
448.58        20.06691
449.02        20.08917
449.47        20.11938
449.91        20.12746
450.36        20.11102
450.80        20.07654
451.25        20.04296
451.69         20.0228
452.13        20.02264
452.58        20.03485
453.02        20.04497
453.47         20.0339
453.91        19.99883
454.36        19.95143
454.80        19.90184
455.24        19.86477
455.69        19.84982
456.13        19.83554
456.58        19.83926
457.02        19.85652
457.46        19.89205
457.91        19.94593
458.35        19.97835
458.79        19.93295
459.24        19.82286
459.68        19.65826
460.13        19.51564
460.57        19.46087
461.01        19.52117
461.46        19.65537
461.90        19.82866
462.34        19.96517
462.79        20.02965
463.23        20.04809
463.68        20.01206
464.12        19.92404
464.56        19.79534
465.01        19.65671
465.45        19.51533
465.89        19.43427
466.34        19.42114
466.78        19.45728
467.22        19.53292
467.67        19.60794
468.11        19.67623
468.55         19.7349
468.99        19.77941
469.44        19.80228
469.88        19.80511
470.32        19.78693
470.77        19.75663
471.21        19.73506
471.65        19.72705
472.10        19.73177
472.54        19.74552
472.98        19.76722
473.42        19.79451
473.87        19.83469
474.31        19.86743
474.75        19.88041
475.20        19.87643
475.64        19.85045
476.08        19.82555
476.52        19.82749
476.97         19.8611
477.41        19.92875
477.85        20.01148
478.29        20.04855
478.74        20.04688
479.18        20.06823
479.62        20.11555
480.06        20.16054
480.50        20.20718
480.95        20.24871
481.39        20.25905
481.83        20.39647
482.27         20.3603
482.72        20.40202
483.16        20.44999
483.60        20.50247
484.04        20.55897
484.48        20.67862
484.93        20.90204
485.37        20.87705
485.81        21.19726
486.25        21.23624
486.69        20.94337
487.14        20.85327
487.58        21.64305
488.02        21.74095
488.46        21.46681
488.90        21.44847
489.34        21.40189
489.79        21.64653
490.23        21.94331
490.67         22.0375
491.11        21.93953
491.55        21.93702
491.99        22.05359
492.43        22.11901
492.88        22.13794
493.32        22.19902
493.76        22.29948
494.20        22.41586
494.64        22.55456
495.08        22.67578
495.52        22.77868
495.96         23.0127
496.41        23.32502
496.85        23.35481
497.29        23.16203
497.73        23.38692
498.17        23.69132
498.61        23.91626
499.05        23.92591
499.49        23.95333
499.93        23.95719
500.37        24.06261
500.82        24.24403
501.26         24.3942
501.70        24.50223
502.14          24.651
502.58        24.83221
503.02        24.98078
503.46        25.08832
503.90        25.17317
504.34         25.2359
504.78        25.27851
505.22        25.30579
505.66        25.31617
506.10        25.32494
506.54        25.35748
506.98        25.41908
507.42        25.50566
507.86        25.59947
508.30         25.6689
508.74        25.70654
509.18        25.72144
509.62        25.73167
510.06        25.76743
510.50        25.83548
510.94        25.92453
511.38        26.01939
511.82        26.09564
512.26        26.14688
512.70        26.18316
513.14        26.21178
513.58        26.24405
514.02         26.2845
514.46        26.32674
514.90        26.37431
515.34        26.43445
515.78        26.50396
516.22        26.57784
516.66        26.63924
517.10        26.66109
517.54        26.63871
517.98        26.58267
518.42        26.50858
518.86        26.44174
519.30        26.39298
519.74         26.3581
520.18        26.33812
520.62         26.3328
521.06        26.33963
521.50        26.35884
521.93        26.38475
522.37        26.39709
522.81        26.39451
523.25        26.37959
523.69        26.35556
524.13        26.32991
524.57        26.30387
525.01        26.27128
525.45        26.23516
525.89        26.20143
526.32         26.1664
526.76        26.13583
527.20        26.09387
527.64         26.0172
528.08        25.90646
528.52        25.77404
528.96        25.64568
529.40         25.5609
529.83        25.52699
530.27        25.53095
530.71        25.55304
531.15        25.56376
531.59         25.5519
532.03        25.52475
532.46        25.47636
532.90        25.41629
533.34        25.34507
533.78        25.24749
534.22        25.14029
534.66        25.08071
535.09        25.05694
535.53        25.00704
535.97        24.92804
536.41        24.87879
536.85        24.86159
537.28        24.83898
537.72        24.82981
538.16         24.8823
538.60        24.99638
539.04        25.15235
539.47        25.30583
539.91        25.40653
540.35        25.43937
540.79          25.425
541.22        25.39625
541.66        25.41518
542.10        25.49403
542.54          25.612
542.97        25.74805
543.41        25.88018
543.85         25.9951
544.29        26.10609
544.72        26.20328
545.16        26.28757
545.60        26.35841
546.04        26.41995
546.47        26.49878
546.91        26.63436
547.35        26.82915
547.79        27.06952
548.22        27.31855
548.66        27.51365
549.10        27.67349
549.53         27.8019
549.97         27.9217
550.41        28.00562
550.84        28.08998
551.28        28.25262
551.72        28.46144
552.15        28.65519
552.59         28.8532
553.03        28.77676
553.46        29.07206
553.90        29.18583
554.34        29.30685
554.77        29.43506
555.21        29.57825
555.65         29.7286
556.08        29.87307
556.52        29.99616
556.96        30.08958
557.39        30.22275
557.83        30.37243
558.27        30.36403
558.70        30.23971
559.14        30.25027
559.57         30.3902
560.01        30.50242
560.45        30.56879
560.88        30.65637
561.32        30.77587
561.75        30.87644
562.19        30.96846
562.63        31.06238
563.06        31.15335
563.50        31.24146
563.93        31.30265
564.37        31.38059
564.80        31.48888
565.24        31.54518
565.68        31.48694
566.11        31.90078
566.55        31.64358
566.98        31.67069
567.42        31.71296
567.85        31.84614
568.29        32.08685
568.72        32.42684
569.16        32.82795
569.60        33.08074
570.03        33.29214
570.47        33.39475
570.90        33.44979
571.34        33.57361
571.77        33.70495
572.21        33.91656
572.64        34.12391
573.08        34.21892
573.51        34.26718
573.95        34.39453
574.38        34.59201
574.82         34.9451
