SpectraSmart Spectrum 2.9.0.0
--------- Device Information -----------
Spectrum Name :  反射率_0
Saving Time :  2024/04/26 23:37:31
Spectro-Module Model Name : SE2030-DUVN
Spectro-Module Serial Number : OS361AC55029948
Wavelength Start : 200
Wavelength End : 1025
Wavelength Unit : Wavelength(nm)
Spectrum Unit : Reflectance(%)
-----------Spectrum Setting ------------
Integration Time : 20ms
Average : 10
Boxcar : 0
Background removal :  enabled
linearity correction :  enabled
SC :  disabled
Intensity correction :  disabled
DWT denoise :  enabled
savitzky-golay :  disabled
FFT :  disabled
Running average :  disabled
Kalman :  disabled
High pass :  disabled
---------------BEGIN--------------------
Wavelength(nm)             Reflectance(%)
200.29               0
200.75        34.68771
201.21        34.10424
201.67        34.01507
202.13        35.31493
202.58        38.09832
203.04        43.09034
203.50        49.40508
203.96        52.97193
204.42        50.99956
204.88        43.43534
205.34        34.13527
205.80        30.97101
206.26        35.33923
206.72        43.71494
207.18        51.31452
207.64        54.15087
208.10        51.99691
208.55        45.68276
209.01        35.30996
209.47        28.26033
209.93        29.77018
210.39        35.45834
210.85        40.82558
211.31        44.20583
211.77        46.30107
212.23        48.31456
212.69        52.34378
213.14        63.92231
213.60        70.17374
214.06        67.66801
214.52         62.8113
214.98        57.29683
215.44        50.84818
215.90        43.11139
216.36        36.19948
216.81        33.77145
217.27         37.5979
217.73        48.46671
218.19        65.65316
218.65        76.75533
219.11        74.25081
219.57        65.28004
220.02        58.33886
220.48        58.51057
220.94        65.42372
221.40        79.21552
221.86        99.50195
222.32        113.2715
222.77        108.7915
223.23        95.20563
223.69        81.27074
224.15        71.70023
224.61        66.05125
225.06        62.09671
225.52        60.22886
225.98        60.71909
226.44        63.11878
226.90        67.22688
227.36        71.43799
227.81        72.81612
228.27        71.11568
228.73        67.42722
229.19        63.87387
229.65        62.93157
230.10        64.68893
230.56        68.24658
231.02        72.02162
231.48        73.51471
231.93        72.22887
232.39        69.57489
232.85        66.76078
233.31        65.35857
233.77        65.56408
234.22        66.73373
234.68        68.31747
235.14        69.62536
235.60        70.35006
236.05        70.80209
236.51        70.70874
236.97        69.64533
237.43        67.61378
237.88        64.79933
238.34        61.82562
238.80        59.96575
239.26        59.63607
239.71        61.08207
240.17        63.90788
240.63        67.11691
241.08        69.96901
241.54        72.05341
242.00        73.79744
242.46        76.46061
242.91        81.33309
243.37        88.23366
243.83        97.07193
244.28        103.4229
244.74        100.6675
245.20        89.75005
245.66        77.41391
246.11        68.28495
246.57        62.55948
247.03        58.57272
247.48        55.16957
247.94        51.29868
248.40        47.70306
248.85        44.91056
249.31        43.00544
249.77        41.32394
250.22        39.37765
250.68        37.07962
251.14         34.5745
251.59        33.14327
252.05        34.07513
252.51        36.87464
252.96        40.28928
253.42        43.45217
253.88        46.12144
254.33        48.04872
254.79        50.27837
255.25        53.53011
255.70        57.71797
256.16        62.69863
256.62        66.62503
257.07        66.66969
257.53         63.9646
257.99        60.33418
258.44        57.35459
258.90        56.74089
259.35        57.62847
259.81        59.48774
260.27        61.21165
260.72        61.48572
261.18        60.53325
261.63        58.75949
262.09        57.15332
262.55        56.25471
263.00        55.96087
263.46        56.11049
263.91        56.15924
264.37        55.74314
264.83        54.81707
265.28        53.59071
265.74        52.52329
266.19        51.86131
266.65        51.70071
267.11        51.78494
267.56        51.97018
268.02        52.04077
268.47        51.90025
268.93        51.67093
269.38        51.21389
269.84        50.38425
270.30        49.19866
270.75        47.70172
271.21         46.2943
271.66        45.52246
272.12        45.46849
272.57        45.92727
273.03        46.43923
273.48        46.23847
273.94        45.23499
274.39          43.682
274.85        42.06425
275.31        40.89394
275.76        40.25486
276.22          39.987
276.67        39.86719
277.13          39.698
277.58        39.34589
278.04        38.92304
278.49        38.39032
278.95        37.81081
279.40        37.15442
279.86        36.48534
280.31        35.76304
280.77        35.06701
281.22        34.37339
281.68        33.74279
282.13        33.18199
282.59        32.79271
283.04          32.533
283.50        32.39309
283.95        32.26852
284.41         32.0189
284.86        31.61477
285.32        31.13077
285.77        30.64376
286.22        30.32839
286.68         30.2076
287.13        30.18653
287.59        30.19298
288.04        30.06708
288.50        29.80218
288.95        29.42723
289.41        29.02052
289.86        28.62343
290.32         28.2931
290.77        27.99541
291.22        27.75352
291.68        27.58662
292.13        27.48483
292.59        27.46735
293.04        27.51369
293.50        27.61017
293.95        27.73961
294.40        27.90144
294.86        28.10765
295.31        28.37024
295.77        28.69379
296.22        29.06295
296.68        29.44886
297.13        29.79273
297.58        30.09262
298.04        30.36688
298.49        30.66324
298.95        31.07425
299.40        31.60402
299.85        32.22026
300.31        32.85239
300.76        33.38245
301.21        33.78502
301.67        34.10474
302.12        34.37453
302.58        34.70533
303.03        35.09188
303.48        35.51704
303.94        35.94585
304.39        36.29276
304.84        36.55619
305.30        36.77641
305.75        36.96633
306.20        37.19939
306.66        37.49535
307.11        37.80952
307.57        38.11876
308.02         38.3395
308.47        38.46682
308.93         38.5325
309.38        38.55708
309.83        38.62288
310.29        38.74709
310.74        38.90094
311.19        39.03862
311.65        39.08058
312.10        39.00441
312.55        38.83657
313.00        38.64433
313.46        38.52465
313.91        38.48639
314.36        38.51472
314.82        38.53858
315.27        38.45533
315.72        38.23988
316.18        37.93381
316.63         37.6147
317.08          37.419
317.53        37.36993
317.99        37.41735
318.44        37.46959
318.89        37.36612
319.35        37.07018
319.80        36.63491
320.25        36.15471
320.70        35.78017
321.16        35.55009
321.61        35.43111
322.06        35.35249
322.51        35.20078
322.97         34.9402
323.42        34.61522
323.87        34.28561
324.32        34.04973
324.78        33.91962
325.23        33.87974
325.68        33.84782
326.13        33.70191
326.59        33.41185
327.04        33.02714
327.49        32.63018
327.94         32.3526
328.39         32.2207
328.85        32.18092
329.30        32.18043
329.75        32.06376
330.20        31.79133
330.66        31.40543
331.11        31.00597
331.56        30.72298
332.01        30.59244
332.46        30.57289
332.92        30.57697
333.37        30.50606
333.82        30.30996
334.27        30.02912
334.72        29.72994
335.17        29.51758
335.63        29.41972
336.08        29.41891
336.53        29.45767
336.98        29.45518
337.43        29.38257
337.88         29.2529
338.34        29.10744
338.79        29.04602
339.24        29.07806
339.69        29.18041
340.14        29.26532
340.59        29.19476
341.05        28.95803
341.50        28.60431
341.95        28.26173
342.40        28.12376
342.85        28.22692
343.30         28.4996
343.75        28.82516
344.20         29.0143
344.66        29.01064
345.11        28.86921
345.56        28.64652
346.01        28.43458
346.46         28.2752
346.91        28.14672
347.36        28.05045
347.81        27.99317
348.26           27.97
348.72        27.98111
349.17        28.01727
349.62        28.06993
350.07        28.12733
350.52        28.18773
350.97        28.20713
351.42        28.12153
351.87        27.92917
352.32        27.65569
352.77        27.38295
353.22        27.23035
353.67        27.22005
354.13         27.3199
354.58        27.45291
355.03        27.48995
355.48         27.3952
355.93         27.2067
356.38        26.99441
356.83        26.86307
357.28        26.83427
357.73        26.87081
358.18        26.90943
358.63        26.85239
359.08         26.6773
359.53        26.41916
359.98        26.14021
360.43        25.92897
360.88        25.80236
361.33        25.73042
361.78        25.66109
362.23        25.51314
362.68        25.27437
363.13        24.98399
363.58        24.69093
364.03        24.46573
364.48        24.32686
364.93        24.24654
365.38        24.20827
365.83        24.18722
366.28        24.16539
366.73         24.1459
367.18        24.10483
367.63        24.00433
368.08        23.84112
368.53        23.62769
368.98        23.39561
369.43        23.19814
369.88        23.05179
370.33        22.94338
370.78        22.86307
371.23        22.79235
371.68        22.72024
372.13        22.65032
372.58        22.57237
373.03        22.46818
373.48        22.33463
373.93        22.17594
374.38        22.00057
374.83        21.82763
375.28        21.66418
375.72        21.49819
376.17        21.35132
376.62        21.22685
377.07        21.12466
377.52        21.04954
377.97        20.97631
378.42         20.8646
378.87        20.71311
379.32        20.53434
379.77        20.37824
380.22        20.31938
380.67        20.36348
381.11        20.48682
381.56        20.61346
382.01        20.63315
382.46        20.52157
382.91        20.32862
383.36        20.10916
383.81        19.93758
384.26        19.83328
384.71        19.76657
385.15        19.74259
385.60        19.77425
386.05        19.84684
386.50        19.95047
386.95         20.0247
387.40        19.97712
387.85        19.79939
388.29        19.51818
388.74        19.22315
389.19        18.99074
389.64        18.83931
390.09        18.74286
390.54        18.67864
390.98        18.60542
391.43        18.52267
391.88        18.44327
392.33        18.37301
392.78        18.31585
393.23         18.2726
393.67        18.23006
394.12         18.2016
394.57        18.17376
395.02        18.14383
395.47         18.1067
395.91        18.07604
396.36        18.06383
396.81        18.08059
397.26        18.12236
397.71        18.15666
398.15         18.1478
398.60        18.11338
399.05        17.99108
399.50        17.83843
399.95        17.86936
400.39        18.03592
400.84        18.00002
401.29        17.76458
401.74        17.61614
402.18        17.56934
402.63        17.45065
403.08        17.29171
403.53        17.21711
403.97        17.23668
404.42        17.31763
404.87        17.40888
405.32         17.4272
405.76         17.3502
406.21        17.20847
406.66        17.05839
407.11        16.99013
407.55        17.02764
408.00        17.13813
408.45        17.25804
408.90        17.26732
409.34        17.13783
409.79        16.91685
410.24        16.68979
410.68        16.57007
411.13        16.58458
411.58        16.69541
412.03        16.83638
412.47        16.89318
412.92        16.82644
413.37        16.68141
413.81        16.51375
414.26        16.41505
414.71         16.3994
415.15        16.44224
415.60        16.50246
416.05        16.52563
416.49        16.49543
416.94        16.43143
417.39        16.36149
417.83        16.32335
418.28         16.3266
418.73        16.35561
419.17        16.39655
419.62        16.42951
420.07        16.44716
420.51        16.45196
420.96        16.44999
421.41        16.44646
421.85        16.43622
422.30        16.40932
422.74         16.3601
423.19        16.35625
423.64        16.37259
424.08        16.31029
424.53        16.17825
424.98        16.11805
425.42         16.1521
425.87        16.16997
426.31        16.16455
426.76        16.24207
427.21        16.34869
427.65        16.25626
428.10        16.03591
428.54        15.96766
428.99        16.07394
429.44        16.26324
429.88        16.43756
430.33        16.38296
430.77         16.1405
431.22        16.04657
431.66         16.1149
432.11        16.10259
432.56        16.02634
433.00        16.05672
433.45        16.12962
433.89        16.11171
434.34        16.06258
434.78        15.69487
435.23           15.93
435.67        15.95063
436.12        15.98865
436.57        15.96616
437.01        15.89615
437.46        15.86436
437.90        15.86719
438.35        15.83778
438.79         15.7793
439.24        15.74933
439.68        15.75154
440.13        15.77164
440.57        15.79591
441.02        15.81701
441.46        15.82849
441.91        15.79234
442.35        15.72488
442.80        15.80442
443.24        15.96592
443.69        15.93355
444.13        15.73695
444.58        15.67454
445.02        15.75626
445.47        15.82041
445.91        15.84601
446.36        15.87799
446.80        15.90607
447.24        15.92034
447.69        15.92076
448.13        15.90014
448.58        15.86464
449.02        15.81685
449.47        15.77239
449.91        15.74717
450.36        15.74948
450.80        15.77099
451.25        15.80644
451.69        15.83667
452.13        15.85694
452.58        15.86757
453.02        15.86821
453.47        15.86167
453.91        15.84886
454.36        15.83174
454.80         15.8033
455.24        15.75211
455.69        15.68502
456.13        15.59846
456.58        15.52789
457.02        15.49984
457.46        15.52452
457.91        15.59013
458.35        15.65456
458.79        15.65448
459.24        15.59251
459.68         15.4818
460.13        15.37932
460.57        15.33091
461.01        15.36002
461.46        15.43454
461.90        15.54031
462.34        15.64015
462.79        15.71165
463.23        15.76945
463.68        15.79131
464.12        15.75235
464.56        15.65324
465.01        15.52533
465.45        15.38613
465.89        15.30182
466.34        15.28149
466.78        15.30599
467.22        15.35879
467.67          15.394
468.11        15.40583
468.55        15.40023
468.99        15.38873
469.44        15.38769
469.88        15.40285
470.32        15.42526
470.77        15.44969
471.21          15.473
471.65        15.49122
472.10        15.50834
472.54        15.52115
472.98        15.53022
473.42        15.53545
473.87        15.54064
474.31        15.53789
474.75        15.53037
475.20        15.52381
475.64        15.51497
476.08        15.51016
476.52        15.50989
476.97        15.51559
477.41          15.534
477.85        15.57271
478.29        15.62013
478.74        15.68647
479.18        15.80766
479.62        15.95289
480.06        16.04631
480.50        16.08133
480.95        16.07329
481.39        16.03459
481.83        16.13622
482.27         16.1519
482.72        16.27153
483.16        16.41336
483.60        16.51731
484.04        16.56622
484.48        16.65802
484.93        16.81773
485.37        16.71331
485.81        16.94338
486.25        17.02977
486.69        17.02087
487.14        17.22682
487.58        17.34168
488.02        17.19384
488.46         17.1412
488.90        17.46442
489.34        17.30545
489.79        17.52662
490.23         17.7621
490.67        17.95726
491.11        18.06575
491.55        18.03375
491.99        17.93194
492.43          17.943
492.88        18.09849
493.32        18.29945
493.76         18.5018
494.20        18.68945
494.64        18.85002
495.08        18.94955
495.52        19.00984
495.96        19.18368
496.41        19.43622
496.85        19.48546
497.29        19.36065
497.73        19.50866
498.17        19.66863
498.61        19.84875
499.05        19.93514
499.49        19.99698
499.93        19.99512
500.37        20.10935
500.82         20.3105
501.26        20.46088
501.70        20.54813
502.14        20.65217
502.58         20.7868
503.02        20.93233
503.46        21.08535
503.90        21.24608
504.34         21.3821
504.78         21.4416
505.22        21.41737
505.66        21.32967
506.10        21.22162
506.54        21.16156
506.98        21.17111
507.42        21.23518
507.86        21.33586
508.30        21.44021
508.74        21.53416
509.18        21.62517
509.62        21.71364
510.06         21.8003
510.50        21.88374
510.94        21.95734
511.38        22.01689
511.82        22.05959
512.26        22.08665
512.70        22.10263
513.14        22.11459
513.58        22.13254
514.02        22.16051
514.46        22.19637
514.90        22.23936
515.34        22.28778
515.78        22.33735
516.22        22.38443
516.66        22.42212
517.10        22.43982
517.54        22.43543
517.98        22.41424
518.42        22.37701
518.86        22.32586
519.30        22.26605
519.74        22.19939
520.18        22.14294
520.62        22.12162
521.06        22.13899
521.50        22.18922
521.93        22.24896
522.37        22.27024
522.81        22.24544
523.25        22.18599
523.69        22.11746
524.13        22.08179
524.57        22.08534
525.01        22.10896
525.45        22.13108
525.89         22.1173
526.32        22.05749
526.76        21.97562
527.20        21.87514
527.64        21.76229
528.08        21.64596
528.52        21.52312
528.96        21.42403
529.40        21.39577
529.83        21.44017
530.27        21.54308
530.71        21.64679
531.15        21.65963
531.59        21.56319
532.03        21.38535
532.46        21.18234
532.90        21.05986
533.34        21.03872
533.78        21.07457
534.22        21.12548
534.66        21.15264
535.09        21.12431
535.53        21.01639
535.97        20.86282
536.41        20.76864
536.85        20.75162
537.28        20.76148
537.72        20.79396
538.16        20.85916
538.60        20.94871
539.04        21.05876
539.47        21.16621
539.91        21.24827
540.35        21.29596
540.79        21.31695
541.22        21.32783
541.66        21.36473
542.10        21.43447
542.54        21.52846
542.97        21.63424
543.41        21.74034
543.85        21.84042
544.29        21.94374
544.72         22.0496
545.16        22.17104
545.60          22.307
546.04        22.45529
546.47        22.62087
546.91        22.80823
547.35        23.00971
547.79        23.21855
548.22        23.41689
548.66        23.57385
549.10        23.71265
549.53        23.83282
549.97        23.94317
550.41        24.00395
550.84        24.04776
551.28        24.14111
551.72         24.2742
552.15        24.44924
552.59        24.69309
553.03        24.64097
553.46        25.01752
553.90        25.15316
554.34        25.25839
554.77        25.33805
555.21        25.42019
555.65        25.52905
556.08        25.65998
556.52        25.79207
556.96        25.89979
557.39         26.0154
557.83        26.11431
558.27        26.05761
558.70         25.9021
559.14        25.89284
559.57        26.03146
560.01        26.17253
560.45        26.28138
560.88        26.38777
561.32        26.49356
561.75        26.56217
562.19        26.61581
562.63        26.68404
563.06        26.76792
563.50        26.86169
563.93        26.93122
564.37        26.99388
564.80        27.05849
565.24        27.06194
565.68        26.97016
566.11        27.31364
566.55        27.11856
566.98         27.1945
567.42         27.2893
567.85         27.4322
568.29        27.62715
568.72        27.88934
569.16        28.23011
569.60        28.43213
570.03        28.57207
570.47        28.80061
570.90        29.12541
571.34        28.84223
571.77        29.24374
572.21        29.44908
572.64        29.51365
573.08        29.69743
573.51        29.65125
573.95        29.82665
574.38        30.12856
574.82        30.30631
