SpectraSmart Spectrum 2.9.0.0
--------- Device Information -----------
Spectrum Name :  反射率_0
Saving Time :  2024/04/26 23:39:10
Spectro-Module Model Name : SE2030-DUVN
Spectro-Module Serial Number : OS361AC55029948
Wavelength Start : 200
Wavelength End : 1025
Wavelength Unit : Wavelength(nm)
Spectrum Unit : Reflectance(%)
-----------Spectrum Setting ------------
Integration Time : 20ms
Average : 10
Boxcar : 0
Background removal :  enabled
linearity correction :  enabled
SC :  disabled
Intensity correction :  disabled
DWT denoise :  enabled
savitzky-golay :  disabled
FFT :  disabled
Running average :  disabled
Kalman :  disabled
High pass :  disabled
---------------BEGIN--------------------
Wavelength(nm)             Reflectance(%)
200.29               0
200.75        29.35911
201.21        25.96106
201.67         23.2072
202.13        21.66672
202.58        21.10398
203.04        21.80407
203.50         23.3776
203.96        24.28614
204.42        23.61836
204.88        21.30939
205.34        19.14609
205.80        20.45915
206.26        25.22675
206.72        31.33572
207.18        36.06299
207.64        37.31432
208.10        35.07619
208.55        29.66201
209.01        21.18394
209.47        15.68924
209.93        17.36022
210.39        22.61998
210.85        27.75469
211.31        31.65099
211.77        35.41877
212.23        41.37418
212.69        55.30214
213.14        83.36102
213.60        89.65539
214.06        75.65855
214.52        62.97108
214.98        54.21104
215.44        46.65839
215.90        38.40319
216.36        30.99321
216.81        27.33237
217.27         28.7963
217.73        36.16039
218.19        48.24096
218.65        54.37729
219.11        49.77936
219.57        41.10154
220.02        35.47816
220.48        36.99977
220.94        45.54347
221.40        61.84177
221.86        85.56004
222.32        101.7701
222.77         96.8518
223.23        80.78924
223.69        64.23497
224.15        53.12823
224.61        46.81152
225.06        42.69646
225.52        40.55521
225.98        40.14357
226.44        41.05355
226.90        43.33635
227.36        45.91634
227.81        46.83123
228.27        45.86913
228.73         43.5543
229.19        41.45153
229.65        41.43291
230.10        43.56421
230.56        47.26869
231.02        50.91371
231.48        51.91254
231.93        49.92252
232.39         46.2975
232.85        42.92242
233.31        42.24074
233.77        44.43185
234.22         48.6047
234.68        53.19311
235.14        55.81816
235.60        55.77132
236.05        53.70417
236.51        50.55096
236.97        48.41043
237.43        48.23695
237.88        49.54224
238.34        51.58916
238.80        53.36793
239.26        54.54976
239.71        55.84951
240.17        57.28513
240.63        59.25441
241.08        62.01918
241.54        64.73882
242.00        67.81734
242.46         72.6544
242.91        80.71519
243.37        92.95278
243.83        109.2351
244.28        120.7045
244.74        115.7823
245.20        96.53165
245.66        75.00729
246.11        60.21188
246.57        52.19837
247.03        47.61859
247.48        46.12284
247.94        47.22432
248.40        49.52343
248.85        52.30442
249.31        54.04919
249.77        52.94126
250.22        48.81707
250.68        41.48035
251.14        32.36201
251.59        28.03805
252.05        32.33694
252.51         42.0279
252.96        51.73602
253.42        56.98048
253.88        57.86329
254.33        56.03563
254.79        54.22811
255.25        54.40015
255.70        56.52576
256.16         59.9673
256.62         62.7057
257.07        61.93092
257.53        58.77067
257.99        54.99931
258.44        52.16795
258.90        51.90746
259.35        53.29486
259.81         55.7191
260.27        57.84634
260.72        58.07428
261.18        56.66735
261.63        54.23077
262.09        52.02284
262.55        50.88638
263.00        50.70514
263.46        51.16684
263.91        51.52142
264.37        51.11317
264.83         49.8879
265.28         48.1732
265.74        46.61806
266.19        45.73043
266.65        45.61755
267.11        45.94737
267.56        46.36689
268.02         46.3296
268.47        45.69648
268.93        44.71501
269.38         43.5362
269.84        42.43753
270.30        41.51028
270.75        40.64862
271.21        39.96403
271.66        39.57684
272.12        39.47054
272.57        39.58226
273.03        39.66184
273.48        39.28314
273.94        38.42864
274.39        37.21996
274.85        35.98597
275.31        35.05179
275.76        34.46451
276.22        34.13881
276.67        33.91934
277.13         33.6773
277.58        33.31103
278.04         32.8949
278.49        32.39315
278.95        31.86249
279.40        31.27692
279.86        30.70395
280.31        30.09341
280.77        29.48534
281.22        28.86437
281.68        28.29142
282.13        27.81178
282.59        27.56754
283.04        27.52426
283.50        27.64278
283.95        27.78314
284.41        27.73846
284.86        27.45787
285.32        27.03209
285.77        26.55497
286.22         26.2201
286.68        26.06492
287.13        25.99791
287.59        25.96809
288.04        25.85332
288.50        25.65196
288.95        25.39313
289.41        25.12799
289.86         24.8619
290.32        24.64151
290.77        24.44645
291.22         24.3193
291.68        24.31299
292.13        24.42141
292.59        24.64172
293.04        24.92804
293.50        25.22676
293.95        25.50623
294.40        25.77494
294.86        26.05002
295.31        26.35375
295.77        26.69969
296.22        27.07541
296.68        27.46186
297.13        27.81784
297.58        28.14441
298.04        28.45306
298.49        28.79205
298.95        29.25066
299.40        29.82738
299.85        30.49054
300.31        31.14419
300.76        31.63342
301.21        31.93226
301.67        32.10056
302.12         32.2179
302.58        32.46354
303.03        32.84592
303.48        33.32312
303.94        33.81575
304.39         34.1748
304.84        34.38016
305.30        34.48812
305.75        34.53984
306.20        34.64989
306.66         34.8478
307.11        35.07801
307.57        35.29274
308.02        35.37654
308.47        35.32187
308.93        35.17814
309.38        35.00044
309.83         34.9149
310.29        34.94794
310.74        35.05804
311.19        35.17249
311.65        35.16907
312.10         35.0153
312.55        34.75026
313.00        34.45996
313.46        34.27055
313.91        34.19353
314.36        34.19422
314.82        34.18531
315.27        34.03927
315.72        33.72635
316.18         33.3043
316.63         32.8513
317.08        32.49858
317.53        32.27821
317.99        32.14657
318.44        32.05058
318.89        31.89336
319.35        31.64712
319.80        31.34127
320.25        31.01822
320.70        30.74292
321.16        30.53088
321.61        30.37194
322.06        30.22065
322.51        30.00985
322.97        29.72086
323.42        29.37605
323.87         29.0421
324.32        28.83014
324.78        28.74928
325.23        28.78154
325.68         28.8065
326.13        28.63008
326.59        28.21261
327.04         27.6317
327.49        27.02782
327.94        26.62084
328.39        26.45901
328.85        26.46284
329.30         26.5508
329.75        26.52415
330.20        26.31792
330.66         25.9894
331.11        25.61079
331.56        25.27231
332.01        25.00917
332.46        24.78782
332.92         24.5862
333.37        24.41588
333.82        24.25998
334.27        24.12994
334.72        24.02672
335.17        23.93987
335.63        23.86378
336.08        23.81363
336.53        23.76922
336.98        23.71171
337.43        23.63481
337.88        23.52597
338.34        23.42525
338.79        23.42808
339.24        23.53514
339.69        23.72227
340.14        23.87225
340.59        23.79743
341.05        23.47762
341.50        22.97884
341.95        22.46171
342.40        22.17002
342.85        22.15924
343.30        22.35388
343.75        22.62949
344.20        22.78028
344.66        22.74688
345.11        22.59071
345.56        22.38341
346.01        22.23843
346.46        22.19221
346.91        22.20278
347.36        22.23602
347.81        22.24828
348.26        22.22385
348.72        22.18108
349.17        22.13453
349.62        22.11204
350.07        22.12003
350.52        22.15247
350.97        22.17379
351.42        22.13109
351.87        22.01875
352.32         21.8537
352.77        21.69995
353.22        21.65112
353.67        21.71921
354.13        21.87521
354.58        22.03471
355.03        22.06118
355.48        21.92425
355.93        21.67132
356.38        21.39127
356.83        21.21755
357.28        21.17841
357.73        21.22645
358.18        21.29912
358.63        21.29584
359.08        21.18675
359.53        21.00898
359.98        20.79433
360.43        20.58519
360.88        20.39761
361.33        20.21841
361.78          20.049
362.23        19.89559
362.68        19.76202
363.13         19.6552
363.58        19.57108
364.03        19.49758
364.48        19.42934
364.93        19.36338
365.38        19.30482
365.83         19.2648
366.28        19.24169
366.73        19.22793
367.18        19.20292
367.63        19.13666
368.08        19.02434
368.53        18.87603
368.98        18.71613
369.43        18.58348
369.88        18.48802
370.33        18.41913
370.78        18.35923
371.23        18.27804
371.68        18.16869
372.13        18.04518
372.58        17.92047
373.03        17.81269
373.48        17.72825
373.93        17.65941
374.38        17.60518
374.83        17.56629
375.28        17.53644
375.72        17.50478
376.17        17.47145
376.62        17.41431
377.07        17.33121
377.52        17.23232
377.97        17.11904
378.42         16.9978
378.87        16.87548
379.32        16.74763
379.77        16.63958
380.22        16.58698
380.67        16.58823
381.11        16.63765
381.56        16.67052
382.01         16.5939
382.46        16.39746
382.91        16.12516
383.36        15.85442
383.81        15.69038
384.26        15.65142
384.71        15.70224
385.15        15.79907
385.60        15.87119
386.05        15.88994
386.50        15.87594
386.95        15.83601
387.40        15.78238
387.85        15.72238
388.29        15.63852
388.74        15.56088
389.19          15.498
389.64        15.45069
390.09        15.41693
390.54        15.38129
390.98        15.31347
391.43        15.22003
391.88        15.10979
392.33        15.00521
392.78        14.93683
393.23        14.90826
393.67        14.90167
394.12         14.9094
394.57        14.89052
395.02        14.83635
395.47        14.75151
395.91        14.66138
396.36        14.60065
396.81         14.5867
397.26        14.60844
397.71         14.6309
398.15         14.6121
398.60        14.56329
399.05         14.4408
399.50        14.29481
399.95        14.30042
400.39        14.42114
400.84        14.38583
401.29        14.19802
401.74        14.08856
402.18        14.06899
402.63        13.99897
403.08        13.90297
403.53        13.88109
403.97        13.93752
404.42        14.04041
404.87        14.14099
405.32        14.16062
405.76         14.0803
406.21        13.93302
406.66        13.76687
407.11        13.65851
407.55        13.63046
408.00        13.65225
408.45        13.69178
408.90        13.68581
409.34        13.61573
409.79        13.50991
410.24        13.39431
410.68        13.29582
411.13        13.22784
411.58         13.1801
412.03        13.14791
412.47        13.12901
412.92        13.11543
413.37        13.10817
413.81        13.10844
414.26        13.12869
414.71        13.16246
415.15        13.20845
415.60        13.23639
416.05        13.20646
416.49        13.11454
416.94        12.97554
417.39        12.83286
417.83        12.75169
418.28        12.74541
418.73        12.79329
419.17        12.86553
419.62        12.91144
420.07         12.9148
420.51        12.88916
420.96        12.84385
421.41        12.79116
421.85        12.73343
422.30         12.6611
422.74        12.58082
423.19        12.56216
423.64         12.5869
424.08        12.57543
424.53        12.51689
424.98        12.49088
425.42        12.50519
425.87        12.47938
426.31        12.42431
426.76         12.4491
427.21        12.51907
427.65        12.45392
428.10         12.2914
428.54        12.21889
428.99        12.25175
429.44        12.33281
429.88        12.40928
430.33        12.35226
430.77         12.1942
431.22        12.17124
431.66        12.27829
432.11        12.29404
432.56        12.21859
433.00        12.21988
433.45        12.24439
433.89        12.11321
434.34        11.91942
434.78        11.61135
435.23        11.85319
435.67        11.89004
436.12          11.886
436.57        11.86644
437.01        11.84473
437.46        11.84882
437.90        11.87265
438.35         11.8745
438.79        11.84485
439.24        11.80991
439.68          11.773
440.13        11.72757
440.57        11.68697
441.02        11.68759
441.46        11.73039
441.91        11.76725
442.35        11.78307
442.80        11.87465
443.24        11.98563
443.69        11.92245
444.13         11.7153
444.58         11.6007
445.02        11.59382
445.47        11.57325
445.91        11.53702
446.36        11.53798
446.80        11.57017
447.24        11.62037
447.69        11.67015
448.13        11.68283
448.58         11.6542
449.02        11.59394
449.47        11.52353
449.91        11.47253
450.36         11.4534
450.80          11.456
451.25        11.47391
451.69        11.49066
452.13        11.50109
452.58        11.50668
453.02        11.50931
453.47        11.51309
453.91        11.51785
454.36        11.52314
454.80        11.51578
455.24        11.47502
455.69        11.40446
456.13         11.3055
456.58        11.21682
457.02        11.17625
457.46        11.19517
457.91        11.25938
458.35        11.32649
458.79        11.33043
459.24        11.26935
459.68         11.1587
460.13         11.0531
460.57        11.00305
461.01        11.02979
461.46        11.10515
461.90        11.20663
462.34        11.28557
462.79        11.32116
463.23        11.33106
463.68          11.317
464.12        11.29034
464.56         11.2548
465.01        11.21856
465.45        11.17349
465.89        11.14142
466.34        11.12485
466.78        11.11983
467.22        11.12358
467.67        11.11901
468.11        11.10919
468.55        11.09354
468.99        11.08219
469.44        11.08954
469.88        11.11812
470.32         11.1622
470.77        11.20882
471.21        11.24037
471.65        11.25047
472.10         11.2458
472.54        11.23426
472.98        11.23393
473.42        11.24921
473.87        11.27833
474.31        11.30559
474.75        11.31853
475.20        11.31765
475.64        11.30384
476.08        11.29196
476.52        11.29797
476.97        11.32536
477.41        11.37414
477.85        11.43463
478.29        11.47374
478.74        11.49535
479.18        11.53518
479.62        11.59099
480.06        11.64032
480.50        11.68417
480.95        11.71901
481.39        11.73743
481.83        11.84343
482.27        11.86488
482.72        11.94494
483.16        12.02788
483.60        12.09137
484.04        12.12571
484.48        12.17806
484.93        12.30703
485.37        12.28404
485.81        12.44833
486.25         12.6078
486.69        12.46284
487.14        12.24041
487.58        13.04105
488.02        12.87786
488.46         12.5584
488.90        12.75305
489.34        12.84442
489.79        13.01931
490.23         12.9937
490.67        13.17237
491.11        13.48659
491.55         13.5997
491.99        13.53925
492.43        13.57614
492.88        13.72556
493.32        13.83289
493.76        13.89237
494.20        13.97653
494.64        14.09278
495.08        14.19673
495.52        14.28741
495.96        14.45504
496.41        14.66694
496.85        14.70409
497.29        14.60659
497.73        14.77922
498.17        15.00986
498.61        15.19565
499.05        15.25011
499.49         15.3208
499.93        15.37888
500.37        15.50489
500.82        15.67116
501.26        15.79007
501.70        15.85296
502.14        15.91871
502.58         16.0042
503.02        16.10351
503.46        16.21821
503.90        16.34945
504.34        16.47208
504.78        16.54376
505.22        16.55677
505.66        16.52521
506.10        16.48141
506.54        16.47692
506.98        16.52643
507.42        16.61714
507.86        16.72752
508.30        16.82107
508.74        16.88543
509.18        16.92928
509.62        16.96667
510.06        17.02035
510.50        17.09455
510.94        17.17943
511.38        17.25664
511.82        17.29866
512.26        17.30121
512.70        17.27626
513.14        17.24606
513.58        17.24546
514.02        17.28357
514.46        17.34871
514.90        17.42524
515.34         17.4878
515.78         17.5269
516.22        17.54926
516.66        17.55783
517.10        17.55718
517.54        17.55093
517.98        17.53805
518.42        17.52145
518.86        17.50715
519.30        17.49681
519.74        17.48882
520.18         17.4846
520.62        17.48494
521.06        17.48817
521.50        17.49384
521.93        17.49338
522.37        17.46655
522.81        17.41364
523.25         17.3403
523.69        17.26289
524.13        17.20642
524.57        17.17616
525.01        17.16503
525.45        17.15871
525.89        17.13375
526.32        17.08249
526.76        17.01619
527.20        16.94554
527.64        16.88862
528.08        16.84967
528.52        16.82195
528.96        16.79717
529.40        16.76299
529.83        16.71606
530.27        16.66232
530.71        16.60655
531.15        16.55713
531.59        16.51827
532.03        16.48842
532.46        16.46324
532.90        16.44763
533.34        16.43819
533.78        16.42413
534.22        16.40811
534.66        16.41453
535.09        16.43054
535.53        16.41447
535.97        16.36584
536.41        16.32836
536.85        16.30497
537.28        16.27013
537.72        16.23545
538.16        16.23089
538.60        16.26007
539.04         16.3171
539.47        16.37947
539.91        16.42188
540.35        16.43708
540.79        16.43556
541.22        16.44105
541.66        16.49725
542.10         16.6088
542.54        16.75905
542.97        16.91887
543.41        17.05021
543.85        17.14085
544.29         17.2063
544.72        17.25875
545.16        17.32946
545.60        17.42463
546.04         17.5375
546.47        17.67023
546.91        17.82256
547.35        17.98771
547.79        18.16481
548.22        18.33867
548.66        18.48164
549.10        18.61172
549.53        18.72759
549.97        18.84072
550.41        18.92769
550.84         19.0129
551.28        19.14381
551.72        19.30226
552.15        19.47394
552.59        19.67705
553.03        19.62725
553.46           19.91
553.90         20.0047
554.34        20.08403
554.77        20.14862
555.21        20.22203
555.65        20.32496
556.08        20.45169
556.52        20.58426
556.96        20.69566
557.39        20.80107
557.83        20.87912
558.27        20.82258
558.70        20.68134
559.14        20.65862
559.57        20.75921
560.01        20.86546
560.45        20.95256
560.88        21.04844
561.32        21.15345
561.75        21.23565
562.19        21.30542
562.63         21.3746
563.06        21.44137
563.50         21.5053
563.93        21.54358
564.37         21.5771
564.80        21.61747
565.24        21.61449
565.68        21.54381
566.11        21.83338
566.55        21.70426
566.98         21.8003
567.42        21.91763
567.85        22.07591
568.29        22.27743
568.72        22.53135
569.16        22.82932
569.60        23.01147
570.03        23.13969
570.47        23.26149
570.90        23.44141
571.34        23.36537
571.77        23.50207
572.21        23.90129
572.64        23.91272
573.08        24.05399
573.51         24.0219
573.95        24.15473
574.38        24.33606
574.82        24.82777
