SpectraSmart Spectrum 2.9.0.0
--------- Device Information -----------
Spectrum Name :  反射率_0
Saving Time :  2024/04/26 23:40:44
Spectro-Module Model Name : SE2030-DUVN
Spectro-Module Serial Number : OS361AC55029948
Wavelength Start : 200
Wavelength End : 1025
Wavelength Unit : Wavelength(nm)
Spectrum Unit : Reflectance(%)
-----------Spectrum Setting ------------
Integration Time : 20ms
Average : 10
Boxcar : 0
Background removal :  enabled
linearity correction :  enabled
SC :  disabled
Intensity correction :  disabled
DWT denoise :  enabled
savitzky-golay :  disabled
FFT :  disabled
Running average :  disabled
Kalman :  disabled
High pass :  disabled
---------------BEGIN--------------------
Wavelength(nm)             Reflectance(%)
200.29               0
200.75        45.70535
201.21        49.56987
201.67        53.38278
202.13        55.68261
202.58        56.46067
203.04        56.56371
203.50        56.95755
203.96        59.55344
204.42        65.19485
204.88        73.12846
205.34        80.41044
205.80        82.51352
206.26        78.76289
206.72        71.20684
207.18        63.68731
207.64        59.02389
208.10          57.082
208.55         57.5753
209.01        58.89228
209.47        57.34934
209.93        52.94711
210.39        48.96793
210.85         47.3958
211.31        49.41129
211.77        56.22403
212.23        72.64884
212.69        115.5803
213.14        195.2907
213.60        205.4366
214.06        159.2722
214.52        124.4311
214.98        107.7043
215.44        99.68066
215.90        93.95108
216.36        90.14451
216.81         88.8924
217.27        90.76976
217.73        98.05048
218.19        110.5963
218.65        119.0923
219.11        118.3438
219.57         112.816
220.02        109.6223
220.48        115.1313
220.94        129.8998
221.40        155.6366
221.86        192.6135
222.32        219.4711
222.77        214.8796
223.23        193.0231
223.69        168.3892
224.15        149.0689
224.61        135.3877
225.06        124.5391
225.52          118.26
225.98        117.7669
226.44        122.2027
226.90        130.6002
227.36         140.164
227.81        145.6225
228.27        145.9961
228.73        142.9418
229.19         139.293
229.65        138.4827
230.10        140.7824
230.56        145.0454
231.02        149.4658
231.48        151.3386
231.93        150.0263
232.39         147.267
232.85        144.2687
233.31        142.6523
233.77        142.5937
234.22         143.365
234.68         144.424
235.14        145.0254
235.60        144.8478
236.05        144.3474
236.51        142.9693
236.97        140.1783
237.43        136.0345
237.88        130.8355
238.34        125.6895
238.80        122.7366
239.26        122.6334
239.71        126.0373
240.17        131.5379
240.63        135.8218
241.08        136.8764
241.54        133.9336
242.00        129.9471
242.46        131.2151
242.91        142.1054
243.37         164.163
243.83        198.3573
244.28        229.1647
244.74        231.7336
245.20         205.396
245.66         169.946
246.11        142.9098
246.57        125.4141
247.03        112.5053
247.48        101.4025
247.94        90.67757
248.40        82.32273
248.85        77.35608
249.31        75.44656
249.77        75.36937
250.22        76.54858
250.68        78.81298
251.14        82.49477
251.59        87.25446
252.05         91.9773
252.51         96.4845
252.96        98.66426
253.42        97.80379
253.88         94.7627
254.33        90.04305
254.79        87.68945
255.25          90.877
255.70        99.00892
256.16        110.8715
256.62        121.3256
257.07        122.5167
257.53        116.6125
257.99        108.4365
258.44        102.0833
258.90         101.414
259.35        104.7004
259.81        110.4153
260.27        115.9696
260.72        118.1843
261.18        117.3521
261.63        114.4565
262.09        111.7091
262.55        110.4817
263.00        110.5746
263.46        111.5918
263.91        112.1896
264.37        111.3693
264.83        109.0646
265.28        105.8829
265.74        103.0591
266.19        101.5146
266.65        101.4824
267.11        102.3489
267.56        103.4924
268.02        103.9795
268.47        103.4955
268.93        102.4305
269.38        100.9319
269.84        99.34913
270.30        97.80704
270.75        96.16334
271.21        94.67154
271.66         93.6114
272.12        93.01429
272.57        92.74948
273.03        92.47901
273.48        91.57701
273.94        90.04013
274.39        88.02457
274.85         85.9886
275.31        84.28351
275.76        82.95796
276.22        81.98305
276.67        81.15693
277.13        80.44493
277.58        79.66558
278.04         78.8819
278.49        77.99348
278.95        77.08798
279.40         76.0654
279.86         75.0715
280.31        73.88657
280.77        72.45918
281.22        70.74574
281.68        68.96772
282.13        67.34229
282.59        66.37405
283.04        66.00925
283.50        66.12614
283.95        66.33899
284.41        66.10041
284.86        65.26145
285.32        64.05492
285.77        62.73125
286.22        61.77316
286.68         61.2618
287.13        60.97103
287.59        60.71466
288.04        60.12111
288.50        59.18309
288.95        58.00965
289.41        56.82097
289.86         55.7867
290.32         55.0261
290.77        54.42389
291.22        53.96481
291.68        53.59981
292.13        53.27302
292.59        53.03154
293.04        52.84066
293.50        52.68343
293.95        52.53926
294.40        52.40643
294.86        52.31822
295.31        52.31405
295.77        52.41586
296.22        52.60049
296.68        52.83353
297.13        53.02478
297.58        53.17028
298.04        53.29486
298.49        53.45382
298.95        53.76712
299.40        54.22767
299.85        54.78076
300.31         55.3358
300.76         55.7294
301.21        55.93126
301.67        56.01055
302.12        55.98762
302.58        55.98545
303.03        56.00335
303.48        56.04482
303.94        56.12831
304.39        56.21928
304.84        56.32609
305.30        56.46057
305.75        56.58049
306.20        56.69629
306.66        56.81577
307.11        56.91361
307.57        56.97269
308.02        56.89024
308.47        56.68428
308.93        56.39782
309.38        56.11272
309.83        56.02671
310.29        56.16641
310.74        56.45889
311.19        56.76028
311.65        56.82759
312.10        56.59545
312.55        56.14167
313.00        55.61182
313.46        55.22218
313.91        55.00865
314.36        54.92223
314.82        54.86123
315.27         54.6805
315.72        54.34201
316.18        53.91846
316.63        53.48996
317.08        53.19738
317.53        53.06608
317.99        53.03196
318.44        53.02315
318.89        52.91192
319.35        52.66106
319.80        52.31469
320.25        51.91534
320.70        51.53098
321.16        51.18691
321.61        50.88121
322.06        50.60786
322.51        50.36538
322.97        50.14101
323.42        49.93755
323.87        49.76262
324.32         49.6328
324.78        49.52381
325.23        49.45903
325.68        49.33989
326.13        49.02431
326.59        48.50096
327.04         47.8377
327.49        47.19432
327.94        46.82702
328.39         46.7849
328.85        46.97608
329.30        47.28612
329.75        47.40133
330.20        47.22434
330.66        46.83201
331.11        46.36708
331.56        46.02728
332.01        45.87435
332.46        45.83144
332.92        45.81772
333.37        45.77422
333.82        45.64519
334.27        45.48227
334.72         45.2925
335.17        45.07177
335.63         44.8328
336.08        44.60104
336.53        44.42594
336.98        44.41116
337.43        44.56974
337.88        44.85293
338.34        45.18357
338.79        45.47655
339.24        45.66086
339.69        45.75349
340.14        45.71632
340.59         45.5014
341.05        45.14141
341.50        44.66801
341.95        44.20421
342.40         43.9334
342.85        43.90253
343.30        44.06715
343.75        44.35152
344.20        44.62047
344.66         44.8205
345.11        44.97077
345.56        45.07305
346.01        45.13908
346.46        45.17682
346.91        45.17549
347.36        45.13488
347.81        45.06745
348.26        44.98178
348.72        44.88393
349.17        44.79816
349.62        44.77407
350.07        44.81813
350.52        44.92371
350.97        45.02398
351.42         45.0104
351.87        44.86385
352.32        44.61427
352.77        44.35754
353.22        44.23576
353.67        44.27167
354.13        44.42064
354.58        44.57749
355.03        44.56221
355.48        44.33643
355.93        43.96456
356.38        43.56759
356.83        43.32554
357.28        43.27066
357.73        43.33023
358.18        43.40817
358.63        43.35303
359.08        43.11929
359.53        42.76289
359.98        42.32638
360.43        41.86457
360.88        41.40607
361.33        40.94215
361.78        40.49645
362.23        40.11242
362.68        39.80449
363.13        39.57061
363.58        39.39339
364.03        39.23429
364.48        39.07474
364.93        38.91598
365.38        38.75066
365.83        38.57381
366.28        38.38421
366.73        38.17722
367.18        37.95879
367.63        37.74139
368.08        37.52922
368.53        37.32431
368.98        37.12127
369.43        36.90839
369.88        36.68448
370.33        36.45234
370.78        36.22675
371.23        36.03479
371.68        35.87846
372.13        35.74323
372.58        35.60551
373.03        35.42603
373.48        35.19553
373.93        34.93229
374.38         34.6438
374.83        34.34538
375.28        34.05012
375.72        33.74546
376.17        33.48391
376.62        33.30164
377.07        33.20214
377.52        33.17929
377.97        33.17056
378.42        33.07661
378.87        32.87853
379.32        32.59766
379.77        32.32392
380.22        32.19118
380.67        32.21659
381.11        32.36868
381.56        32.50821
382.01        32.43526
382.46         32.1158
382.91        31.63726
383.36        31.15355
383.81        30.87267
384.26          30.831
384.71        30.96012
385.15        31.15777
385.60        31.25244
386.05        31.19097
386.50        31.02548
386.95        30.81831
387.40        30.66528
387.85         30.5917
388.29        30.54102
388.74        30.51242
389.19        30.43579
389.64        30.29844
390.09        30.11876
390.54        29.92973
390.98         29.7758
391.43        29.68786
391.88        29.64729
392.33        29.61632
392.78        29.54084
393.23        29.41335
393.67        29.23874
394.12        29.08575
394.57         28.9977
395.02        28.97851
395.47        28.99681
395.91        29.01641
396.36         28.9638
396.81         28.8409
397.26        28.68632
397.71         28.5167
398.15        28.37123
398.60        28.29766
399.05        28.16482
399.50         28.0283
399.95        28.17762
400.39        28.52236
400.84        28.54159
401.29        28.23621
401.74        28.05689
402.18        28.02694
402.63        27.86111
403.08        27.61379
403.53        27.49653
403.97        27.52767
404.42        27.65476
404.87        27.79557
405.32        27.81366
405.76        27.67675
406.21         27.4423
406.66         27.1989
407.11        27.08666
407.55        27.14316
408.00        27.31053
408.45        27.50831
408.90        27.58075
409.34        27.48149
409.79        27.27152
410.24        27.02908
410.68          26.854
411.13        26.77963
411.58        26.77125
412.03        26.79532
412.47        26.79979
412.92        26.75838
413.37        26.70103
413.81        26.64355
414.26        26.63018
414.71        26.65826
415.15        26.71935
415.60        26.78277
416.05        26.82582
416.49         26.8418
416.94        26.83624
417.39        26.82166
417.83        26.81428
418.28        26.81808
418.73        26.82068
419.17         26.8286
419.62        26.85369
420.07        26.89444
420.51        26.94312
420.96        26.97414
421.41        26.94138
421.85        26.83207
422.30        26.65264
422.74        26.44364
423.19        26.38172
423.64        26.43886
424.08        26.43308
424.53        26.33479
424.98        26.29587
425.42        26.32867
425.87        26.27353
426.31        26.16033
426.76        26.22368
427.21        26.39665
427.65        26.29659
428.10         26.0023
428.54        25.91386
428.99        26.05681
429.44        26.29809
429.88        26.52838
430.33        26.47362
430.77        26.20884
431.22        26.25391
431.66        26.56594
432.11        26.66591
432.56        26.55837
433.00        26.47663
433.45        26.38618
433.89        26.40334
434.34        26.56866
434.78         25.9497
435.23        26.10179
435.67        26.05288
436.12        26.19142
436.57        26.17678
437.01         26.0119
437.46        25.90761
437.90        25.86192
438.35          25.754
438.79         25.6103
439.24        25.55776
439.68        25.60166
440.13        25.70663
440.57        25.84165
441.02        25.94764
441.46        25.99462
441.91         26.0085
442.35        25.98132
442.80        25.99328
443.24        26.02222
443.69        26.01259
444.13        25.96849
444.58        25.96763
445.02        26.00909
445.47        26.05941
445.91        26.10781
446.36        26.16076
446.80        26.20675
447.24         26.2426
447.69         26.2646
448.13        26.25804
448.58        26.22771
449.02        26.17345
449.47        26.10833
449.91        26.03914
450.36        25.98078
450.80        25.93001
451.25         25.8965
451.69        25.87575
452.13        25.86885
452.58        25.86642
453.02        25.87104
453.47        25.89005
453.91        25.92048
454.36        25.96705
454.80        25.98935
455.24        25.92358
455.69        25.77591
456.13        25.55495
456.58         25.3633
457.02         25.3146
457.46        25.43464
457.91        25.67868
458.35         25.9306
458.79        26.01499
459.24        25.91603
459.68        25.68026
460.13        25.42972
460.57        25.28289
461.01        25.29031
461.46        25.39062
461.90        25.54852
462.34        25.68767
462.79        25.76789
463.23        25.81929
463.68        25.82483
464.12        25.77021
464.56        25.65776
465.01        25.52598
465.45        25.37001
465.89        25.25466
466.34        25.18988
466.78        25.15519
467.22        25.15952
467.67        25.19139
468.11        25.25694
468.55        25.34668
468.99        25.43326
469.44        25.46925
469.88        25.44829
470.32        25.38033
470.77        25.30153
471.21        25.27692
471.65        25.31945
472.10        25.41184
472.54        25.51861
472.98        25.59193
473.42        25.61713
473.87        25.61678
474.31        25.59234
474.75        25.56934
475.20        25.56106
475.64        25.55223
476.08        25.55333
476.52        25.54431
476.97        25.52057
477.41        25.54432
477.85        25.63258
478.29        25.53967
478.74        25.65375
479.18        25.73971
479.62        25.87767
480.06        25.96733
480.50        26.00546
480.95        26.00423
481.39        25.95049
481.83        26.08002
482.27        26.01521
482.72        26.07212
483.16        26.15573
483.60        26.22141
484.04        26.25272
484.48        26.41602
484.93        26.71923
485.37        26.50933
485.81         26.7366
486.25        26.86533
486.69        26.98032
487.14        27.26848
487.58        27.16308
488.02        27.38102
488.46        26.88735
488.90        27.37439
489.34        27.30844
489.79        27.50978
490.23        27.55984
490.67        27.73096
491.11         27.9707
491.55        27.94465
491.99        27.73045
492.43        27.69299
492.88        27.87273
493.32        28.07813
493.76        28.26322
494.20        28.45404
494.64        28.63765
495.08         28.7486
495.52        28.80284
495.96         28.9911
496.41        29.25283
496.85          29.214
497.29        28.92947
497.73        29.00483
498.17        29.08665
498.61        29.34145
499.05        29.58192
499.49        29.73223
499.93        29.71482
500.37        29.89031
500.82         30.2081
501.26        30.40955
501.70        30.47379
502.14        30.53434
502.58        30.62491
503.02        30.73881
503.46        30.88247
503.90        31.05629
504.34        31.21324
504.78        31.27647
505.22         31.2344
505.66        31.11456
506.10        30.98302
506.54         30.9449
506.98        31.02464
507.42        31.18855
507.86        31.38634
508.30        31.53428
508.74        31.60497
509.18        31.62411
509.62        31.61211
510.06        31.60207
510.50        31.60848
510.94        31.61952
511.38        31.63947
511.82        31.67739
512.26        31.73411
512.70        31.81193
513.14        31.90029
513.58        31.97826
514.02        32.03918
514.46        32.08393
514.90        32.12111
515.34        32.16751
515.78         32.2242
516.22        32.28231
516.66        32.32638
517.10        32.33326
517.54        32.29911
517.98        32.23453
518.42        32.15483
518.86        32.08351
519.30        32.02985
519.74        31.98965
520.18         31.9611
520.62        31.93897
521.06        31.92196
521.50        31.91552
521.93        31.91907
522.37        31.91898
522.81         31.9178
523.25        31.91449
523.69        31.91688
524.13        31.94015
524.57         31.9815
525.01        32.02745
525.45        32.06166
525.89         32.0589
526.32        32.00925
526.76        31.93271
527.20        31.82768
527.64        31.69528
528.08          31.545
528.52        31.38016
528.96        31.23545
529.40        31.16275
529.83        31.16739
530.27         31.2367
530.71        31.31714
531.15        31.32508
531.59        31.24064
532.03        31.08451
532.46        30.90237
532.90        30.79011
533.34        30.76293
533.78        30.77645
534.22        30.78693
534.66        30.76445
535.09        30.67641
535.53        30.48252
535.97        30.24174
536.41        30.12242
536.85        30.14876
537.28        30.23947
537.72        30.37201
538.16        30.53247
538.60        30.69796
539.04        30.87055
539.47        31.01206
539.91        31.08493
540.35        31.08199
540.79        31.01767
541.22        30.94472
541.66        30.96116
542.10         31.0834
542.54        31.28276
542.97        31.50607
543.41        31.68041
543.85         31.7818
544.29        31.84125
544.72        31.87829
545.16        31.94325
545.60        32.04587
546.04        32.17379
546.47        32.33392
546.91        32.53325
547.35         32.7619
547.79        33.01607
548.22        33.26465
548.66        33.45198
549.10        33.60714
549.53         33.7277
549.97        33.83556
550.41        33.89272
550.84        33.94654
551.28         34.0838
551.72        34.26818
552.15        34.46812
552.59         34.7168
553.03        34.51629
553.46        34.91328
553.90        35.01508
554.34        35.12755
554.77        35.24612
555.21        35.38535
555.65        35.53976
556.08        35.69227
556.52         35.8237
556.96        35.92188
557.39        36.06571
557.83        36.22709
558.27        36.20208
558.70        36.03741
559.14        36.02605
559.57        36.16074
560.01         36.2542
560.45        36.30027
560.88        36.39596
561.32        36.55323
561.75        36.72219
562.19        36.88614
562.63        36.96908
563.06        36.97995
563.50        37.03159
563.93        37.10118
564.37        37.16692
564.80        37.24913
565.24        37.29861
565.68        37.24307
566.11        37.75457
566.55        37.47726
566.98        37.54568
567.42        37.62978
567.85        37.80432
568.29        38.08216
568.72        38.45002
569.16        38.88213
569.60        39.14283
570.03        39.35422
570.47        39.49052
570.90        39.61823
571.34        39.62302
571.77        39.69377
572.21        40.00676
572.64        40.14312
573.08        40.24114
573.51         40.2449
573.95        40.42172
574.38        40.77845
574.82         40.9905
