SpectraSmart Spectrum 2.9.0.0
--------- Device Information -----------
Spectrum Name :  反射率_0
Saving Time :  2024/04/26 23:40:59
Spectro-Module Model Name : SE2030-DUVN
Spectro-Module Serial Number : OS361AC55029948
Wavelength Start : 200
Wavelength End : 1025
Wavelength Unit : Wavelength(nm)
Spectrum Unit : Reflectance(%)
-----------Spectrum Setting ------------
Integration Time : 20ms
Average : 10
Boxcar : 0
Background removal :  enabled
linearity correction :  enabled
SC :  disabled
Intensity correction :  disabled
DWT denoise :  enabled
savitzky-golay :  disabled
FFT :  disabled
Running average :  disabled
Kalman :  disabled
High pass :  disabled
---------------BEGIN--------------------
Wavelength(nm)             Reflectance(%)
200.29               0
200.75        40.56608
201.21         44.0405
201.67        48.01817
202.13        50.16245
202.58        50.27648
203.04        49.40774
203.50          48.877
203.96        51.64749
204.42        59.24267
204.88        70.69163
205.34        82.10939
205.80        87.18581
206.26        84.67447
206.72        77.07488
207.18        69.30063
207.64        65.45438
208.10         65.8288
208.55        70.48092
209.01        77.77391
209.47        80.54347
209.93        75.92712
210.39        69.05856
210.85          64.727
211.31        65.54753
211.77        72.56709
212.23        90.85129
212.69        137.5334
213.14        214.5437
213.60        208.0756
214.06        152.0734
214.52        115.8851
214.98        101.7043
215.44        98.28387
215.90        98.53049
216.36        101.3883
216.81        106.3289
217.27        113.5427
217.73        126.8286
218.19         143.748
218.65        147.2392
219.11        133.7997
219.57        115.4681
220.02        104.4211
220.48        107.8358
220.94        125.0963
221.40         158.257
221.86        207.8964
222.32        245.5657
222.77        242.3766
223.23        216.0642
223.69        185.8683
224.15        163.1999
224.61        148.2979
225.06        136.8655
225.52        130.8453
225.98        131.7866
226.44        138.6504
226.90        150.4975
227.36        163.4299
227.81        170.0988
228.27        169.3016
228.73        163.4923
229.19        157.1314
229.65        155.5747
230.10        159.1077
230.56        165.8182
231.02        172.6395
231.48        174.8645
231.93        171.6419
232.39        165.9094
232.85         159.856
233.31        156.2275
233.77        155.4432
234.22         156.322
234.68        158.3323
235.14         160.825
235.60        163.3549
236.05        166.4033
236.51        168.7559
236.97        168.4413
237.43        164.8318
237.88        158.3505
238.34         150.621
238.80        144.9015
239.26        142.2344
239.71        143.0407
240.17        145.8596
240.63        147.8199
241.08        147.3807
241.54        144.0811
242.00        141.0019
242.46        144.0089
242.91        157.3872
243.37        183.2409
243.83        221.1865
244.28        250.0135
244.74        241.0113
245.20        197.3878
245.66        148.3803
246.11        117.3811
246.57        104.1076
247.03        101.2785
247.48         102.972
247.94        100.6773
248.40        94.15488
248.85        87.42817
249.31        82.90363
249.77        81.08882
250.22        81.41973
250.68        83.14769
251.14        85.63495
251.59        86.89236
252.05        86.45241
252.51        86.19197
252.96        86.39212
253.42        87.84798
253.88        90.36948
254.33        92.64038
254.79        96.85208
255.25        104.8626
255.70        116.1161
256.16        130.0449
256.62        141.5019
257.07        142.4774
257.53        135.7403
257.99         126.579
258.44        119.3493
258.90        118.2321
259.35        121.3421
259.81        127.0738
260.27        132.9121
260.72        135.7685
261.18        135.8288
261.63        133.8285
262.09        131.7161
262.55        130.4442
263.00        129.8739
263.46        129.9172
263.91         129.502
264.37        128.1162
264.83        125.7127
265.28        122.6823
265.74        120.1266
266.19        118.7107
266.65         118.644
267.11         119.394
267.56        120.3512
268.02        120.6062
268.47        119.8654
268.93        118.5035
269.38        116.7405
269.84        115.0693
270.30        113.6124
270.75        112.1714
271.21        110.8685
271.66        109.7578
272.12        108.8343
272.57        108.0335
273.03        107.1434
273.48        105.7336
273.94        103.8815
274.39        101.6775
274.85        99.54079
275.31        97.72482
275.76        96.24481
276.22        95.12327
276.67        94.16215
277.13        93.36517
277.58        92.53816
278.04         91.7387
278.49        90.82577
278.95        89.87411
279.40        88.75429
279.86         87.6188
280.31        86.25931
280.77        84.68311
281.22        82.82986
281.68        80.93532
282.13        79.12984
282.59         77.8335
283.04        76.97639
283.50        76.48323
283.95        76.09375
284.41        75.47837
284.86        74.53688
285.32        73.45281
285.77        72.31356
286.22        71.38349
286.68          70.703
287.13        70.09644
287.59        69.52989
288.04        68.85365
288.50        68.09347
288.95        67.25488
289.41        66.38236
289.86        65.37263
290.32        64.32213
290.77        63.22385
291.22        62.23921
291.68        61.57265
292.13         61.2197
292.59        61.13614
293.04        61.19274
293.50        61.22984
293.95        61.17054
294.40        61.06313
294.86        60.93634
295.31        60.81612
295.77        60.73971
296.22        60.67603
296.68        60.65829
297.13        60.70487
297.58        60.83133
298.04        61.03576
298.49        61.29371
298.95        61.59524
299.40        61.90611
299.85        62.22233
300.31        62.52756
300.76        62.76481
301.21        62.93561
301.67        63.07503
302.12        63.16358
302.58        63.27459
303.03        63.38287
303.48         63.5094
303.94        63.68116
304.39        63.86509
304.84        64.07223
305.30         64.3047
305.75        64.51006
306.20        64.69749
306.66        64.87563
307.11        65.01688
307.57        65.10693
308.02        65.03596
308.47        64.82364
308.93        64.51257
309.38        64.19227
309.83        64.08006
310.29        64.20823
310.74        64.50805
311.19        64.81091
311.65        64.83079
312.10        64.50155
312.55        63.91766
313.00        63.28656
313.46        62.91795
313.91        62.85382
314.36        63.00782
314.82          63.196
315.27        63.14111
315.72        62.76729
316.18        62.19027
316.63        61.54618
317.08        61.06808
317.53        60.81368
317.99        60.69522
318.44        60.63023
318.89        60.47208
319.35        60.17471
319.80        59.79227
320.25        59.36893
320.70        58.96862
321.16        58.61368
321.61        58.30316
322.06        58.01411
322.51        57.72338
322.97        57.41444
323.42        57.09272
323.87        56.80302
324.32         56.6242
324.78        56.53966
325.23         56.5621
325.68        56.52838
326.13        56.18604
326.59        55.50156
327.04        54.58348
327.49        53.67253
327.94        53.15017
328.39        53.09695
328.85        53.38412
329.30        53.84628
329.75        54.06057
330.20        53.89021
330.66        53.43999
331.11        52.89487
331.56         52.5155
332.01        52.38268
332.46        52.39539
332.92        52.43951
333.37        52.41463
333.82        52.24731
334.27        52.00496
334.72        51.72426
335.17        51.44654
335.63        51.19566
336.08        50.98711
336.53        50.83823
336.98        50.80267
337.43        50.88129
337.88        51.04102
338.34        51.24037
338.79        51.46023
339.24        51.64693
339.69        51.80371
340.14        51.85565
340.59        51.69284
341.05        51.33485
341.50        50.83229
341.95        50.34536
342.40        50.11657
342.85        50.19925
343.30        50.51557
343.75        50.95198
344.20        51.31485
344.66         51.5294
345.11         51.6362
345.56        51.63916
346.01         51.5529
346.46        51.40475
346.91        51.19654
347.36        50.97249
347.81        50.81333
348.26        50.73682
348.72         50.7219
349.17        50.75705
349.62        50.83218
350.07        50.93016
350.52        51.06282
350.97        51.14309
351.42        51.03473
351.87        50.72722
352.32        50.26058
352.77        49.80358
353.22         49.6072
353.67        49.71107
354.13        50.04181
354.58        50.40731
355.03        50.47709
355.48        50.17104
355.93        49.59134
356.38        48.95145
356.83        48.57084
357.28        48.51431
357.73        48.67598
358.18        48.86686
358.63        48.78456
359.08        48.35946
359.53         47.7046
359.98        46.99332
360.43        46.47335
360.88        46.20071
361.33        46.09147
361.78        46.02852
362.23        45.83139
362.68        45.45915
363.13        44.98629
363.58        44.49908
364.03        44.12094
364.48        43.88147
364.93         43.7269
365.38        43.61424
365.83        43.48232
366.28        43.30513
366.73        43.10455
367.18        42.87217
367.63        42.59108
368.08        42.26542
368.53        41.89874
368.98        41.52641
369.43        41.20763
369.88        40.95657
370.33        40.76099
370.78        40.59018
371.23        40.39063
371.68        40.14763
372.13        39.87651
372.58        39.60234
373.03        39.36373
373.48        39.16766
373.93        38.99683
374.38        38.82595
374.83        38.61953
375.28        38.36935
375.72        38.08007
376.17        37.79635
376.62        37.53619
377.07        37.31254
377.52        37.12872
377.97        36.96982
378.42        36.81757
378.87        36.66518
379.32        36.50051
379.77        36.36551
380.22        36.32121
380.67        36.36316
381.11        36.48466
381.56        36.54263
382.01        36.34155
382.46        35.86618
382.91        35.20953
383.36        34.57278
383.81        34.22894
384.26        34.21965
384.71        34.45911
385.15        34.79124
385.60        34.94841
386.05        34.85193
386.50        34.58054
386.95        34.24136
387.40        34.00348
387.85         33.9079
388.29        33.86643
388.74        33.85598
389.19        33.76699
389.64        33.58017
390.09        33.33627
390.54        33.07457
390.98        32.84803
391.43         32.6988
391.88         32.6018
392.33        32.54486
392.78        32.51093
393.23        32.48922
393.67        32.46877
394.12        32.46814
394.57        32.45077
395.02         32.4082
395.47        32.32992
395.91         32.2397
396.36        32.16607
396.81         32.1347
397.26         32.1471
397.71        32.15302
398.15        32.09752
398.60         32.0149
399.05        31.79348
399.50        31.54284
399.95        31.65264
400.39        32.03745
400.84        32.09364
401.29        31.79752
401.74        31.61599
402.18        31.56615
402.63        31.34458
403.08        31.03465
403.53        30.90605
403.97        30.98458
404.42        31.19311
404.87        31.42418
405.32        31.50324
405.76        31.38407
406.21        31.13898
406.66        30.86092
407.11        30.69539
407.55        30.68954
408.00        30.78686
408.45         30.9252
408.90        30.98062
409.34         30.9144
409.79        30.77576
410.24        30.62902
410.68        30.55427
411.13        30.57568
411.58        30.65965
412.03        30.75283
412.47        30.76986
412.92        30.67886
413.37        30.52464
413.81         30.3538
414.26        30.25888
414.71         30.2463
415.15        30.29617
415.60        30.36545
416.05        30.41208
416.49        30.42028
416.94        30.40265
417.39         30.3655
417.83        30.31252
418.28         30.2497
418.73        30.17005
419.17        30.09852
419.62        30.07938
420.07        30.11793
420.51        30.19242
420.96         30.2689
421.41        30.28513
421.85        30.21962
422.30        30.08462
422.74        29.90387
423.19        29.84493
423.64        29.87475
424.08        29.79175
424.53        29.60855
424.98        29.57691
425.42        29.72347
425.87         29.8386
426.31         29.8889
426.76        30.03639
427.21        30.18593
427.65        29.94058
428.10        29.44116
428.54        29.24389
428.99        29.40359
429.44        29.66493
429.88        29.91986
430.33        30.03098
430.77        29.99409
431.22        30.07948
431.66        30.24604
432.11        30.24833
432.56        30.11313
433.00        29.86169
433.45        29.51219
433.89        29.55342
434.34        29.99398
434.78        29.41959
435.23         29.5637
435.67        29.51458
436.12        29.70343
436.57        29.61438
437.01         29.2996
437.46        29.15504
437.90        29.19829
438.35        29.23633
438.79        29.24146
439.24        29.27753
439.68         29.3337
440.13        29.40084
440.57        29.46713
441.02        29.52418
441.46        29.55965
441.91        29.52847
442.35        29.43683
442.80        29.52015
443.24        29.68963
443.69        29.60114
444.13        29.30083
444.58        29.18352
445.02        29.26621
445.47        29.34077
445.91        29.38202
446.36        29.45158
446.80        29.53064
447.24        29.60242
447.69        29.65345
448.13        29.65213
448.58        29.60204
449.02        29.50843
449.47        29.40219
449.91        29.31627
450.36        29.27172
450.80        29.25528
451.25        29.26207
451.69        29.26067
452.13        29.24731
452.58        29.22331
453.02        29.19762
453.47        29.18875
453.91        29.19759
454.36        29.22136
454.80        29.22668
455.24        29.16241
455.69        29.03359
456.13        28.84356
456.58        28.67262
457.02        28.59466
457.46        28.63534
457.91        28.76857
458.35        28.91038
458.79        28.93812
459.24        28.85089
459.68        28.67416
460.13        28.51285
460.57        28.45592
461.01        28.54419
461.46        28.71881
461.90        28.94113
462.34        29.12726
462.79        29.23326
463.23        29.28983
463.68        29.27732
464.12         29.1834
464.56        29.01755
465.01        28.82897
465.45        28.62462
465.89        28.49168
466.34        28.44113
466.78        28.44402
467.22        28.49728
467.67        28.56346
468.11        28.64108
468.55        28.72614
468.99        28.79279
469.44        28.79743
469.88        28.73782
470.32        28.62091
470.77        28.49517
471.21        28.44651
471.65        28.49039
472.10        28.60472
472.54        28.73375
472.98          28.797
473.42        28.77447
473.87        28.70206
474.31        28.60058
474.75        28.52839
475.20        28.50845
475.64        28.51244
476.08         28.5353
476.52        28.55466
476.97         28.5651
477.41        28.59187
477.85        28.64431
478.29         28.6926
478.74         28.7575
479.18        28.90302
479.62        29.09664
480.06        29.23933
480.50        29.32256
480.95        29.35969
481.39        29.32932
481.83        29.48133
482.27        29.38398
482.72         29.3897
483.16        29.40007
483.60        29.39986
484.04        29.41343
484.48        29.54201
484.93        29.75659
485.37        29.55882
485.81         30.0275
486.25        29.44262
486.69        30.17493
487.14        30.32559
487.58        30.45957
488.02        30.80339
488.46        30.11095
488.90        30.13702
489.34         30.3957
489.79        30.75671
490.23        30.84964
490.67        30.84301
491.11        30.73349
491.55         30.6789
491.99        30.71864
492.43        30.75405
492.88        30.80174
493.32        30.95025
493.76         31.1803
494.20        31.40771
494.64        31.61973
495.08        31.82587
495.52        32.00013
495.96        32.17839
496.41        32.34061
496.85        32.30612
497.29        32.13055
497.73        32.35537
498.17        32.53138
498.61        32.74858
499.05        32.82389
499.49        32.86151
499.93         32.7962
500.37        32.90907
500.82        33.15154
501.26        33.31448
501.70        33.38074
502.14        33.47482
502.58        33.62244
503.02        33.79845
503.46         33.9996
503.90        34.22736
504.34        34.42664
504.78        34.50773
505.22        34.45586
505.66        34.30587
506.10        34.14236
506.54        34.05597
506.98        34.07011
507.42        34.23775
507.86        34.53394
508.30        34.46834
508.74        34.71872
509.18          34.742
509.62         34.7624
510.06         34.7842
510.50        34.82178
510.94        34.85718
511.38         34.8858
511.82        34.92416
512.26        34.97283
512.70        35.03258
513.14        35.10048
513.58        35.16801
514.02        35.23117
514.46         35.2889
514.90        35.33902
515.34         35.3803
515.78        35.40979
516.22        35.42314
516.66        35.41931
517.10        35.39785
517.54        35.36069
517.98        35.31414
518.42        35.25673
518.86        35.18439
519.30        35.10291
519.74        35.01889
520.18        34.95401
520.62        34.93951
521.06        34.97973
521.50        35.06371
521.93        35.16644
522.37        35.23444
522.81        35.25571
523.25        35.23814
523.69        35.19793
524.13        35.16436
524.57        35.14204
525.01        35.11592
525.45        35.07419
525.89        34.99913
526.32        34.88642
526.76        34.76187
527.20        34.62674
527.64        34.48336
528.08         34.3398
528.52        34.19579
528.96        34.08387
529.40        34.05291
529.83        34.10469
530.27         34.2263
530.71         34.3536
531.15        34.38762
531.59        34.30722
532.03        34.13747
532.46        33.94123
532.90        33.84457
533.34        33.86586
533.78        33.94536
534.22        34.01977
534.66        34.03434
535.09        33.94447
535.53        33.70985
535.97         33.3987
536.41        33.20093
536.85        33.15057
537.28        33.16641
537.72        33.22794
538.16        33.32666
538.60        33.44322
539.04        33.57681
539.47        33.70668
539.91        33.82173
540.35        33.91032
540.79        33.97438
541.22        34.01689
541.66        34.05896
542.10        34.10505
542.54        34.15401
542.97        34.21114
543.41        34.29825
543.85        34.41387
544.29        34.55837
544.72        34.71105
545.16        34.86143
545.60        34.99887
546.04         35.1298
546.47        35.27224
546.91        35.44995
547.35        35.66104
547.79         35.8956
548.22        36.12383
548.66        36.29322
549.10        36.43901
549.53         36.5624
549.97        36.68731
550.41        36.77005
550.84        36.85881
551.28        37.04274
551.72        37.28178
552.15        37.54203
552.59         37.8546
553.03        37.67154
553.46        38.11995
553.90        38.20437
554.34        38.25841
554.77        38.28894
555.21        38.33461
555.65          38.422
556.08        38.54392
556.52        38.67977
556.96        38.80927
557.39        38.96883
557.83        39.17397
558.27        39.17319
558.70        39.01357
559.14        39.01925
559.57        39.17627
560.01        39.28107
560.45         39.3257
560.88        39.41626
561.32         39.5674
561.75        39.72873
562.19         39.8895
562.63        39.97058
563.06         39.9868
563.50         40.0738
563.93        40.19059
564.37        40.27412
564.80        40.33969
565.24        40.34773
565.68        40.23689
566.11          40.754
566.55         40.4407
566.98        40.51934
567.42        40.61401
567.85        40.77058
568.29        41.00132
568.72        41.31639
569.16        41.72845
569.60        41.98938
570.03        42.23087
570.47        42.48346
570.90        42.80145
571.34        42.61812
571.77        43.00746
572.21        43.11534
572.64        43.20656
573.08        43.38417
573.51        43.16166
573.95        43.36184
574.38        43.88533
574.82        43.82959
