SpectraSmart Spectrum 2.9.0.0
--------- Device Information -----------
Spectrum Name :  反射率_0
Saving Time :  2024/04/26 23:32:22
Spectro-Module Model Name : SE2030-DUVN
Spectro-Module Serial Number : OS361AC55029948
Wavelength Start : 200
Wavelength End : 1025
Wavelength Unit : Wavelength(nm)
Spectrum Unit : Reflectance(%)
-----------Spectrum Setting ------------
Integration Time : 20ms
Average : 10
Boxcar : 0
Background removal :  enabled
linearity correction :  enabled
SC :  disabled
Intensity correction :  disabled
DWT denoise :  enabled
savitzky-golay :  disabled
FFT :  disabled
Running average :  disabled
Kalman :  disabled
High pass :  disabled
---------------BEGIN--------------------
Wavelength(nm)             Reflectance(%)
200.29               0
200.75        39.93904
201.21        41.80404
201.67        43.57335
202.13        44.20827
202.58        43.60686
203.04        42.23079
203.50        40.82481
203.96        41.40617
204.42        45.11312
204.88        51.37696
205.34        57.89926
205.80        60.73596
206.26        58.97094
206.72        54.20144
207.18        48.96261
207.64         45.0466
208.10        42.35206
208.55         40.4128
209.01        38.50222
209.47        36.84407
209.93        36.34958
210.39         37.1718
210.85        39.01845
211.31        42.50239
211.77        49.07827
212.23        62.82881
212.69        96.83648
213.14        157.4701
213.60        160.9046
214.06        122.8577
214.52        94.29539
214.98        78.41164
215.44         67.7646
215.90          57.644
216.36        49.14408
216.81        45.03904
217.27        46.53909
217.73        54.93937
218.19        68.58943
218.65        74.37228
219.11        67.32026
219.57        55.95654
220.02        48.66591
220.48        50.10173
220.94        59.91705
221.40        78.83356
221.86         106.771
222.32        127.0332
222.77        123.2039
223.23        105.9322
223.69        86.92659
224.15        72.82283
224.61        63.42852
225.06        56.36046
225.52        51.78327
225.98        49.69438
226.44        49.60674
226.90        51.29396
227.36        53.78411
227.81        55.29384
228.27        55.43911
228.73        54.50602
229.19        53.48402
229.65        53.61579
230.10        54.95544
230.56        57.14872
231.02        59.06076
231.48        58.97404
231.93        56.75257
232.39        53.48246
232.85        50.58077
233.31        49.89558
233.77          51.521
234.22        54.76067
234.68        58.38711
235.14        60.55622
235.60         60.6909
236.05        59.29066
236.51        56.91586
236.97         54.9341
237.43        54.03435
237.88         53.9634
238.34        54.41811
238.80        55.07653
239.26        55.88134
239.71        57.51233
240.17         59.9926
240.63         63.4681
241.08        67.98878
241.54        72.73653
242.00        78.30376
242.46        86.76675
242.91        100.5284
243.37        121.5193
243.83        150.2003
244.28        174.0044
244.74        173.8751
245.20        149.7836
245.66        120.1617
246.11        101.1136
246.57        93.33264
247.03        92.25088
247.48        93.76349
247.94        91.57762
248.40        86.01846
248.85        80.40677
249.31        76.57522
249.77        74.74723
250.22        74.22996
250.68        73.90181
251.14        73.39809
251.59        72.36716
252.05        70.97763
252.51        70.28424
252.96        68.36259
253.42        63.52147
253.88        56.59365
254.33        48.78776
254.79        43.62165
255.25        43.83073
255.70        48.71227
256.16        56.66392
256.62        63.90085
257.07        64.78065
257.53        60.52898
257.99        54.64072
258.44        49.74474
258.90        48.11778
259.35        48.76786
259.81        50.68251
260.27        52.60603
260.72        53.08067
261.18        52.21593
261.63        50.51511
262.09        48.86617
262.55        47.73303
263.00        47.06863
263.46        46.75072
263.91        46.35762
264.37        45.64395
264.83        44.57937
265.28        43.29386
265.74         42.2006
266.19        41.53488
266.65        41.36192
267.11        41.48229
267.56        41.63408
268.02        41.40771
268.47        40.71774
268.93         39.7397
269.38        38.65643
269.84        37.79743
270.30        37.22987
270.75        36.82612
271.21        36.54388
271.66        36.27087
272.12        35.95999
272.57        35.62928
273.03        35.20904
273.48         34.5746
273.94        33.77296
274.39         32.8234
274.85        31.91787
275.31        31.19844
275.76         30.6743
276.22        30.33346
276.67        30.06207
277.13        29.77121
277.58        29.38865
278.04        28.96235
278.49        28.49222
278.95        28.08683
279.40        27.71177
279.86        27.39262
280.31         27.0194
280.77        26.53341
281.22        25.91137
281.68        25.25467
282.13        24.64203
282.59        24.24895
283.04        24.06623
283.50        24.04464
283.95         24.0885
284.41        24.05771
284.86        23.90546
285.32        23.69263
285.77        23.44357
286.22         23.2437
286.68        23.11374
287.13        23.00075
287.59        22.90034
288.04        22.77036
288.50         22.6248
288.95        22.45956
289.41        22.30419
289.86        22.14295
290.32        22.00258
290.77        21.86784
291.22        21.75853
291.68        21.69299
292.13        21.66607
292.59        21.68991
293.04        21.74978
293.50        21.84055
293.95        21.95391
294.40        22.09612
294.86        22.28291
295.31        22.53119
295.77        22.84654
296.22        23.21345
296.68         23.6091
297.13        23.98756
297.58        24.34081
298.04        24.67646
298.49        25.01511
298.95        25.40567
299.40         25.8457
299.85        26.31732
300.31        26.77596
300.76        27.14901
301.21        27.42487
301.67        27.63843
302.12         27.8167
302.58        28.05153
303.03         28.3356
303.48        28.65208
303.94        28.97047
304.39        29.21862
304.84        29.39267
305.30        29.53119
305.75        29.63142
306.20        29.73481
306.66        29.86154
307.11        29.98591
307.57        30.12303
308.02        30.25983
308.47        30.39368
308.93        30.52229
309.38        30.62257
309.83        30.70027
310.29        30.75329
310.74        30.78172
311.19        30.75402
311.65         30.6181
312.10        30.37258
312.55        30.03724
313.00        29.70703
313.46        29.52085
313.91         29.4881
314.36        29.57641
314.82        29.66682
315.27        29.57034
315.72        29.24704
316.18        28.77233
316.63        28.26307
317.08        27.91334
317.53        27.76694
317.99        27.75232
318.44        27.79361
318.89        27.75729
319.35        27.59915
319.80        27.36349
320.25        27.07345
320.70        26.76408
321.16        26.45267
321.61        26.13162
322.06        25.81738
322.51        25.54659
322.97        25.32223
323.42        25.14258
323.87        24.98682
324.32        24.81836
324.78        24.61503
325.23        24.39896
325.68        24.15132
326.13        23.85584
326.59        23.52235
327.04        23.17018
327.49        22.84529
327.94        22.62051
328.39        22.50458
328.85        22.46642
329.30        22.47441
329.75        22.42624
330.20        22.29148
330.66        22.09228
331.11         21.8722
331.56         21.6858
332.01        21.55205
332.46        21.45033
332.92        21.35769
333.37         21.2739
333.82        21.18082
334.27        21.08643
334.72        20.99365
335.17        20.90206
335.63        20.81004
336.08         20.7282
336.53        20.64472
336.98        20.55146
337.43        20.44465
337.88         20.3163
338.34        20.19028
338.79        20.12679
339.24        20.12922
339.69        20.19342
340.14         20.2438
340.59        20.15806
341.05        19.92685
341.50        19.58594
341.95        19.26269
342.40        19.15248
342.85        19.28805
343.30        19.60164
343.75        19.94976
344.20        20.09899
344.66        19.98993
345.11        19.69157
345.56        19.31946
346.01        19.05875
346.46        18.96588
346.91        18.98781
347.36        19.05639
347.81        19.06792
348.26        18.99551
348.72        18.88014
349.17        18.76877
349.62        18.73919
350.07        18.80574
350.52        18.93502
350.97        19.06564
351.42        19.10578
351.87        19.03397
352.32        18.88097
352.77        18.70551
353.22        18.59299
353.67         18.5624
354.13        18.58903
354.58        18.62524
355.03        18.59903
355.48        18.49316
355.93        18.33582
356.38        18.17003
356.83        18.05683
357.28        18.00747
357.73        17.99654
358.18        17.98952
358.63        17.93425
359.08        17.81591
359.53        17.65284
359.98        17.46614
360.43        17.28378
360.88        17.11492
361.33        16.95343
361.78        16.79393
362.23        16.62947
362.68        16.46384
363.13        16.30752
363.58        16.17155
364.03        16.06905
364.48        15.99945
364.93        15.95167
365.38        15.91821
365.83        15.88837
366.28        15.85413
366.73        15.81603
367.18        15.75719
367.63        15.65381
368.08         15.5042
368.53        15.31456
368.98        15.11697
369.43        14.96291
369.88        14.86404
370.33        14.80933
370.78        14.76369
371.23        14.66688
371.68        14.50646
372.13        14.30359
372.58        14.09955
373.03        13.95874
373.48        13.89524
373.93        13.88555
374.38        13.89461
374.83        13.86709
375.28        13.78777
375.72        13.67298
376.17        13.55052
376.62        13.44314
377.07        13.36065
377.52        13.29374
377.97        13.24419
378.42        13.21788
378.87        13.21115
379.32        13.21853
379.77        13.22818
380.22         13.2214
380.67        13.19106
381.11          13.143
381.56        13.06746
382.01        12.96691
382.46        12.85049
382.91        12.72609
383.36           12.61
383.81        12.52055
384.26        12.45972
384.71        12.42383
385.15         12.4027
385.60        12.38347
386.05        12.35866
386.50        12.32908
386.95        12.29794
387.40        12.27192
387.85        12.25078
388.29         12.2233
388.74        12.19516
389.19         12.1475
389.64        12.07908
390.09        11.99534
390.54        11.90999
390.98        11.84187
391.43        11.80687
391.88        11.80043
392.33        11.81032
392.78        11.81878
393.23        11.81977
393.67        11.80688
394.12        11.80533
394.57         11.8296
395.02        11.87853
395.47        11.94157
395.91        11.98911
396.36        11.96374
396.81        11.86726
397.26        11.72739
397.71        11.58573
398.15        11.50893
398.60        11.52241
399.05        11.55189
399.50        11.58842
399.95        11.70669
400.39        11.86024
400.84        11.84767
401.29        11.68233
401.74         11.5728
402.18         11.5374
402.63        11.45154
403.08        11.34487
403.53        11.31747
403.97        11.37606
404.42        11.49459
404.87         11.6167
405.32        11.64777
405.76        11.56662
406.21        11.40919
406.66         11.2364
407.11        11.14513
407.55         11.1609
408.00        11.24845
408.45        11.35935
408.90        11.40055
409.34        11.34578
409.79        11.23395
410.24        11.10775
410.68        11.02088
411.13        10.99177
411.58        10.99753
412.03        11.02891
412.47        11.07312
412.92        11.11372
413.37        11.15596
413.81        11.18473
414.26        11.18593
414.71        11.15576
415.15        11.10142
415.60        11.03287
416.05           10.98
416.49        10.95585
416.94        10.95294
417.39        10.97022
417.83        11.00361
418.28        11.04571
418.73        11.09324
419.17         11.1348
419.62        11.15184
420.07        11.13999
420.51         11.1024
420.96         11.0453
421.41        10.97832
421.85        10.90493
422.30        10.82387
422.74         10.7433
423.19         10.7233
423.64        10.74938
424.08        10.75404
424.53        10.72903
424.98        10.74486
425.42        10.80679
425.87        10.84117
426.31        10.85181
426.76        10.92811
427.21          11.037
427.65        11.01895
428.10        10.90269
428.54        10.85027
428.99        10.87677
429.44        10.93392
429.88        10.98342
430.33        10.92426
430.77        10.78837
431.22        10.78213
431.66        10.89559
432.11         10.9211
432.56        10.85668
433.00        10.85574
433.45        10.87648
433.89        10.76964
434.34        10.61857
434.78        10.36764
435.23        10.60751
435.67        10.66155
436.12        10.67475
436.57        10.67409
437.01        10.66045
437.46        10.64042
437.90        10.60933
438.35        10.53677
438.79        10.44491
439.24        10.40179
439.68        10.41551
440.13        10.46464
440.57        10.52484
441.02        10.56524
441.46         10.5731
441.91        10.53226
442.35        10.45957
442.80        10.47956
443.24        10.55215
443.69        10.49334
444.13        10.33118
444.58        10.27667
445.02        10.33814
445.47        10.40722
445.91        10.45833
446.36         10.5018
446.80        10.52526
447.24        10.52478
447.69        10.51085
448.13        10.49515
448.58        10.48569
449.02        10.48066
449.47        10.47517
449.91        10.45724
450.36        10.42875
450.80        10.39128
451.25        10.36532
451.69        10.37621
452.13         10.4255
452.58        10.50082
453.02        10.56953
453.47        10.58107
453.91        10.52678
454.36        10.42832
454.80        10.31434
455.24        10.22974
455.69        10.19252
456.13        10.17958
456.58        10.19739
457.02        10.23813
457.46        10.29826
457.91        10.37772
458.35        10.43954
458.79        10.42556
459.24        10.33945
459.68        10.19382
460.13        10.05159
460.57        9.978947
461.01        9.998363
461.46        10.07983
461.90        10.19035
462.34        10.26187
462.79        10.26949
463.23         10.2376
463.68        10.17919
464.12        10.12382
464.56        10.08153
465.01        10.05334
465.45        10.02608
465.89        10.01243
466.34         10.0116
466.78         10.0209
467.22        10.03833
467.67        10.04817
468.11        10.05233
468.55         10.0501
468.99        10.04536
469.44        10.04416
469.88        10.04849
470.32        10.05519
470.77        10.06601
471.21        10.08601
471.65        10.11363
472.10        10.15029
472.54        10.18351
472.98        10.19881
473.42        10.19364
473.87        10.17398
474.31        10.14917
474.75        10.14465
475.20        10.16646
475.64        10.20286
476.08        10.23878
476.52        10.24461
476.97        10.21615
477.41        10.17017
477.85        10.12821
478.29        10.10995
478.74        10.13193
479.18        10.20856
479.62        10.31588
480.06        10.40076
480.50        10.45112
480.95         10.4701
481.39        10.45951
481.83        10.52628
482.27        10.52287
482.72        10.57242
483.16        10.62104
483.60         10.6496
484.04        10.63908
484.48        10.64589
484.93        10.78078
485.37        10.78709
485.81        10.84881
486.25         11.3269
486.69        10.97585
487.14        10.45288
487.58         11.6314
488.02        11.57187
488.46        11.21253
488.90        11.24775
489.34        11.20904
489.79        11.37557
490.23        11.46532
490.67        11.61772
491.11        11.76732
491.55        11.77268
491.99        11.68551
492.43        11.71036
492.88        11.86565
493.32        12.02246
493.76        12.15606
494.20        12.29609
494.64        12.43689
495.08        12.54457
495.52        12.61503
495.96        12.72671
496.41        12.85564
496.85          12.813
497.29        12.65546
497.73        12.76454
498.17        12.96232
498.61        13.15291
499.05        13.24856
499.49        13.35222
499.93        13.42979
500.37        13.55869
500.82        13.71319
501.26         13.8149
501.70        13.85787
502.14        13.89093
502.58        13.94214
503.02        14.02911
503.46        14.15719
503.90        14.32337
504.34        14.48386
504.78        14.56423
505.22        14.54991
505.66        14.46395
506.10        14.36301
506.54        14.33759
506.98        14.40967
507.42        14.55302
507.86        14.72016
508.30        14.83176
508.74        14.86639
509.18        14.85042
509.62        14.81895
510.06        14.82835
510.50          14.893
510.94        14.98892
511.38        15.09559
511.82         15.1822
512.26         15.2382
512.70        15.27828
513.14        15.30144
513.58        15.30429
514.02        15.29129
514.46        15.26087
514.90        15.23724
515.34        15.26085
515.78        15.33639
516.22         15.4511
516.66        15.56599
517.10         15.6173
517.54        15.59079
517.98        15.50628
518.42        15.40025
518.86        15.33174
519.30         15.3182
519.74          15.343
520.18        15.38337
520.62        15.40343
521.06        15.39259
521.50        15.36219
521.93        15.32863
522.37        15.31098
522.81        15.31604
523.25        15.33415
523.69         15.3478
524.13        15.33204
524.57        15.28219
525.01        15.20697
525.45        15.12564
525.89        15.06901
526.32        15.04266
526.76        15.03932
527.20        15.04049
527.64        15.01875
528.08        14.96782
528.52        14.89819
528.96        14.82186
529.40        14.75673
529.83        14.70828
530.27        14.67087
530.71        14.63964
531.15         14.6092
531.59        14.57657
532.03        14.54226
532.46         14.5037
532.90        14.46669
533.34        14.42936
533.78        14.38386
534.22        14.32836
534.66        14.27764
535.09        14.22393
535.53        14.13826
535.97        14.03874
536.41        13.98932
536.85        13.99759
537.28         14.0332
537.72         14.0875
538.16        14.15594
538.60        14.22886
539.04        14.30269
539.47        14.36714
539.91        14.41704
540.35        14.44949
540.79        14.46943
541.22         14.4811
541.66        14.49784
542.10        14.52404
542.54        14.55869
542.97        14.60981
543.41        14.69411
543.85        14.81008
544.29        14.95413
544.72        15.10337
545.16        15.23329
545.60        15.33604
546.04        15.42135
546.47        15.51048
546.91        15.63559
547.35        15.80014
547.79         15.9899
548.22        16.18279
548.66        16.34364
549.10        16.48331
549.53        16.60462
549.97        16.71642
550.41        16.79349
550.84         16.8589
551.28        16.95871
551.72        17.08045
552.15        17.21778
552.59        17.39058
553.03        17.34656
553.46        17.61047
553.90        17.73233
554.34        17.86382
554.77         18.0011
555.21        18.14704
555.65        18.29107
556.08        18.42081
556.52        18.52657
556.96        18.60316
557.39        18.69524
557.83        18.79032
558.27        18.78263
558.70        18.69881
559.14        18.69345
559.57        18.76642
560.01         18.8248
560.45        18.86457
560.88        18.93684
561.32        19.04885
561.75        19.16297
562.19        19.27889
562.63        19.39298
563.06        19.49644
563.50        19.58968
563.93        19.65228
564.37        19.70452
564.80        19.75608
565.24        19.75921
565.68        19.68693
566.11        19.92346
566.55        19.76138
566.98        19.79668
567.42        19.85503
567.85        19.97299
568.29        20.15472
568.72        20.39568
569.16        20.69013
569.60         20.8985
570.03        21.08511
570.47        21.27025
570.90        21.46921
571.34          21.432
571.77        21.65504
572.21         21.6859
572.64        21.67731
573.08        21.92989
573.51        22.12752
573.95        22.32553
574.38        22.41095
574.82        22.64882
