SpectraSmart Spectrum 2.9.0.0
--------- Device Information -----------
Spectrum Name :  反射率_0
Saving Time :  2024/04/26 23:39:24
Spectro-Module Model Name : SE2030-DUVN
Spectro-Module Serial Number : OS361AC55029948
Wavelength Start : 200
Wavelength End : 1025
Wavelength Unit : Wavelength(nm)
Spectrum Unit : Reflectance(%)
-----------Spectrum Setting ------------
Integration Time : 20ms
Average : 10
Boxcar : 0
Background removal :  enabled
linearity correction :  enabled
SC :  disabled
Intensity correction :  disabled
DWT denoise :  enabled
savitzky-golay :  disabled
FFT :  disabled
Running average :  disabled
Kalman :  disabled
High pass :  disabled
---------------BEGIN--------------------
Wavelength(nm)             Reflectance(%)
200.29               0
200.75        25.28736
201.21        28.96982
201.67        31.91308
202.13        32.56103
202.58        30.81238
203.04        27.17031
203.50        22.16541
203.96        18.34357
204.42        17.75543
204.88        19.95634
205.34        24.41341
205.80        29.29021
206.26        33.08954
206.72        35.87654
207.18         36.9354
207.64         35.5936
208.10        31.81163
208.55        24.95584
209.01        15.16096
209.47        9.524062
209.93        12.32147
210.39        19.23773
210.85        25.56736
211.31        29.64463
211.77        32.58875
212.23          36.233
212.69        44.10019
213.14         62.4742
213.60         69.7977
214.06        62.49681
214.52        54.87817
214.98        49.90242
215.44        45.91197
215.90        41.72015
216.36        37.52628
216.81        33.68862
217.27        30.59336
217.73        28.12563
218.19        26.48337
218.65        26.61717
219.11        28.66669
219.57        31.30143
220.02        34.25496
220.48        38.87122
220.94         46.0865
221.40        57.31578
221.86        72.63664
222.32        83.16891
222.77        80.36564
223.23        70.17951
223.69        59.40953
224.15        51.93295
224.61        47.44943
225.06        44.46754
225.52        42.93607
225.98        42.64966
226.44        43.36412
226.90        45.09578
227.36        47.22818
227.81        48.56553
228.27        48.88612
228.73        48.32594
229.19        47.71984
229.65        48.14447
230.10        49.61269
230.56        51.78915
231.02        53.63025
231.48        53.51986
231.93         51.3438
232.39        48.18999
232.85        45.25059
233.31         44.0682
233.77        44.75769
234.22        46.72343
234.68        49.18747
235.14        51.05198
235.60           51.92
236.05        52.15585
236.51        51.76714
236.97          50.853
237.43        49.61243
237.88        48.05199
238.34        46.58683
238.80        46.16509
239.26        47.11497
239.71        49.74844
240.17        53.74591
240.63        57.96033
241.08        61.45509
241.54        63.75666
242.00        65.08682
242.46        66.52757
242.91        69.06947
243.37        71.89217
243.83        75.10613
244.28        77.62904
244.74        76.95299
245.20        73.77425
245.66         69.2803
246.11        63.27174
246.57        56.54308
247.03        49.19489
247.48        42.85151
247.94        40.87926
248.40        43.08186
248.85        46.56832
249.31        50.13288
249.77        53.08582
250.22        55.55398
250.68        58.16401
251.14          60.376
251.59         60.2063
252.05        57.43882
252.51         53.6918
252.96        50.14121
253.42        48.04277
253.88        47.25197
254.33         46.8857
254.79         47.9268
255.25        50.94046
255.70        55.53041
256.16        61.43039
256.62        66.04861
257.07        65.56428
257.53        61.43581
257.99        56.19234
258.44        52.05049
258.90        51.08341
259.35        52.26849
259.81        54.75552
260.27        57.10659
260.72        57.58866
261.18        56.39733
261.63        54.16644
262.09        52.10515
262.55        51.00059
263.00        50.75053
263.46        51.06572
263.91        51.25434
264.37        50.74325
264.83        49.48818
265.28        47.79195
265.74        46.26459
266.19        45.35922
266.65        45.18551
267.11        45.44831
267.56        45.82357
268.02        45.81213
268.47         45.2767
268.93        44.41451
269.38        43.38356
269.84        42.47686
270.30        41.76345
270.75        41.13205
271.21        40.57296
271.66        40.02322
272.12        39.46115
272.57        38.89705
273.03        38.29591
273.48        37.57994
273.94        36.79372
274.39         35.9282
274.85        35.10651
275.31        34.36541
275.76        33.69757
276.22         33.1327
276.67        32.61117
277.13        32.13006
277.58        31.64174
278.04        31.18359
278.49        30.72918
278.95        30.35237
279.40        30.00875
279.86        29.73448
280.31        29.44511
280.77        29.12654
281.22        28.73465
281.68        28.33146
282.13        27.93266
282.59        27.64372
283.04        27.44292
283.50        27.31928
283.95        27.20197
284.41        26.99679
284.86        26.68779
285.32        26.33715
285.77        25.99749
286.22        25.79739
286.68        25.75084
287.13         25.7776
287.59        25.82771
288.04        25.78114
288.50        25.63362
288.95        25.40631
289.41        25.14203
289.86        24.83927
290.32        24.55033
290.77        24.26624
291.22        24.05238
291.68        23.99237
292.13        24.08818
292.59        24.33058
293.04        24.66007
293.50        24.99829
293.95        25.30647
294.40        25.59937
294.86        25.89923
295.31        26.23862
295.77          26.629
296.22        27.04463
296.68        27.46373
297.13        27.84192
297.58        28.18053
298.04        28.50221
298.49        28.83631
298.95        29.24321
299.40        29.72183
299.85        30.24445
300.31        30.77831
300.76        31.26428
301.21        31.68512
301.67        32.07124
302.12        32.39427
302.58        32.66912
303.03        32.88111
303.48         33.0448
303.94        33.21124
304.39        33.42719
304.84        33.70542
305.30        34.03374
305.75        34.33175
306.20        34.52732
306.66        34.61411
307.11        34.60958
307.57        34.56361
308.02        34.50631
308.47        34.46483
308.93         34.4321
309.38         34.4088
309.83        34.44283
310.29        34.53256
310.74        34.66057
311.19        34.76294
311.65        34.72871
312.10          34.534
312.55        34.21378
313.00         33.8596
313.46        33.60861
313.91        33.47963
314.36         33.4439
314.82        33.42402
315.27        33.30294
315.72        33.05177
316.18        32.72187
316.63        32.37914
317.08        32.13779
317.53        32.01961
317.99        31.97609
318.44        31.95153
318.89        31.84731
319.35        31.63564
319.80        31.35038
320.25        31.02601
320.70        30.71631
321.16        30.44076
321.61        30.19435
322.06        29.97009
322.51         29.7613
322.97        29.55944
323.42        29.37041
323.87         29.2009
324.32          29.064
324.78        28.94418
325.23        28.84614
325.68        28.71027
326.13        28.45339
326.59        28.06571
327.04        27.58936
327.49        27.10462
327.94        26.73604
328.39        26.51066
328.85        26.38729
329.30        26.32668
329.75        26.20501
330.20        25.98762
330.66        25.70333
331.11        25.41916
331.56        25.21966
332.01        25.12525
332.46        25.10343
332.92        25.08233
333.37         24.9856
333.82        24.77762
334.27        24.49322
334.72        24.19886
335.17         23.9999
335.63        23.92396
336.08        23.95237
336.53        24.02908
336.98        24.07035
337.43        24.04444
337.88        23.96365
338.34         23.8562
338.79        23.79712
339.24        23.79147
339.69        23.81554
340.14         23.8071
340.59        23.67217
341.05        23.40697
341.50        23.05143
341.95         22.6948
342.40        22.46654
342.85        22.39815
343.30        22.45056
343.75        22.55912
344.20        22.61869
344.66        22.59759
345.11        22.52066
345.56        22.42129
346.01        22.35392
346.46        22.33518
346.91        22.34632
347.36        22.35984
347.81        22.33876
348.26        22.27697
348.72         22.1911
349.17        22.11245
349.62        22.09943
350.07        22.16016
350.52        22.27297
350.97        22.38403
351.42        22.40897
351.87        22.32825
352.32        22.16816
352.77        21.98154
353.22         21.8456
353.67        21.77861
354.13         21.7614
354.58        21.75396
355.03        21.69454
355.48        21.57269
355.93        21.41719
356.38        21.27189
356.83        21.19945
357.28         21.2079
357.73        21.26495
358.18        21.33452
358.63        21.36033
359.08        21.32195
359.53        21.23912
359.98         21.1115
360.43        20.93758
360.88        20.72607
361.33        20.47786
361.78        20.23427
362.23        20.06355
362.68        19.98148
363.13        19.97593
363.58        19.99312
364.03        19.94337
364.48        19.80663
364.93        19.60579
365.38        19.39881
365.83        19.28364
366.28        19.27884
366.73         19.3453
367.18        19.41703
367.63        19.39332
368.08         19.2506
368.53          19.026
368.98        18.76614
369.43        18.54299
369.88        18.38207
370.33        18.26329
370.78        18.17567
371.23        18.10165
371.68        18.03252
372.13        17.97666
372.58        17.92945
373.03        17.87941
373.48         17.8215
373.93        17.75205
374.38          17.672
374.83        17.58776
375.28        17.50244
375.72        17.41268
376.17        17.32936
376.62        17.24534
377.07        17.16341
377.52        17.08823
377.97        17.02808
378.42        16.99763
378.87        16.99393
379.32        17.00005
379.77        17.00713
380.22        17.00334
380.67        16.97999
381.11        16.94616
381.56        16.86562
382.01        16.70086
382.46        16.46258
382.91        16.18045
383.36        15.92248
383.81        15.77704
384.26        15.75594
384.71        15.83322
385.15        15.95316
385.60        16.02378
386.05        16.01251
386.50         15.9402
386.95         15.8416
387.40        15.77342
387.85          15.749
388.29        15.73852
388.74        15.72906
389.19         15.6694
389.64        15.55186
390.09        15.38947
390.54        15.22235
390.98        15.11088
391.43        15.07873
391.88        15.10614
392.33        15.13979
392.78        15.10218
393.23        14.98538
393.67        14.81207
394.12        14.65707
394.57        14.59953
395.02        14.65292
395.47        14.78289
395.91        14.93534
396.36         15.0093
396.81        14.98439
397.26        14.89351
397.71         14.7734
398.15        14.68751
398.60        14.66867
399.05        14.63317
399.50        14.58225
399.95         14.6275
400.39        14.71535
400.84        14.59127
401.29        14.29429
401.74        14.11184
402.18        14.07243
402.63        14.02193
403.08        13.95552
403.53        13.92786
403.97        13.93417
404.42        13.95869
404.87         13.9888
405.32        14.00124
405.76        13.98567
406.21        13.95248
406.66        13.90685
407.11         13.8617
407.55        13.82507
408.00        13.78596
408.45        13.74455
408.90         13.6964
409.34        13.64195
409.79        13.58831
410.24        13.53934
410.68        13.49241
411.13         13.4505
411.58         13.4117
412.03        13.37315
412.47        13.33373
412.92        13.29031
413.37        13.24806
413.81        13.20875
414.26         13.1855
414.71        13.17418
415.15        13.17309
415.60        13.17163
416.05        13.16277
416.49        13.14458
416.94         13.1181
417.39        13.08529
417.83        13.04776
418.28        13.00688
418.73        12.96279
419.17        12.92361
419.62        12.90179
420.07        12.90044
420.51        12.91333
420.96        12.93225
421.41        12.94177
421.85        12.93136
422.30         12.8979
422.74        12.84438
423.19        12.83577
423.64        12.85276
424.08        12.81195
424.53        12.70749
424.98        12.63234
425.42        12.60029
425.87        12.53263
426.31        12.43992
426.76        12.42687
427.21        12.45942
427.65        12.36265
428.10        12.18457
428.54        12.12417
428.99         12.1962
429.44        12.33584
429.88        12.47548
430.33        12.46387
430.77        12.32721
431.22        12.30939
431.66        12.41424
432.11         12.4321
432.56        12.36891
433.00         12.3936
433.45        12.44614
433.89        12.33346
434.34        12.14477
434.78        11.82687
435.23        12.07142
435.67        12.13099
436.12        12.17532
436.57        12.22787
437.01        12.26888
437.46        12.27157
437.90        12.22187
438.35        12.09471
438.79        11.94075
439.24        11.87598
439.68        11.91683
440.13        12.02758
440.57        12.15345
441.02        12.21477
441.46        12.18708
441.91        12.06832
442.35        11.90871
442.80        11.88984
443.24        11.97267
443.69        11.93746
444.13        11.78965
444.58        11.72791
445.02        11.75374
445.47          11.757
445.91        11.74109
446.36        11.76607
446.80        11.82748
447.24        11.90511
447.69        11.97438
448.13        11.99314
448.58        11.95647
449.02        11.87639
449.47        11.78363
449.91        11.72127
450.36        11.70428
450.80        11.71892
451.25        11.74742
451.69        11.75471
452.13        11.73327
452.58        11.69244
453.02        11.64734
453.47        11.62298
453.91        11.62494
454.36        11.64606
454.80        11.66572
455.24        11.65079
455.69        11.60012
456.13        11.51873
456.58        11.44496
457.02        11.41607
457.46        11.44413
457.91        11.51344
458.35        11.58545
458.79         11.6011
459.24        11.55895
459.68        11.47168
460.13        11.38742
460.57        11.34657
461.01         11.3689
461.46        11.42879
461.90        11.51029
462.34        11.57583
462.79        11.60771
463.23        11.62099
463.68        11.61144
464.12        11.58023
464.56        11.53029
465.01        11.47615
465.45        11.41502
465.89        11.37615
466.34        11.36257
466.78        11.36509
467.22        11.38079
467.67        11.39214
468.11        11.39997
468.55        11.40448
468.99        11.40509
469.44        11.39931
469.88        11.38878
470.32        11.37369
470.77        11.36279
471.21        11.37309
471.65        11.40593
472.10        11.45818
472.54        11.51508
472.98        11.55818
473.42        11.58235
473.87        11.59606
474.31        11.60094
474.75        11.61187
475.20        11.63505
475.64        11.66084
476.08        11.68925
476.52        11.71411
476.97         11.7343
477.41        11.75866
477.85        11.78987
478.29        11.81388
478.74        11.83972
479.18        11.89649
479.62        11.97389
480.06        12.03537
480.50        12.07902
480.95        12.10997
481.39         12.1205
481.83        12.21422
482.27        12.21425
482.72        12.27277
483.16        12.34767
483.60        12.41335
484.04        12.44644
484.48        12.57893
484.93        12.85681
485.37         12.7739
485.81        12.72816
486.25        13.23785
486.69        13.18569
487.14        13.00101
487.58         13.6195
488.02        13.45635
488.46        13.09867
488.90        13.19032
489.34        13.32222
489.79        13.59209
490.23        13.73834
490.67        13.93968
491.11        14.13778
491.55        14.14767
491.99        14.02829
492.43        14.01654
492.88        14.14282
493.32        14.28548
493.76        14.41933
494.20        14.56263
494.64        14.70995
495.08        14.83142
495.52        14.92641
495.96        15.08931
496.41        15.28822
496.85        15.29125
497.29        15.14883
497.73        15.29572
498.17        15.51466
498.61        15.69773
499.05        15.75017
499.49        15.81307
499.93        15.85476
500.37        15.96369
500.82        16.11716
501.26        16.23376
501.70        16.30751
502.14         16.3958
502.58        16.51329
503.02        16.65026
503.46        16.80525
503.90        16.97766
504.34        17.13992
504.78        17.24613
505.22        17.28584
505.66        17.27234
506.10        17.23414
506.54        17.21818
506.98        17.24013
507.42        17.29033
507.86        17.35709
508.30        17.41938
508.74        17.46995
509.18        17.51563
509.62        17.56328
510.06        17.62253
510.50        17.69433
510.94        17.77288
511.38        17.84659
511.82        17.89862
512.26        17.92654
512.70         17.9372
513.14         17.9445
513.58        17.97112
514.02        18.02163
514.46        18.08574
514.90        18.15339
515.34        18.20888
515.78        18.24476
516.22        18.26509
516.66        18.26499
517.10        18.23685
517.54        18.18366
517.98        18.11111
518.42        18.03558
518.86        17.98295
519.30        17.96099
519.74        17.96432
520.18        17.98426
520.62        18.00485
521.06        18.01999
521.50        18.03326
521.93        18.04515
522.37        18.05004
522.81        18.04931
523.25           18.04
523.69        18.02411
524.13        18.00723
524.57        17.98903
525.01        17.96632
525.45        17.93576
525.89        17.89162
526.32        17.83237
526.76        17.76814
527.20        17.69882
527.64        17.62493
528.08        17.55009
528.52        17.47533
528.96        17.41419
529.40        17.38681
529.83        17.39419
530.27        17.43003
530.71        17.46991
531.15        17.47643
531.59        17.44065
532.03        17.37131
532.46        17.28832
532.90        17.23696
533.34         17.2235
533.78         17.2253
534.22         17.2229
534.66        17.20751
535.09        17.16167
535.53        17.05902
535.97        16.92672
536.41        16.84991
536.85        16.84124
537.28        16.86098
537.72        16.90133
538.16        16.96157
538.60        17.03304
539.04        17.11545
539.47        17.19269
539.91        17.25104
540.35        17.28588
540.79         17.3027
541.22        17.31829
541.66        17.36722
542.10        17.45457
542.54        17.57059
542.97        17.69815
543.41        17.81705
543.85        17.91809
544.29        18.00929
544.72         18.0934
545.16        18.18779
545.60        18.29315
546.04        18.40671
546.47        18.52937
546.91        18.65891
547.35        18.79191
547.79        18.93102
548.22         19.0698
548.66        19.19396
549.10        19.32467
549.53         19.4549
549.97        19.59312
550.41        19.70813
550.84         19.8205
551.28        19.98138
551.72        20.16103
552.15        20.32838
552.59        20.50145
553.03        20.38911
553.46          20.622
553.90        20.69306
554.34        20.78859
554.77        20.90163
555.21        21.03254
555.65        21.16317
556.08        21.27906
556.52        21.37333
556.96        21.44513
557.39        21.55185
557.83        21.67841
558.27        21.69752
558.70        21.63024
559.14        21.64238
559.57         21.7287
560.01        21.78228
560.45        21.80368
560.88        21.86073
561.32        21.96465
561.75        22.07229
562.19        22.17817
562.63        22.26935
563.06        22.33776
563.50        22.39078
563.93        22.42018
564.37        22.47136
564.80        22.55786
565.24        22.61447
565.68        22.59381
566.11        22.91346
566.55        22.75114
566.98        22.79652
567.42        22.85164
567.85        22.96236
568.29        23.13853
568.72        23.38065
569.16        23.68842
569.60        23.89091
570.03        24.04177
570.47        24.23615
570.90        24.52841
571.34        24.38842
571.77        24.49323
572.21        24.97477
572.64        24.84215
573.08        24.99969
573.51        25.10678
573.95        25.26418
574.38         25.4744
574.82        25.58775
