SpectraSmart Spectrum 2.9.0.0
--------- Device Information -----------
Spectrum Name :  反射率_0
Saving Time :  2024/04/26 23:37:43
Spectro-Module Model Name : SE2030-DUVN
Spectro-Module Serial Number : OS361AC55029948
Wavelength Start : 200
Wavelength End : 1025
Wavelength Unit : Wavelength(nm)
Spectrum Unit : Reflectance(%)
-----------Spectrum Setting ------------
Integration Time : 20ms
Average : 10
Boxcar : 0
Background removal :  enabled
linearity correction :  enabled
SC :  disabled
Intensity correction :  disabled
DWT denoise :  enabled
savitzky-golay :  disabled
FFT :  disabled
Running average :  disabled
Kalman :  disabled
High pass :  disabled
---------------BEGIN--------------------
Wavelength(nm)             Reflectance(%)
200.29               0
200.75        26.79251
201.21        25.22197
201.67        24.69833
202.13        25.67907
202.58        28.17697
203.04        32.78516
203.50        39.52248
203.96        46.54176
204.42        51.88267
204.88         54.9214
205.34        55.68177
205.80         55.7221
206.26        55.59567
206.72        54.58479
207.18         53.0122
207.64        50.94486
208.10        48.19965
208.55        45.03609
209.01        40.61594
209.47          36.264
209.93        34.42337
210.39        34.72535
210.85        36.35958
211.31        39.38651
211.77        44.92001
212.23        56.85564
212.69        85.89626
213.14        133.9888
213.60        129.9678
214.06        94.27023
214.52        70.58903
214.98        60.17801
215.44        55.86469
215.90        53.49361
216.36        52.36642
216.81        51.91236
217.27        52.27783
217.73        54.93404
218.19        59.11128
218.65        59.81511
219.11         56.1977
219.57        51.20913
220.02        49.23062
220.48         53.7607
220.94        65.29077
221.40        85.94165
221.86         115.235
222.32        134.3013
222.77        126.8332
223.23         105.452
223.69        84.78829
224.15        73.17918
224.61        68.99982
225.06        68.12891
225.52        69.09196
225.98        70.25612
226.44        71.25751
226.90        72.76585
227.36        74.41248
227.81        75.28298
228.27        75.32824
228.73        74.47134
229.19        73.60105
229.65        73.90337
230.10        75.35643
230.56        77.67518
231.02         79.6439
231.48        79.37797
231.93        76.74728
232.39        73.03004
232.85         69.6088
233.31        68.30386
233.77        69.22491
234.22        71.61923
234.68        74.55563
235.14        76.67869
235.60        77.47318
236.05         77.3671
236.51        76.25561
236.97        74.20576
237.43        71.48368
237.88        68.20099
238.34        64.93546
238.80        62.83274
239.26        62.25545
239.71        63.56749
240.17        66.48077
240.63        70.18271
241.08        74.02361
241.54        77.45394
242.00        80.67446
242.46        84.73286
242.91        90.87231
243.37        98.78378
243.83        108.0968
244.28        113.5371
244.74        108.2848
245.20        94.92545
245.66         81.0882
246.11        71.40682
246.57        66.02663
247.03        62.84187
247.48         62.2536
247.94         64.6901
248.40          68.482
248.85        72.13703
249.31        74.42117
249.77        73.71751
250.22        69.88178
250.68        62.69059
251.14        52.96949
251.59        46.02483
252.05        45.99544
252.51        51.17277
252.96        57.46616
253.42        61.19231
253.88        62.05195
254.33         61.0183
254.79        60.36905
255.25        61.67355
255.70         64.7537
256.16        69.05034
256.62        72.17519
257.07        70.82675
257.53        66.56664
257.99        61.68078
258.44        58.04278
258.90        57.53935
259.35        59.09309
259.81        61.90409
260.27        64.57635
260.72        65.40726
261.18        64.59391
261.63        62.72224
262.09        60.92358
262.55        59.84701
263.00        59.42932
263.46         59.4879
263.91         59.5062
264.37        59.19373
264.83        58.47238
265.28        57.49138
265.74        56.66662
266.19        56.16171
266.65        56.07383
267.11        56.19737
267.56        56.35484
268.02        56.28337
268.47        55.90365
268.93        55.34732
269.38        54.64448
269.84        53.91453
270.30        53.18212
270.75        52.38222
271.21        51.63602
271.66        51.06173
272.12        50.66284
272.57        50.37166
273.03        49.98743
273.48        49.16459
273.94        47.93637
274.39        46.42701
274.85          44.965
275.31        43.82801
275.76         43.0542
276.22        42.58948
276.67        42.28388
277.13        42.04379
277.58        41.74519
278.04        41.42795
278.49        41.02198
278.95        40.56651
279.40        40.00167
279.86        39.40627
280.31        38.68184
280.77        37.82991
281.22        36.84388
281.68        35.84684
282.13        34.94429
282.59        34.38037
283.04        34.12796
283.50          34.118
283.95        34.19239
284.41        34.12114
284.86        33.82992
285.32        33.41884
285.77        32.92905
286.22        32.49062
286.68        32.13684
287.13        31.78774
287.59        31.46313
288.04        31.14774
288.50         30.8634
288.95         30.5964
289.41        30.33411
289.86        29.97492
290.32        29.55051
290.77        29.07498
291.22        28.64228
291.68        28.37634
292.13        28.28681
292.59        28.34901
293.04        28.49213
293.50         28.6283
293.95        28.71822
294.40        28.78938
294.86        28.87622
295.31        29.02306
295.77        29.24891
296.22        29.52793
296.68        29.83469
297.13        30.11677
297.58        30.37147
298.04        30.61784
298.49        30.89229
298.95        31.26813
299.40        31.74274
299.85        32.28487
300.31        32.83558
300.76        33.29448
301.21        33.64375
301.67        33.93231
302.12        34.17548
302.58        34.45685
303.03        34.77094
303.48          35.106
303.94        35.47231
304.39        35.85356
304.84        36.24704
305.30         36.6602
305.75        37.02974
306.20        37.31232
306.66        37.51279
307.11        37.63891
307.57        37.73797
308.02        37.83296
308.47        37.95058
308.93         38.0873
309.38        38.24831
309.83        38.49204
310.29        38.81655
310.74        39.19724
311.19         39.5512
311.65        39.73544
312.10        39.71333
312.55        39.52282
313.00        39.27302
313.46        39.13326
313.91        39.12779
314.36        39.21846
314.82        39.30908
315.27        39.25221
315.72        39.01297
316.18        38.66122
316.63        38.27902
317.08        38.00625
317.53        37.87533
317.99        37.83084
318.44        37.82419
318.89        37.76453
319.35        37.62253
319.80        37.43282
320.25        37.20661
320.70        36.96015
321.16        36.70483
321.61        36.44305
322.06        36.19828
322.51        36.01844
322.97        35.90271
323.42        35.83657
323.87        35.78793
324.32        35.70792
324.78         35.5653
325.23         35.3964
325.68        35.16366
326.13        34.82418
326.59        34.39103
327.04        33.89667
327.49        33.43894
327.94        33.17406
328.39        33.12397
328.85        33.22898
329.30        33.40269
329.75        33.41555
330.20        33.19933
330.66        32.81172
331.11        32.35732
331.56        31.98252
332.01        31.73679
332.46        31.56923
332.92        31.43995
333.37        31.33406
333.82        31.21812
334.27        31.11972
334.72         31.0214
335.17        30.88187
335.63        30.69625
336.08        30.48883
336.53        30.30056
336.98        30.21758
337.43        30.25529
337.88        30.37464
338.34        30.52767
338.79        30.66451
339.24        30.73972
339.69        30.76627
340.14        30.71033
340.59        30.52411
341.05         30.2267
341.50        29.84262
341.95        29.46412
342.40        29.22884
342.85        29.17238
343.30        29.26236
343.75        29.43675
344.20        29.58817
344.66        29.67793
345.11        29.72051
345.56        29.73643
346.01        29.76371
346.46        29.81114
346.91        29.86158
347.36        29.87992
347.81        29.82168
348.26        29.68326
348.72         29.4845
349.17        29.28488
349.62        29.18728
350.07        29.21253
350.52        29.33809
350.97        29.47191
351.42        29.46504
351.87        29.28791
352.32         28.9847
352.77        28.67303
353.22        28.52588
353.67        28.57412
354.13        28.76683
354.58         28.9748
355.03        28.98679
355.48        28.75645
355.93        28.35608
356.38        27.93664
356.83        27.72148
357.28         27.7536
357.73        27.95666
358.18        28.19245
358.63        28.23796
359.08        28.03654
359.53        27.66522
359.98         27.2399
360.43        26.92955
360.88          26.775
361.33        26.71999
361.78        26.69268
362.23        26.58263
362.68        26.36624
363.13        26.09383
363.58        25.81879
364.03        25.61595
364.48        25.50271
364.93        25.44327
365.38        25.41438
365.83        25.38338
366.28        25.33262
366.73        25.27364
367.18        25.18613
367.63        25.03703
368.08        24.82716
368.53        24.56634
368.98        24.30114
369.43        24.10826
369.88        24.00412
370.33        23.96774
370.78        23.95478
371.23        23.88831
371.68        23.74709
372.13        23.55664
372.58        23.34821
373.03        23.17067
373.48         23.0398
373.93        22.93826
374.38        22.85536
374.83        22.77719
375.28        22.69485
375.72        22.60494
376.17        22.51846
376.62        22.42212
377.07        22.31581
377.52        22.20461
377.97        22.08623
378.42        21.96181
378.87        21.83613
379.32        21.70729
379.77         21.5989
380.22        21.54338
380.67        21.54013
381.11        21.58597
381.56        21.61954
382.01        21.56018
382.46        21.39711
382.91        21.16567
383.36        20.93499
383.81        20.80021
384.26        20.77572
384.71        20.82845
385.15        20.91006
385.60        20.94175
386.05         20.8976
386.50        20.80316
386.95        20.68107
387.40        20.56701
387.85        20.47456
388.29         20.3787
388.74        20.30148
389.19        20.22688
389.64        20.14939
390.09        20.06917
390.54         19.9839
390.98        19.88463
391.43        19.78429
391.88        19.68509
392.33        19.58609
392.78        19.48451
393.23        19.38317
393.67        19.27712
394.12        19.19634
394.57        19.14569
395.02        19.12465
395.47        19.12163
395.91        19.13015
396.36        19.12864
396.81        19.11898
397.26        19.10579
397.71        19.07876
398.15        19.03573
398.60         19.0015
399.05        18.90076
399.50         18.7697
399.95        18.79818
400.39         18.9302
400.84        18.82228
401.29        18.50946
401.74        18.34174
402.18        18.34539
402.63        18.32112
403.08        18.26584
403.53        18.25533
403.97        18.28475
404.42        18.33531
404.87        18.37586
405.32        18.35524
405.76        18.26305
406.21        18.12283
406.66        17.98203
407.11        17.91817
407.55        17.95145
408.00        18.05098
408.45        18.16562
408.90        18.19427
409.34        18.10892
409.79        17.94791
410.24        17.76748
410.68        17.63996
411.13        17.58796
411.58        17.58754
412.03        17.60904
412.47        17.60445
412.92        17.55458
413.37        17.48472
413.81        17.41615
414.26        17.39243
414.71        17.41393
415.15        17.46763
415.60        17.52698
416.05        17.56369
416.49        17.56765
416.94        17.54725
417.39         17.5098
417.83        17.46431
418.28        17.41642
418.73        17.36172
419.17        17.31538
419.62        17.30289
420.07        17.32652
420.51        17.37337
420.96        17.42053
421.41        17.42743
421.85        17.38004
422.30        17.28731
422.74        17.16478
423.19        17.11262
423.64        17.11325
424.08        17.05366
424.53        16.93958
424.98        16.91367
425.42        16.99306
425.87         17.0596
426.31        17.09904
426.76        17.21336
427.21        17.34265
427.65         17.2478
428.10        16.99993
428.54        16.89123
428.99        16.95093
429.44        17.08834
429.88        17.22152
430.33        17.15664
430.77        16.93698
431.22        16.90301
431.66        17.04942
432.11        17.07297
432.56        16.97635
433.00        16.99038
433.45        17.05143
433.89        16.93148
434.34        16.75169
434.78        16.42112
435.23         16.8521
435.67        16.94001
436.12        16.91162
436.57        16.81961
437.01        16.69898
437.46        16.61807
437.90        16.58426
438.35        16.53436
438.79        16.46853
439.24        16.44196
439.68        16.45691
440.13        16.49991
440.57        16.55685
441.02        16.61944
441.46        16.67598
441.91         16.6792
442.35        16.64212
442.80        16.75173
443.24         16.9391
443.69         16.9128
444.13        16.70089
444.58        16.61508
445.02        16.66788
445.47        16.69224
445.91        16.67879
446.36        16.69343
446.80        16.72908
447.24        16.77015
447.69        16.80492
448.13        16.80698
448.58         16.7764
449.02        16.71949
449.47        16.65884
449.91        16.62109
450.36        16.61856
450.80        16.64089
451.25        16.67618
451.69        16.69516
452.13        16.69168
452.58        16.66778
453.02         16.6375
453.47        16.62604
453.91        16.63701
454.36        16.66595
454.80        16.67986
455.24        16.62592
455.69        16.50575
456.13        16.33162
456.58        16.17336
457.02         16.1073
457.46        16.15321
457.91        16.28116
458.35        16.42154
458.79        16.46808
459.24        16.41092
459.68        16.27576
460.13        16.13522
460.57        16.05535
461.01        16.06678
461.46        16.13202
461.90        16.23001
462.34        16.31308
462.79         16.3575
463.23        16.38313
463.68        16.38309
464.12        16.35526
464.56        16.30105
465.01        16.24096
465.45        16.16713
465.89        16.11556
466.34        16.09142
466.78        16.08409
467.22          16.097
467.67        16.11857
468.11        16.15307
468.55        16.19583
468.99        16.23785
469.44        16.26299
469.88        16.26846
470.32        16.25492
470.77        16.23577
471.21        16.23701
471.65        16.26248
472.10        16.30822
472.54        16.35271
472.98        16.36864
473.42        16.35052
473.87        16.31171
474.31        16.26508
474.75        16.24593
475.20        16.26433
475.64        16.30358
476.08        16.34665
476.52        16.35789
476.97        16.33191
477.41        16.29064
477.85        16.25978
478.29        16.25669
478.74        16.30195
479.18        16.42191
479.62        16.58323
480.06        16.70349
480.50        16.77057
480.95        16.80407
481.39        16.79909
481.83        16.89754
482.27        16.87488
482.72        16.91838
483.16         16.9813
483.60        17.04545
484.04        17.09697
484.48        17.27405
484.93        17.58476
485.37        17.46694
485.81         17.5168
486.25        17.76288
486.69        17.75471
487.14        17.74446
487.58         18.2902
488.02        18.11752
488.46        17.92284
488.90        18.08763
489.34        18.06331
489.79        18.30114
490.23        18.48178
490.67         18.6475
491.11        18.74107
491.55        18.65423
491.99        18.46845
492.43        18.42663
492.88        18.56743
493.32        18.76345
493.76        18.97011
494.20        19.17911
494.64        19.37597
495.08        19.52537
495.52        19.63003
495.96        19.82369
496.41        20.06776
496.85         20.0539
497.29        19.84898
497.73        20.02382
498.17        20.29363
498.61         20.5184
499.05        20.57444
499.49        20.64524
499.93        20.68857
500.37        20.81839
500.82        21.00391
501.26        21.13875
501.70        21.21315
502.14        21.29972
502.58        21.41564
503.02        21.54531
503.46        21.68796
503.90        21.84849
504.34        21.99211
504.78        22.06036
505.22        22.04516
505.66        21.96693
506.10        21.87774
506.54        21.86052
506.98        21.93626
507.42        22.08185
507.86          22.258
508.30        22.39831
508.74        22.48057
509.18        22.52163
509.62        22.54223
510.06         22.5769
510.50        22.63454
510.94        22.70043
511.38        22.75888
511.82        22.78717
512.26        22.78238
512.70         22.7592
513.14        22.73299
513.58        22.72575
514.02        22.74471
514.46         22.7805
514.90        22.83169
515.34        22.89631
515.78        22.96751
516.22        23.04303
516.66        23.10362
517.10        23.11879
517.54        23.08505
517.98        23.01402
518.42        22.93011
518.86         22.8735
519.30        22.85659
519.74        22.86858
520.18         22.8999
520.62         22.9337
521.06        22.96209
521.50         22.9896
521.93        23.01173
522.37        23.01221
522.81        22.99193
523.25         22.9518
523.69        22.90114
524.13         22.8572
524.57        22.82246
525.01        22.78944
525.45        22.75256
525.89        22.70223
526.32        22.63402
526.76        22.56099
527.20        22.47797
527.64         22.3779
528.08        22.26488
528.52        22.14325
528.96        22.03665
529.40        21.98124
529.83        21.98077
530.27         22.0237
530.71        22.07694
531.15        22.08927
531.59        22.04749
532.03        21.96515
532.46        21.86356
532.90        21.79294
533.34        21.76239
533.78        21.74678
534.22        21.73127
534.66        21.72042
535.09        21.69331
535.53        21.60773
535.97        21.48922
536.41        21.43226
536.85        21.44756
537.28        21.48954
537.72        21.54136
538.16         21.5922
538.60        21.63304
539.04        21.66684
539.47        21.69595
539.91        21.73819
540.35         21.7926
540.79         21.8554
541.22        21.92033
541.66        21.98561
542.10        22.04865
542.54        22.11386
542.97        22.18414
543.41         22.2725
543.85        22.37877
544.29        22.50102
544.72        22.63164
545.16        22.77534
545.60        22.92615
546.04          23.085
546.47        23.25328
546.91        23.42772
547.35        23.60336
547.79        23.78106
548.22        23.95074
548.66        24.09378
549.10        24.23692
549.53        24.37163
549.97        24.51334
550.41        24.63076
550.84        24.75194
551.28         24.9403
551.72        25.15136
552.15         25.3339
552.59        25.50896
553.03        25.31914
553.46        25.56037
553.90        25.62186
554.34        25.73724
554.77        25.89063
555.21        26.06851
555.65        26.22611
556.08         26.3413
556.52        26.41507
556.96        26.45712
557.39        26.55418
557.83        26.69238
558.27        26.70878
558.70        26.62934
559.14        26.65837
559.57        26.78633
560.01        26.88051
560.45        26.92997
560.88        27.00143
561.32        27.10528
561.75        27.19132
562.19        27.26768
562.63        27.34191
563.06        27.41088
563.50        27.48135
563.93         27.5265
564.37        27.57516
564.80        27.64053
565.24        27.65124
565.68        27.57735
566.11        27.97065
566.55        27.83068
566.98        27.98062
567.42        28.14034
567.85        28.30739
568.29         28.4829
568.72        28.68952
569.16        28.95496
569.60        29.12216
570.03        29.28838
570.47        29.50379
570.90        29.81148
571.34         29.6876
571.77        30.00878
572.21        30.22248
572.64        30.31511
573.08        30.44817
573.51         30.4264
573.95        30.62111
574.38        30.96448
574.82        31.02714
