SpectraSmart Spectrum 2.9.0.0
--------- Device Information -----------
Spectrum Name :  反射率_0
Saving Time :  2024/04/26 23:31:27
Spectro-Module Model Name : SE2030-DUVN
Spectro-Module Serial Number : OS361AC55029948
Wavelength Start : 200
Wavelength End : 1025
Wavelength Unit : Wavelength(nm)
Spectrum Unit : Reflectance(%)
-----------Spectrum Setting ------------
Integration Time : 20ms
Average : 10
Boxcar : 0
Background removal :  enabled
linearity correction :  enabled
SC :  disabled
Intensity correction :  disabled
DWT denoise :  enabled
savitzky-golay :  disabled
FFT :  disabled
Running average :  disabled
Kalman :  disabled
High pass :  disabled
---------------BEGIN--------------------
Wavelength(nm)             Reflectance(%)
200.29               0
200.75        41.60867
201.21        42.91205
201.67        44.68486
202.13        46.48275
202.58        48.30053
203.04        50.63647
203.50        54.23203
203.96        59.71621
204.42        66.73784
204.88        74.79798
205.34        80.64851
205.80        79.79258
206.26        72.53608
206.72        61.61295
207.18        52.20993
207.64        48.36491
208.10        50.14719
208.55        57.82863
209.01         70.0733
209.47        77.09615
209.93        73.44988
210.39         65.3835
210.85        59.38993
211.31         59.0868
211.77        65.30227
212.23        82.03121
212.69        125.2791
213.14        197.9992
213.60        193.9233
214.06        143.2986
214.52        108.8564
214.98        92.28986
215.44         83.7392
215.90        76.96174
216.36        72.68022
216.81        73.32964
217.27        80.22143
217.73        96.63577
218.19        119.8171
218.65        128.3007
219.11        114.8287
219.57         93.6067
220.02        79.95944
220.48        82.23932
220.94        99.77132
221.40        134.7299
221.86         186.246
222.32        221.1447
222.77        210.1713
223.23        175.0824
223.69        140.6902
224.15        121.2353
224.61        114.2581
225.06        112.7228
225.52        114.5777
225.98        117.5565
226.44        121.0895
226.90        126.2545
227.36        132.0628
227.81         136.112
228.27         137.976
228.73        137.6674
229.19        137.1774
229.65        139.2734
230.10        143.9116
230.56        150.2449
231.02        155.6187
231.48        155.8873
231.93        150.7374
232.39         142.993
232.85        135.3515
233.31        131.2393
233.77        131.0258
234.22        133.2762
234.68        136.9662
235.14         140.588
235.60         143.407
236.05        146.1105
236.51        147.5332
236.97        145.8143
237.43        140.5787
237.88        132.2854
238.34        123.0831
238.80        117.0059
239.26          115.35
239.71        118.5022
240.17        125.1382
240.63        131.4376
241.08        134.8549
241.54         134.896
242.00        133.6545
242.46        135.8788
242.91        145.1797
243.37           161.9
243.83         186.183
244.28        206.3045
244.74        204.1368
245.20        180.5395
245.66        152.6544
246.11        134.5086
246.57        126.3325
247.03        123.7919
247.48        121.4672
247.94        112.4639
248.40        99.51931
248.85        87.54916
249.31        79.30532
249.77        75.10784
250.22        73.84644
250.68        74.48363
251.14        76.94437
251.59        80.34076
252.05        83.73161
252.51        87.57201
252.96        89.94165
253.42        89.96764
253.88        88.27909
254.33        85.07127
254.79        83.99563
255.25        88.06617
255.70        96.64985
256.16         108.484
256.62        118.6309
257.07        119.5185
257.53        113.4166
257.99        105.2206
258.44        98.67049
258.90        97.28719
259.35        99.47134
259.81        103.7971
260.27        108.2987
260.72        110.5945
261.18        110.8077
261.63        109.4959
262.09        108.0471
262.55        107.0159
263.00        106.3338
263.46         106.032
263.91        105.4842
264.37        104.5841
264.83        103.2713
265.28        101.6851
265.74        100.4612
266.19        99.81014
266.65        99.86421
267.11        100.2798
267.56        100.7542
268.02        100.8505
268.47        100.3971
268.93        99.61102
269.38        98.45118
269.84        96.99013
270.30        95.29668
270.75        93.36305
271.21        91.57903
271.66        90.40741
272.12        89.92359
272.57        89.92068
273.03        89.98125
273.48        89.36282
273.94        88.01476
274.39        86.13036
274.85        84.18084
275.31        82.54304
275.76        81.27609
276.22        80.33039
276.67        79.52386
277.13        78.84885
277.58        78.13106
278.04        77.43695
278.49        76.62899
278.95        75.73235
279.40        74.64641
279.86        73.53432
280.31        72.24979
280.77        70.84085
281.22        69.26698
281.68        67.69953
282.13        66.26375
282.59        65.33524
283.04        64.84343
283.50        64.70932
283.95        64.63054
284.41        64.19492
284.86         63.2934
285.32        62.12073
285.77        60.86361
286.22        59.90545
286.68        59.31384
287.13        58.90703
287.59        58.55378
288.04        57.96756
288.50        57.14746
288.95        56.15202
289.41        55.15536
289.86        54.26918
290.32        53.58943
290.77          53.024
291.22        52.53981
291.68        52.06248
292.13        51.54422
292.59        51.03726
293.04        50.57582
293.50        50.25265
293.95        50.06769
294.40        49.99073
294.86        49.96203
295.31        49.87382
295.77        49.71369
296.22        49.49868
296.68        49.29275
297.13        49.15966
297.58        49.13094
298.04        49.19316
298.49        49.29696
298.95        49.39666
299.40        49.46068
299.85         49.4945
300.31        49.54995
300.76        49.67967
301.21        49.88835
301.67        50.16799
302.12        50.38286
302.58        50.41339
303.03        50.21437
303.48        49.86712
303.94        49.53154
304.39         49.3909
304.84        49.49317
305.30        49.77416
305.75        50.07458
306.20        50.22167
306.66        50.18642
307.11        50.01751
307.57         49.7983
308.02        49.58456
308.47        49.42133
308.93        49.28491
309.38        49.18065
309.83        49.18632
310.29        49.29752
310.74        49.48731
311.19        49.64758
311.65         49.5921
312.10        49.28213
312.55        48.77678
313.00        48.22721
313.46         47.8606
313.91        47.71117
314.36        47.72825
314.82        47.78476
315.27        47.68597
315.72        47.38161
316.18        46.95288
316.63        46.50573
317.08        46.22161
317.53        46.13693
317.99        46.17637
318.44        46.24977
318.89        46.20184
319.35        45.98639
319.80        45.65435
320.25        45.26447
320.70        44.90893
321.16        44.61942
321.61        44.38768
322.06        44.18748
322.51         43.9818
322.97        43.75723
323.42        43.53491
323.87        43.35594
324.32        43.29023
324.78         43.3257
325.23        43.45369
325.68        43.55954
326.13        43.46748
326.59        43.14001
327.04        42.65081
327.49        42.11781
327.94         41.7346
328.39        41.55094
328.85        41.49496
329.30        41.54318
329.75        41.56137
330.20         41.5033
330.66        41.40235
331.11        41.29033
331.56        41.18239
332.01        41.08836
332.46        40.98268
332.92        40.85474
333.37        40.76382
333.82        40.69791
334.27         40.6634
334.72        40.63413
335.17         40.5577
335.63        40.42456
336.08        40.27497
336.53         40.1559
336.98        40.16037
337.43        40.30276
337.88         40.5358
338.34        40.79618
338.79        41.02067
339.24        41.15558
339.69        41.22453
340.14        41.19445
340.59        41.02075
341.05        40.73009
341.50        40.34113
341.95        39.97658
342.40        39.82193
342.85         39.9137
343.30        40.20214
343.75        40.56462
344.20        40.79179
344.66        40.82682
345.11        40.72439
345.56        40.56838
346.01        40.49842
346.46        40.55418
346.91         40.6855
347.36        40.83747
347.81        40.93448
348.26        40.95071
348.72        40.90978
349.17        40.84144
349.62         40.8043
350.07        40.81189
350.52        40.85374
350.97        40.86759
351.42        40.75788
351.87        40.51854
352.32        40.18952
352.77         39.8863
353.22        39.77325
353.67        39.87596
354.13        40.14338
354.58        40.44613
355.03        40.56348
355.48         40.4375
355.93        40.13105
356.38        39.77617
356.83        39.57623
357.28        39.56769
357.73        39.67131
358.18        39.76962
358.63        39.67718
359.08        39.35137
359.53        38.87296
359.98        38.32743
360.43        37.82993
360.88        37.42156
361.33        37.07166
361.78        36.77717
362.23        36.53703
362.68        36.34408
363.13        36.20292
363.58        36.08981
364.03         35.9586
364.48        35.79434
364.93        35.60167
365.38        35.38785
365.83         35.1757
366.28        34.97286
366.73        34.76676
367.18         34.5656
367.63         34.3823
368.08        34.21519
368.53        34.06628
368.98        33.90389
369.43        33.67344
369.88        33.36928
370.33        33.00947
370.78         32.6493
371.23         32.3846
371.68         32.2379
372.13        32.17673
372.58        32.14688
373.03        32.05854
373.48        31.88265
373.93        31.64563
374.38        31.36581
374.83        31.07713
375.28        30.79678
375.72        30.50619
376.17        30.24046
376.62        30.01443
377.07        29.83434
377.52        29.70992
377.97        29.61246
378.42        29.49417
378.87        29.34686
379.32        29.17233
379.77        29.02988
380.22        29.00986
380.67        29.11506
381.11        29.32134
381.56        29.49497
382.01        29.44252
382.46        29.13258
382.91        28.64836
383.36        28.14378
383.81        27.82915
384.26        27.74251
384.71        27.81659
385.15        27.95815
385.60        28.01017
386.05          27.923
386.50         27.7479
386.95        27.53255
387.40        27.34885
387.85        27.22128
388.29        27.10692
388.74        27.02157
389.19        26.92575
389.64        26.81094
390.09        26.68515
390.54        26.56372
390.98        26.46306
391.43        26.40186
391.88        26.36756
392.33        26.33516
392.78        26.26914
393.23        26.16655
393.67        26.03026
394.12        25.91224
394.57        25.83768
395.02        25.81024
395.47        25.80711
395.91        25.81703
396.36        25.80727
396.81        25.78207
397.26        25.75924
397.71        25.71984
398.15        25.65206
398.60        25.58971
399.05        25.42861
399.50        25.24529
399.95        25.33703
400.39        25.63253
400.84        25.65781
401.29        25.39532
401.74        25.21949
402.18        25.14491
402.63        24.92482
403.08        24.64172
403.53        24.53524
403.97        24.62784
404.42        24.85407
404.87        25.08963
405.32        25.13292
405.76        24.93948
406.21        24.58797
406.66        24.21189
407.11        24.01898
407.55        24.06433
408.00        24.27548
408.45        24.54243
408.90        24.65588
409.34         24.5538
409.79        24.31512
410.24         24.0459
410.68        23.88667
411.13        23.87721
411.58        23.96561
412.03        24.09417
412.47        24.16755
412.92        24.14615
413.37        24.07601
413.81         23.9882
414.26        23.94625
414.71        23.95514
415.15         23.9945
415.60        24.04404
416.05        24.09669
416.49         24.1447
416.94        24.19241
417.39        24.21931
417.83        24.18808
418.28        24.09755
418.73        23.95615
419.17        23.81867
419.62        23.77607
420.07        23.84446
420.51        23.98741
420.96        24.14319
421.41        24.20855
421.85        24.15395
422.30        24.00882
422.74        23.81533
423.19        23.74091
423.64        23.76723
424.08        23.72234
424.53        23.60605
424.98        23.59947
425.42        23.71695
425.87        23.81129
426.31        23.85602
426.76        23.94919
427.21        24.02888
427.65        23.84673
428.10        23.50322
428.54        23.35822
428.99         23.4534
429.44         23.6432
429.88        23.84082
430.33        23.90082
430.77        23.82779
431.22        23.87317
431.66        24.01909
432.11         24.0376
432.56        23.93625
433.00        23.84293
433.45        23.73836
433.89        23.65876
434.34        23.64921
434.78         23.3834
435.23        23.50628
435.67        23.50935
436.12        23.54309
436.57        23.47909
437.01        23.34133
437.46        23.26315
437.90        23.25255
438.35        23.22999
438.79         23.1861
439.24        23.16314
439.68         23.1608
440.13        23.17429
440.57        23.19819
441.02        23.24345
441.46        23.30256
441.91        23.30602
442.35        23.26051
442.80        23.41094
443.24        23.65757
443.69        23.59894
444.13        23.28451
444.58        23.16208
445.02        23.25196
445.47        23.31355
445.91        23.32363
446.36        23.36028
446.80         23.4085
447.24        23.44923
447.69        23.47066
448.13        23.44387
448.58        23.37259
449.02        23.26585
449.47        23.15219
449.91         23.0635
450.36         23.0183
450.80        23.00446
451.25        23.01841
451.69        23.03654
452.13        23.05336
452.58        23.06808
453.02        23.08063
453.47        23.09393
453.91        23.10749
454.36        23.12455
454.80        23.12452
455.24        23.07684
455.69        22.98794
456.13        22.85338
456.58        22.74169
457.02        22.71844
457.46        22.80221
457.91        22.97112
458.35        23.13486
458.79        23.15786
459.24        23.03682
459.68         22.8049
460.13        22.58541
460.57         22.5059
461.01        22.60891
461.46        22.83159
461.90        23.10358
462.34        23.28885
462.79        23.33506
463.23        23.28876
463.68        23.17604
464.12        23.05715
464.56        22.95448
465.01        22.87715
465.45        22.79645
465.89        22.73816
466.34        22.70196
466.78          22.682
467.22        22.68405
467.67        22.69216
468.11        22.71278
468.55         22.7353
468.99        22.75044
469.44         22.7419
469.88         22.7102
470.32        22.66169
470.77        22.60837
471.21        22.57409
471.65        22.56317
472.10        22.56861
472.54        22.58742
472.98        22.62237
473.42        22.66748
473.87        22.72767
474.31        22.76608
474.75        22.74762
475.20        22.67638
475.64        22.55974
476.08         22.4441
476.52        22.38888
476.97        22.40855
477.41        22.49674
477.85        22.62764
478.29        22.72344
478.74        22.78298
479.18        22.87537
479.62        22.98843
480.06        23.06497
480.50         23.1046
480.95        23.10784
481.39        23.06293
481.83        23.16371
482.27        23.07278
482.72        23.10083
483.16        23.16468
483.60        23.12201
484.04        23.09163
484.48        23.16126
484.93        23.43728
485.37        23.22519
485.81        23.31496
486.25        23.96187
486.69        23.87354
487.14        24.12682
487.58        24.09577
488.02        24.31028
488.46        23.99452
488.90        24.08481
489.34         23.9354
489.79         24.0023
490.23        24.12312
490.67        24.24253
491.11        24.33198
491.55        24.31907
491.99        24.23878
492.43        24.22899
492.88        24.30921
493.32        24.39191
493.76        24.47107
494.20        24.59849
494.64        24.77851
495.08        24.94493
495.52         25.0798
495.96        25.31539
496.41        25.58761
496.85        25.52757
497.29        25.21872
497.73        25.35505
498.17        25.58542
498.61         25.7853
499.05        25.80304
499.49        25.82912
499.93         25.8115
500.37        25.92109
500.82        26.11728
501.26        26.24792
501.70        26.29899
502.14        26.36837
502.58        26.47385
503.02        26.59045
503.46        26.71748
503.90        26.85979
504.34        26.98712
504.78        27.05001
505.22        27.04039
505.66        26.97416
506.10        26.89262
506.54        26.86197
506.98        26.90015
507.42         26.9906
507.86        27.10435
508.30        27.19217
508.74        27.23865
509.18        27.25727
509.62        27.26773
510.06        27.30147
510.50        27.36583
510.94        27.44858
511.38        27.52966
511.82        27.57899
512.26         27.5908
512.70        27.57745
513.14        27.56137
513.58        27.57714
514.02        27.63372
514.46        27.71945
514.90        27.81515
515.34        27.89115
515.78        27.93603
516.22        27.95414
516.66        27.95618
517.10        27.95951
517.54        27.96917
517.98        27.98248
518.42        27.98347
518.86        27.94781
519.30        27.87513
519.74        27.77645
520.18        27.68698
520.62        27.65882
521.06        27.70212
521.50        27.80316
521.93        27.92054
522.37        27.97584
522.81        27.95352
523.25        27.87179
523.69        27.77578
524.13        27.73785
524.57        27.76996
525.01        27.84344
525.45        27.91167
525.89        27.90074
526.32        27.79298
526.76        27.62851
527.20        27.44236
527.64        27.28895
528.08        27.18829
528.52        27.12324
528.96        27.09554
529.40        27.10777
529.83        27.15074
530.27          27.224
530.71        27.29388
531.15        27.30806
531.59        27.25568
532.03        27.14801
532.46         27.0141
532.90        26.92296
533.34        26.88569
533.78        26.86886
534.22        26.85098
534.66        26.83066
535.09        26.78124
535.53        26.65691
535.97        26.48523
536.41        26.37624
536.85        26.34513
537.28        26.33696
537.72        26.35323
538.16        26.41604
538.60        26.51762
539.04         26.6487
539.47        26.77418
539.91        26.85793
540.35        26.88663
540.79        26.87193
541.22        26.84169
541.66        26.85194
542.10        26.91313
542.54        27.01084
542.97        27.11941
543.41        27.20935
543.85        27.27025
544.29         27.3195
544.72        27.36815
545.16         27.4494
545.60         27.5661
546.04        27.71114
546.47        27.88216
546.91        28.07082
547.35        28.26606
547.79        28.46661
548.22        28.65911
548.66         28.8177
549.10        28.97231
549.53        29.11567
549.97         29.2527
550.41        29.32721
550.84        29.37401
551.28        29.47409
551.72        29.61176
552.15        29.78452
552.59        30.02579
553.03        29.89666
553.46         30.2831
553.90        30.38104
554.34        30.45115
554.77        30.50118
555.21         30.5678
555.65         30.6842
556.08        30.84344
556.52        31.01434
556.96        31.16423
557.39        31.32899
557.83        31.47474
558.27        31.43354
558.70        31.25707
559.14        31.21712
559.57        31.31449
560.01        31.38241
560.45        31.41098
560.88        31.48301
561.32        31.60892
561.75        31.73238
562.19        31.84742
562.63        31.93691
563.06        31.99162
563.50        32.02256
563.93        32.01977
564.37        32.05243
564.80        32.14048
565.24        32.18898
565.68        32.13284
566.11        32.56823
566.55        32.32474
566.98        32.38204
567.42        32.44688
567.85        32.56736
568.29        32.75811
568.72        33.02023
569.16        33.35789
569.60        33.60157
570.03        33.86226
570.47        34.09431
570.90        34.32041
571.34        34.38346
571.77        34.56361
572.21        34.67654
572.64        34.79726
573.08        34.82999
573.51        34.83028
573.95        35.01716
574.38        35.40501
574.82        35.40517
