SpectraSmart Spectrum 2.9.0.0
--------- Device Information -----------
Spectrum Name :  反射率_0
Saving Time :  2024/05/01 17:07:46
Spectro-Module Model Name : SE2030-DUVN
Spectro-Module Serial Number : OS361AC55029948
Wavelength Start : 200
Wavelength End : 1025
Wavelength Unit : Wavelength(nm)
Spectrum Unit : Reflectance(%)
-----------Spectrum Setting ------------
Integration Time : 20ms
Average : 10
Boxcar : 0
Background removal :  enabled
linearity correction :  enabled
SC :  disabled
Intensity correction :  disabled
DWT denoise :  enabled
savitzky-golay :  disabled
FFT :  disabled
Running average :  disabled
Kalman :  disabled
High pass :  disabled
---------------BEGIN--------------------
Wavelength(nm)             Reflectance(%)
200.29               0
200.75        114.7346
201.21        663.1094
201.67       -312.9793
202.13       -109.6661
202.58       -34.12756
203.04        14.47544
203.50        46.83864
203.96        65.35477
204.42        76.75724
204.88        91.16873
205.34        395.1314
205.80        3.742209
206.26       -10.58993
206.72       -76.62696
207.18        -444.062
207.64        625.9848
208.10        253.7999
208.55        164.8317
209.01         122.399
209.47        100.3553
209.93        89.42356
210.39        82.64372
210.85        81.22435
211.31        91.73715
211.77        146.7919
212.23       -341.2639
212.69       -48.52873
213.14        -26.6401
213.60       -32.38925
214.06        134.7631
214.52        28.96932
214.98        33.17527
215.44        56.54007
215.90        136.5593
216.36        1387.146
216.81       -549.8976
217.27       -699.2617
217.73        1409.764
218.19        278.9689
218.65        192.4403
219.11        210.9982
219.57        356.0979
220.02        998.3477
220.48        551.7111
220.94         209.475
221.40        123.7776
221.86        96.84151
222.32        92.37514
222.77        100.2168
223.23        119.1144
223.69         146.596
224.15        161.5774
224.61        154.3189
225.06        138.1702
225.52        127.6348
225.98         128.164
226.44        139.1018
226.90        160.1762
227.36        187.3418
227.81        199.8216
228.27        189.9429
228.73        171.4678
229.19         157.052
229.65        153.8857
230.10         160.916
230.56        175.6901
231.02        194.8688
231.48        206.6817
231.93        204.7447
232.39        196.1131
232.85        184.9689
233.31        174.7347
233.77        166.5847
234.22        159.3131
234.68        154.7569
235.14        155.1138
235.60        160.9267
236.05        173.8985
236.51        193.3348
236.97        211.5872
237.43        219.4772
237.88        214.6789
238.34        202.2151
238.80        194.1295
239.26        193.9284
239.71        201.7887
240.17        213.9877
240.63        215.2647
241.08        194.1156
241.54        160.6637
242.00        133.5517
242.46        123.0852
242.91         128.997
243.37        152.2813
243.83        192.8329
244.28        210.8624
244.74        180.1623
245.20        138.3475
245.66        107.6586
246.11        89.83613
246.57        78.53371
247.03        67.82035
247.48        53.26631
247.94        32.26353
248.40        10.51608
248.85       -5.429883
249.31       -7.713961
249.77        3.814469
250.22         20.9112
250.68        37.86515
251.14        50.81031
251.59        58.59121
252.05        63.47044
252.51        68.18305
252.96        79.87446
253.42        122.0289
253.88        175.1693
254.33        180.3725
254.79        167.9259
255.25        156.8034
255.70        147.3606
256.16        140.3466
256.62        134.6526
257.07        129.8845
257.53        127.2963
257.99         126.094
258.44        125.8065
258.90        127.1906
259.35        129.3256
259.81        132.3954
260.27        135.7218
260.72        138.4515
261.18        140.6878
261.63         141.776
262.09        142.3133
262.55        142.0311
263.00        140.8213
263.46        139.3274
263.91        137.2097
264.37        134.9477
264.83        132.5383
265.28        130.0365
265.74        127.9289
266.19        126.2026
266.65        125.0844
267.11        124.3246
267.56         123.906
268.02        123.9808
268.47        124.3769
268.93        125.0053
269.38        125.3982
269.84        124.8156
270.30        123.1548
270.75         120.616
271.21        117.8435
271.66         115.611
272.12        114.2028
272.57        113.2635
273.03        112.5316
273.48        111.4086
273.94        109.8769
274.39        108.0742
274.85        106.2611
275.31        104.5233
275.76         102.867
276.22        101.3792
276.67        99.95277
277.13        98.81344
277.58        97.76987
278.04        96.85687
278.49        95.85195
278.95        94.71377
279.40        93.30647
279.86        91.81583
280.31        90.13627
280.77        88.42587
281.22        86.59339
281.68        84.80844
282.13         83.0308
282.59        81.46246
283.04        80.03213
283.50        78.81695
283.95        77.71892
284.41        76.75704
284.86        75.86777
285.32        75.09643
285.77        74.41586
286.22        73.93039
286.68        73.60179
287.13        73.33276
287.59        72.96401
288.04        72.19205
288.50        71.05991
288.95         69.6314
289.41        68.23171
289.86        67.11557
290.32        66.40697
290.77        65.95809
291.22        65.63508
291.68        65.20137
292.13        64.57057
292.59        63.85608
293.04        63.13109
293.50        62.59173
293.95        62.24961
294.40        62.04885
294.86        61.89768
295.31        61.66567
295.77        61.32621
296.22        60.90847
296.68        60.49147
297.13           60.13
297.58        59.86813
298.04        59.71263
298.49        59.59512
298.95        59.47659
299.40        59.31836
299.85        59.12784
300.31        59.01662
300.76        59.10619
301.21         59.4073
301.67        59.87291
302.12        60.25885
302.58        60.24615
303.03         59.7632
303.48        58.96771
303.94         58.1952
304.39        57.80779
304.84         57.9097
305.30        58.35839
305.75        58.89571
306.20        59.16468
306.66        59.08779
307.11        58.75062
307.57        58.33491
308.02         58.0134
308.47        57.86079
308.93        57.81339
309.38        57.76639
309.83        57.63729
310.29        57.41916
310.74        57.15343
311.19        56.89255
311.65        56.69108
312.10        56.55127
312.55        56.44178
313.00        56.37999
313.46        56.39786
313.91        56.47194
314.36        56.58509
314.82        56.62667
315.27        56.43727
315.72        55.98902
316.18        55.35749
316.63        54.66483
317.08         54.1206
317.53        53.77736
317.99        53.58589
318.44        53.46859
318.89        53.29618
319.35        53.03505
319.80        52.73487
320.25        52.44987
320.70        52.26093
321.16        52.17462
321.61         52.1576
322.06        52.16364
322.51        52.13359
322.97        52.03395
323.42        51.90544
323.87        51.73412
324.32        51.51445
324.78        51.25071
325.23        50.95972
325.68        50.68458
326.13        50.50728
326.59        50.43021
327.04         50.4574
327.49         50.5071
327.94        50.45286
328.39        50.25875
328.85         49.9363
329.30        49.59488
329.75        49.35733
330.20        49.26628
330.66        49.27778
331.11        49.33859
331.56        49.29755
332.01        49.12221
332.46        48.85839
332.92        48.58721
333.37        48.49497
333.82        48.60923
334.27        48.88355
334.72        49.21726
335.17        49.43846
335.63        49.47223
336.08        49.38055
336.53        49.23365
336.98        49.17442
337.43        49.24121
337.88        49.39622
338.34         49.5324
338.79        49.51139
339.24        49.29087
339.69        48.92785
340.14        48.56738
340.59        48.43146
341.05        48.55737
341.50        48.88068
341.95        49.24522
342.40         49.3989
342.85        49.28496
343.30        49.00018
343.75        48.67256
344.20        48.49819
344.66        48.53349
345.11        48.69939
345.56        48.95878
346.01        49.24632
346.46        49.51551
346.91        49.78181
347.36        49.98554
347.81        50.03475
348.26        49.92557
348.72        49.69217
349.17        49.40446
349.62        49.22925
350.07        49.19939
350.52        49.25899
350.97        49.34148
351.42          49.328
351.87        49.19261
352.32        49.00518
352.77         48.7608
353.22        48.45018
353.67        48.09331
354.13        47.68941
354.58        47.34784
355.03        47.29433
355.48        47.54874
355.93        48.05943
356.38        48.56353
356.83        48.61813
357.28        48.14191
357.73        47.28181
358.18        46.38468
358.63        45.96813
359.08        46.12524
359.53        46.68205
359.98         47.3376
360.43        47.58447
360.88        47.28193
361.33        46.61176
361.78          45.797
362.23        45.15382
362.68        44.77606
363.13        44.56343
363.58        44.43887
364.03        44.29405
364.48        44.08209
364.93        43.83341
365.38        43.58234
365.83        43.36431
366.28        43.18051
366.73        43.01912
367.18        42.79196
367.63        42.37184
368.08        41.76525
368.53        41.03721
368.98        40.36506
369.43        40.00413
369.88        39.99065
370.33        40.23811
370.78        40.57178
371.23        40.67845
371.68        40.46142
372.13        40.02332
372.58        39.47891
373.03        39.00204
373.48         38.6498
373.93         38.3604
374.38        38.14086
374.83        38.01088
375.28        37.95817
375.72        37.98153
376.17         38.0116
376.62        37.91388
377.07        37.66475
377.52        37.29589
377.97        36.89351
378.42        36.60163
378.87        36.45346
379.32        36.40475
379.77         36.3825
380.22        36.27277
380.67         36.0487
381.11        35.75322
381.56        35.43804
382.01        35.19593
382.46        35.05403
382.91        34.97929
383.36        34.92809
383.81        34.83594
384.26        34.68188
384.71        34.48523
385.15        34.26265
385.60        34.06494
386.05        33.89725
386.50         33.7496
386.95         33.6047
387.40        33.43889
387.85        33.25363
388.29        33.04219
388.74        32.87365
389.19        32.75441
389.64        32.68285
390.09        32.63709
390.54        32.60105
390.98        32.54469
391.43        32.47533
391.88          32.403
392.33        32.31287
392.78        32.19662
393.23        32.06334
393.67        31.86935
394.12        31.69432
394.57        31.68958
395.02        31.81718
395.47        31.83188
395.91        31.74232
396.36        31.74575
396.81        31.84739
397.26         31.9316
397.71        31.94668
398.15        31.89313
398.60        31.80748
399.05        31.56835
399.50         31.2814
399.95         31.3246
400.39        31.61369
400.84        31.55302
401.29        31.14708
401.74        30.90874
402.18        30.86451
402.63        30.69917
403.08        30.44717
403.53        30.29908
403.97        30.26252
404.42        30.29182
404.87        30.33081
405.32        30.29272
405.76        30.15592
406.21        29.96141
406.66        29.76885
407.11          29.672
407.55        29.69957
408.00        29.82149
408.45        29.98191
408.90        30.03884
409.34        29.97298
409.79        29.89545
410.24        29.83466
410.68        29.76517
411.13        29.70376
411.58         29.6727
412.03        29.65671
412.47        29.61769
412.92        29.54204
413.37         29.4526
413.81        29.36357
414.26        29.31568
414.71        29.30588
415.15        29.33136
415.60        29.35375
416.05        29.33869
416.49        29.27654
416.94        29.17311
417.39         29.0614
417.83        28.99176
418.28        28.97485
418.73        28.99416
419.17        29.01325
419.62        28.96969
420.07        28.85862
420.51        28.70396
420.96         28.5646
421.41        28.49294
421.85        28.49412
422.30        28.56142
422.74        28.66645
423.19        28.80033
423.64        28.94175
424.08        29.09925
424.53        29.22352
424.98        29.27125
425.42        29.23701
425.87        29.13459
426.31        28.99128
426.76        28.86203
427.21        28.75703
427.65        28.65641
428.10         28.5934
428.54        28.61825
428.99        28.74418
429.44         28.9786
429.88        29.17459
430.33        29.16401
430.77        28.92269
431.22        28.49089
431.66        28.04858
432.11        28.01523
432.56        28.36158
433.00         28.7017
433.45        28.80017
433.89        28.62778
434.34        28.02869
434.78        27.94517
435.23        28.57598
435.67        28.80139
436.12        28.67521
436.57        28.73974
437.01        28.99075
437.46        29.08188
437.90        28.98477
438.35        28.84953
438.79        28.70066
439.24         28.4991
439.68        28.31419
440.13        28.35329
440.57        28.55288
441.02        28.66954
441.46         28.6723
441.91        28.56872
442.35        28.41069
442.80          28.625
443.24        29.05285
443.69        28.89902
444.13         28.2705
444.58        28.02767
445.02        28.19249
445.47        28.31915
445.91        28.36327
446.36        28.46335
446.80        28.59558
447.24        28.72154
447.69        28.82046
448.13        28.85595
448.58        28.82769
449.02        28.74249
449.47        28.63803
449.91        28.55397
450.36        28.51243
450.80        28.49673
451.25        28.49568
451.69        28.47004
452.13        28.41423
452.58        28.34526
453.02         28.2686
453.47         28.2083
453.91        28.16726
454.36        28.14817
454.80        28.13991
455.24        28.12647
455.69        28.11191
456.13        28.08546
456.58        28.08428
457.02          28.127
457.46        28.22103
457.91        28.35612
458.35        28.48489
458.79        28.49278
459.24        28.37648
459.68         28.2454
460.13        28.20265
460.57        27.84342
461.01        27.99198
461.46        28.01177
461.90        28.10752
462.34        28.10358
462.79        28.13771
463.23        28.09927
463.68        28.05828
464.12        28.06214
464.56        28.11782
465.01        28.24349
465.45        28.34148
465.89        28.32478
466.34        28.19006
466.78        27.95967
467.22        27.71182
467.67        27.63274
468.11        27.64768
468.55        27.81112
468.99        28.02107
469.44        28.17139
469.88        28.23401
470.32        28.23516
470.77        28.20542
471.21        28.19642
471.65        28.22039
472.10        28.25935
472.54        28.29069
472.98         28.2989
473.42        28.28171
473.87        28.26261
474.31        28.23384
474.75        28.20747
475.20        28.19439
475.64        28.17963
476.08        28.16682
476.52        28.21553
476.97        28.33356
477.41        28.43555
477.85        28.31855
478.29        28.77442
478.74        28.51732
479.18        28.51421
479.62        28.41867
480.06        28.43979
480.50        28.60424
480.95        28.34228
481.39        28.61617
481.83        28.61654
482.27         28.6373
482.72         28.6792
483.16           28.74
483.60         28.8232
484.04          28.907
484.48        28.92017
484.93        29.00965
485.37        29.22973
485.81        29.45413
486.25        29.81345
486.69        29.36108
487.14        28.57059
487.58        28.76916
488.02        29.97034
488.46        29.51029
488.90        29.23746
489.34        29.57875
489.79        29.41519
490.23         29.6479
490.67        29.93094
491.11        30.33351
491.55        30.35457
491.99        30.05217
492.43        29.99319
492.88        30.20988
493.32         30.3657
493.76        30.42344
494.20        30.51478
494.64        30.63908
495.08        30.72398
495.52        30.78599
495.96        30.93666
496.41        31.14362
496.85        31.21546
497.29        31.16583
497.73        31.22481
498.17        31.38855
498.61        31.43814
499.05        31.40117
499.49        31.47595
499.93        31.66981
500.37         31.8869
500.82        32.08863
501.26        32.24263
501.70        32.33328
502.14          32.375
502.58         32.3838
503.02        32.38664
503.46        32.39816
503.90         32.4112
504.34        32.44697
504.78        32.53841
505.22         32.6862
505.66         32.8813
506.10        33.07595
506.54        33.18882
506.98        33.20204
507.42        33.14066
507.86        33.05425
508.30        33.02142
508.74        33.06495
509.18         33.1636
509.62        33.28991
510.06        33.39828
510.50        33.47056
510.94        33.51641
511.38        33.54874
511.82        33.58693
512.26        33.63377
512.70        33.68018
513.14        33.70407
513.58        33.67397
514.02         33.5889
514.46        33.46539
514.90        33.34204
515.34        33.27885
515.78        33.29166
516.22        33.36459
516.66        33.46513
517.10        33.53997
517.54        33.57335
517.98        33.57868
518.42        33.57444
518.86        33.59146
519.30        33.63647
519.74        33.69425
520.18        33.74728
520.62        33.77238
521.06        33.76264
521.50        33.72519
521.93        33.67428
522.37         33.6249
522.81        33.58776
523.25        33.56374
523.69         33.5412
524.13        33.50028
524.57        33.44133
525.01        33.37244
525.45        33.32061
525.89        33.32833
526.32         33.3964
526.76        33.49987
527.20        33.59964
527.64        33.63462
528.08        33.58942
528.52        33.49096
528.96        33.35304
529.40        33.19683
529.83        33.03722
530.27        32.88153
530.71        32.76456
531.15        32.74817
531.59        32.83657
532.03        33.00522
532.46        33.18974
532.90        33.29258
533.34        33.28828
533.78        33.18071
534.22        33.01265
534.66        32.90999
535.09        32.86292
535.53        32.73385
535.97        32.55022
536.41          32.473
536.85        32.51157
537.28        32.59069
537.72        32.67176
538.16         32.7209
538.60         32.7227
539.04        32.68392
539.47        32.63796
539.91        32.65759
540.35        32.74628
540.79        32.89465
541.22         33.0602
541.66        33.12689
542.10        33.16558
542.54        33.13551
542.97        33.10131
543.41        33.14166
543.85        33.26706
544.29        33.45106
544.72        33.65702
545.16        33.84705
545.60         33.9994
546.04        34.12317
546.47        34.22498
546.91        34.32076
547.35        34.41848
547.79        34.50555
548.22        34.55947
548.66        34.62157
549.10        34.69732
549.53        34.62724
549.97        34.74501
550.41        34.87008
550.84        35.09345
551.28        35.40278
551.72        35.74355
552.15        35.96936
552.59        36.06784
553.03        36.20271
553.46        36.23656
553.90        36.33441
554.34        36.46757
554.77        36.55865
555.21        36.57221
555.65        36.87777
556.08        36.76324
556.52        36.76511
556.96        36.71679
557.39        36.72058
557.83        36.87796
558.27        37.01155
558.70        37.11726
559.14        37.34585
559.57        37.35145
560.01        37.47322
560.45        37.56355
560.88        37.51956
561.32        37.42547
561.75        37.30994
562.19         37.2735
562.63        37.62835
563.06        38.20647
563.50        38.20492
563.93        37.71133
564.37        37.60199
564.80        37.89015
565.24        38.09886
565.68        38.17318
566.11        38.25312
566.55        38.34235
566.98        38.39034
567.42        38.44775
567.85        38.55318
568.29         38.7218
568.72        38.93901
569.16        39.20609
569.60        39.34975
570.03        39.31946
570.47        39.52929
570.90        39.63421
571.34        39.39563
571.77        39.66161
572.21        39.76558
572.64        40.00031
573.08        39.91445
573.51        40.35958
573.95        40.59584
574.38        40.39742
574.82        40.78682
