SpectraSmart Spectrum 2.9.0.0
--------- Device Information -----------
Spectrum Name :  反射率_0
Saving Time :  2024/05/01 16:45:22
Spectro-Module Model Name : SE2030-DUVN
Spectro-Module Serial Number : OS361AC55029948
Wavelength Start : 200
Wavelength End : 1025
Wavelength Unit : Wavelength(nm)
Spectrum Unit : Reflectance(%)
-----------Spectrum Setting ------------
Integration Time : 20ms
Average : 10
Boxcar : 0
Background removal :  enabled
linearity correction :  enabled
SC :  disabled
Intensity correction :  disabled
DWT denoise :  enabled
savitzky-golay :  disabled
FFT :  disabled
Running average :  disabled
Kalman :  disabled
High pass :  disabled
---------------BEGIN--------------------
Wavelength(nm)             Reflectance(%)
200.29               0
200.75        178.5602
201.21        812.1865
201.67       -354.4484
202.13       -134.7595
202.58         -64.329
203.04       -23.00042
203.50        2.030854
203.96        12.14131
204.42        9.542995
204.88       -18.01662
205.34       -791.0186
205.80        136.9818
206.26        77.84813
206.72        29.04366
207.18       -150.1514
207.64        326.0035
208.10        146.4018
208.55        95.91621
209.01        69.16115
209.47         57.7977
209.93        55.80354
210.39        57.47502
210.85        60.63398
211.31         62.2394
211.77        57.43802
212.23        96.99036
212.69        80.51738
213.14        99.76392
213.60        179.3127
214.06       -698.5375
214.52       -89.03246
214.98       -45.44883
215.44       -28.81032
215.90       -10.94061
216.36        193.3856
216.81       -138.5992
217.27       -216.2273
217.73        469.0872
218.19        87.91929
218.65        45.66796
219.11        22.66035
219.57       -18.02302
220.02       -168.6131
220.48       -79.06275
220.94      -0.2939346
221.40        21.24631
221.86         31.4232
222.32        40.51345
222.77        52.30688
223.23        70.03119
223.69        91.67691
224.15        99.47275
224.61        88.14248
225.06         70.7347
225.52        59.05362
225.98        57.09985
226.44        63.65578
226.90        78.17536
227.36        98.12418
227.81        109.0281
228.27        104.4339
228.73        93.20625
229.19        83.96455
229.65        81.76884
230.10        86.04307
230.56        95.21831
231.02        106.8355
231.48        113.0421
231.93        110.1038
232.39        102.7807
232.85        94.73568
233.31        89.01124
233.77        85.91218
234.22        84.17073
234.68        83.62436
235.14        84.19014
235.60        85.84428
236.05        89.31789
236.51         94.5939
236.97        100.2846
237.43        104.1839
237.88         105.207
238.34        103.6472
238.80        102.2277
239.26        101.7271
239.71        102.0713
240.17        101.4257
240.63        96.20494
241.08        85.89716
241.54        74.99023
242.00        68.28101
242.46         67.4746
242.91        72.84184
243.37        85.45867
243.83        108.1584
244.28        127.5093
244.74        124.7781
245.20        111.6789
245.66        98.90468
246.11        88.43126
246.57         77.6859
247.03        62.21369
247.48        37.40238
247.94        6.325392
248.40       -17.18162
248.85       -27.90124
249.31        -21.6308
249.77       -3.337882
250.22        17.15083
250.68        35.48272
251.14        48.47218
251.59        55.08481
252.05        56.80836
252.51        53.33078
252.96         40.3641
253.42        23.10294
253.88        30.52334
254.33        51.15433
254.79        62.94288
255.25        67.19359
255.70        68.18003
256.16         68.8472
256.62         69.5961
257.07        70.55695
257.53        72.07748
257.99        73.51334
258.44        74.60704
258.90         75.8035
259.35        76.70893
259.81        77.66801
260.27        78.36506
260.72         78.4257
261.18        78.20937
261.63        77.56244
262.09        76.94386
262.55        76.31932
263.00        75.59633
263.46        74.95995
263.91        74.27101
264.37          73.828
264.83        73.52199
265.28        73.28158
265.74        73.06219
266.19        72.42078
266.65        71.48293
267.11        70.27763
267.56        69.13168
268.02        68.67955
268.47        68.94633
268.93        69.69305
269.38        70.45198
269.84        70.42825
270.30        69.46434
270.75        67.81729
271.21        65.92045
271.66        64.27417
272.12        63.10655
272.57        62.17286
273.03         61.4412
273.48        60.76509
273.94          60.133
274.39        59.56218
274.85        58.99254
275.31        58.18697
275.76        57.11539
276.22        55.92715
276.67        54.73964
277.13         53.9191
277.58        53.39825
278.04        53.11074
278.49        52.80974
278.95        52.30264
279.40        51.47221
279.86        50.49224
280.31        49.39071
280.77        48.36294
281.22        47.38422
281.68        46.51034
282.13        45.65894
282.59        44.86304
283.04        44.06945
283.50        43.34184
283.95        42.69377
284.41        42.23548
284.86         41.9381
285.32        41.77851
285.77         41.6418
286.22        41.43856
286.68        41.13696
287.13        40.73652
287.59        40.26378
288.04         39.7229
288.50        39.18382
288.95        38.61241
289.41        38.10729
289.86        37.69037
290.32        37.40108
290.77        37.20626
291.22        37.05598
291.68        36.85624
292.13         36.5771
292.59        36.26856
293.04        35.97438
293.50        35.82848
293.95        35.82974
294.40        35.94262
294.86        36.08996
295.31        36.16175
295.77        36.13012
296.22        36.02842
296.68        35.90531
297.13        35.80505
297.58        35.76177
298.04        35.77868
298.49        35.83834
298.95        35.96016
299.40        36.11603
299.85        36.28898
300.31         36.4909
300.76        36.72601
301.21        36.98311
301.67        37.25991
302.12        37.44476
302.58        37.40524
303.03        37.12027
303.48        36.67896
303.94         36.2697
304.39        36.08995
304.84        36.19633
305.30        36.50047
305.75        36.86942
306.20        37.12007
306.66        37.19896
307.11        37.13959
307.57        36.98619
308.02        36.74504
308.47        36.45667
308.93        36.12875
309.38        35.78344
309.83        35.51384
310.29        35.34715
310.74        35.25922
311.19        35.22447
311.65        35.18032
312.10        35.10006
312.55        35.00183
313.00        34.89829
313.46        34.81138
313.91        34.73553
314.36        34.64753
314.82        34.53447
315.27        34.39593
315.72        34.22361
316.18         34.0328
316.63        33.79647
317.08        33.47771
317.53        33.08019
317.99        32.62648
318.44        32.17696
318.89        31.84583
319.35         31.6644
319.80          31.602
320.25        31.59804
320.70        31.54643
321.16        31.40882
321.61        31.21966
322.06         31.0083
322.51        30.83143
322.97        30.69851
323.42        30.59407
323.87        30.49287
324.32        30.36892
324.78        30.20863
325.23        30.03808
325.68        29.85508
326.13        29.65927
326.59        29.44773
327.04        29.23368
327.49        29.02634
327.94        28.85315
328.39        28.71975
328.85         28.6111
329.30        28.52332
329.75        28.41408
330.20        28.27271
330.66        28.10252
331.11        27.92976
331.56        27.76732
332.01        27.62534
332.46        27.50135
332.92        27.38743
333.37        27.30337
333.82        27.24084
334.27        27.20213
334.72         27.1874
335.17         27.1968
335.63         27.2137
336.08        27.24198
336.53        27.26796
336.98        27.28541
337.43        27.29351
337.88        27.30567
338.34        27.28914
338.79        27.20907
339.24        27.06078
339.69        26.85316
340.14        26.68473
340.59        26.71054
341.05        26.94102
341.50          27.329
341.95        27.71483
342.40        27.84071
342.85        27.65385
343.30        27.24676
343.75        26.77494
344.20        26.48074
344.66        26.43447
345.11        26.55477
345.56        26.77293
346.01        26.96792
346.46        27.08805
346.91        27.16987
347.36        27.20858
347.81        27.19379
348.26         27.1336
348.72        27.03341
349.17        26.90098
349.62        26.79743
350.07          26.734
350.52        26.69092
350.97        26.65979
351.42        26.61932
351.87        26.56384
352.32        26.51637
352.77        26.43895
353.22        26.27351
353.67        26.02127
354.13        25.70223
354.58        25.40859
355.03        25.31674
355.48        25.45173
355.93        25.77234
356.38         26.1095
356.83        26.17755
357.28         25.9218
357.73        25.43883
358.18        24.94433
358.63        24.76002
359.08        24.94335
359.53        25.38146
359.98        25.88457
360.43         26.1335
360.88        26.03328
361.33        25.69115
361.78         25.2394
362.23        24.86856
362.68        24.63735
363.13        24.48805
363.58         24.3772
364.03        24.24349
364.48        24.06547
364.93        23.86791
365.38        23.68037
365.83        23.53601
366.28        23.43723
366.73        23.37114
367.18        23.28187
367.63        23.08546
368.08        22.77947
368.53        22.40383
368.98        22.04851
369.43        21.84501
369.88         21.8119
370.33        21.89659
370.78         22.0253
371.23        22.06749
371.68         21.9761
372.13        21.79695
372.58        21.54667
373.03        21.24638
373.48        20.92049
373.93        20.56814
374.38        20.25357
374.83        20.08745
375.28        20.09022
375.72        20.22465
376.17        20.41229
376.62        20.52404
377.07        20.51768
377.52         20.4174
377.97        20.25299
378.42        20.07712
378.87        19.91197
379.32        19.74937
379.77        19.57808
380.22        19.38123
380.67        19.16323
381.11        18.94312
381.56        18.76276
382.01         18.6887
382.46        18.73142
382.91        18.86539
383.36        19.02269
383.81        19.10262
384.26        19.07427
384.71        18.95187
385.15        18.78353
385.60        18.66809
386.05        18.62192
386.50        18.62558
386.95        18.61138
387.40        18.47747
387.85        18.21991
388.29        17.87151
388.74        17.56847
389.19        17.44118
389.64        17.50547
390.09        17.70394
390.54         17.9284
390.98         18.0042
391.43        17.89826
391.88        17.67777
392.33        17.42326
392.78        17.25516
393.23        17.20079
393.67        17.18736
394.12        17.20689
394.57        17.26566
395.02        17.32293
395.47        17.27498
395.91        17.15044
396.36        17.08423
396.81        17.09628
397.26         17.1146
397.71        17.11429
398.15        17.10224
398.60        17.09405
399.05        17.01715
399.50         16.9194
399.95        16.99269
400.39        17.18792
400.84        17.18587
401.29         16.9769
401.74        16.82347
402.18        16.73957
402.63         16.5616
403.08        16.34074
403.53        16.23012
403.97        16.24232
404.42         16.3357
404.87        16.44372
405.32        16.45939
405.76        16.35587
406.21        16.17571
406.66        15.97889
407.11        15.86146
407.55        15.85225
408.00        15.92062
408.45        16.02182
408.90        16.05502
409.34        16.00312
409.79         15.9354
410.24        15.87507
410.68         15.8165
411.13        15.77112
411.58         15.7458
412.03        15.73274
412.47        15.71391
412.92        15.68157
413.37        15.64462
413.81        15.60455
414.26        15.57488
414.71        15.55239
415.15        15.54127
415.60        15.52131
416.05        15.47886
416.49         15.4122
416.94        15.32471
417.39        15.24489
417.83        15.21662
418.28        15.24685
418.73        15.32116
419.17        15.39798
419.62        15.40345
420.07        15.32924
420.51        15.19884
420.96        15.07041
421.41        15.01042
421.85        15.02807
422.30         15.1029
422.74        15.20234
423.19        15.29382
423.64        15.35879
424.08        15.41366
424.53        15.43133
424.98        15.39085
425.42        15.29819
425.87        15.16964
426.31        15.03514
426.76         14.9535
427.21         14.9318
427.65        14.94752
428.10        15.00953
428.54        15.12395
428.99        15.27963
429.44        15.49319
429.88        15.65922
430.33        15.63104
430.77         15.4011
431.22        15.03462
431.66         14.6733
432.11        14.56433
432.56        14.70182
433.00        14.97972
433.45        15.20271
433.89        14.98917
434.34          14.352
434.78        14.27619
435.23        14.83034
435.67        15.01652
436.12        14.84181
436.57        14.84204
437.01        15.01909
437.46        15.08388
437.90        15.01765
438.35        14.92719
438.79        14.83339
439.24        14.72962
439.68        14.65551
440.13        14.71025
440.57        14.84469
441.02        14.91703
441.46        14.91048
441.91        14.80293
442.35        14.65225
442.80        14.79563
443.24        15.12158
443.69        15.03431
444.13        14.60688
444.58        14.46467
445.02        14.62128
445.47        14.74392
445.91        14.79424
446.36        14.86686
446.80        14.94516
447.24        15.00357
447.69        15.03041
448.13        15.00881
448.58        14.94273
449.02        14.84095
449.47        14.73744
449.91        14.67346
450.36        14.66415
450.80        14.69359
451.25        14.74222
451.69        14.76636
452.13        14.75502
452.58         14.7233
453.02        14.67499
453.47        14.62742
453.91        14.58506
454.36         14.5462
454.80        14.51244
455.24        14.48468
455.69        14.46627
456.13        14.44945
456.58        14.44609
457.02        14.45212
457.46        14.47006
457.91        14.50006
458.35         14.5231
458.79        14.48826
459.24         14.3993
459.68        14.30684
460.13        14.26869
460.57         14.0821
461.01        14.16573
461.46        14.19488
461.90        14.26537
462.34        14.26929
462.79         14.2732
463.23        14.22424
463.68        14.17348
464.12        14.16928
464.56        14.22044
465.01        14.32511
465.45         14.4161
465.89        14.42093
466.34        14.33485
466.78        14.17606
467.22        14.00218
467.67        13.93829
468.11        13.95389
468.55        14.06968
468.99        14.21553
469.44        14.30956
469.88        14.33176
470.32        14.30113
470.77        14.25098
471.21        14.23198
471.65        14.25693
472.10        14.30695
472.54        14.35048
472.98        14.35024
473.42        14.30137
473.87        14.23022
474.31        14.15132
474.75        14.10028
475.20         14.0899
475.64        14.09693
476.08        14.11698
476.52        14.17869
476.97        14.28337
477.41        14.35885
477.85        14.35203
478.29        14.58497
478.74        14.42435
479.18        14.35945
479.62        14.25649
480.06        14.28836
480.50        14.47196
480.95        14.48916
481.39        14.76945
481.83        14.80235
482.27        14.72625
482.72        14.58438
483.16        14.43313
483.60        14.37242
484.04         14.3933
484.48        14.46972
484.93        14.69569
485.37        14.93759
485.81        14.99808
486.25        15.86575
486.69        14.97392
487.14         14.6026
487.58        14.91654
488.02        15.16593
488.46        15.00933
488.90        14.94035
489.34        15.07045
489.79        14.86907
490.23        15.07569
490.67        15.29266
491.11        15.62107
491.55        15.64535
491.99        15.40209
492.43        15.32143
492.88        15.42722
493.32        15.45934
493.76        15.42381
494.20        15.47039
494.64        15.60965
495.08        15.78616
495.52        15.96628
495.96        16.15226
496.41        16.31291
496.85        16.31612
497.29        16.22288
497.73         16.3469
498.17        16.65267
498.61        16.74433
499.05        16.63272
499.49        16.65129
499.93        16.80881
500.37        16.91992
500.82        16.97072
501.26        17.02026
501.70        17.06829
502.14        17.10011
502.58        17.12066
503.02        17.13861
503.46        17.15794
503.90        17.18006
504.34        17.21153
504.78        17.25898
505.22        17.32294
505.66        17.40321
506.10        17.48511
506.54        17.54364
506.98         17.5731
507.42        17.57897
507.86        17.58057
508.30        17.60868
508.74        17.67035
509.18        17.75774
509.62        17.84919
510.06        17.90907
510.50        17.92799
510.94        17.91488
511.38        17.89444
511.82         17.9062
512.26        17.95761
512.70        18.03505
513.14        18.10893
513.58        18.13321
514.02        18.09937
514.46        18.02528
514.90         17.9412
515.34        17.89525
515.78        17.90115
516.22        17.94382
516.66        18.00404
517.10        18.05141
517.54        18.07561
517.98        18.08549
518.42         18.0863
518.86        18.08619
519.30        18.08764
519.74        18.08454
520.18        18.07578
520.62        18.06175
521.06        18.04259
521.50        18.02101
521.93        17.99701
522.37         17.9644
522.81        17.92681
523.25        17.88809
523.69        17.85453
524.13        17.83534
524.57        17.83161
525.01        17.83775
525.45        17.84946
525.89        17.86075
526.32        17.86692
526.76        17.86598
527.20        17.85129
527.64        17.81289
528.08        17.75175
528.52        17.67542
528.96        17.59397
529.40         17.5224
529.83        17.46469
530.27        17.42262
530.71        17.39727
531.15        17.39401
531.59        17.40932
532.03        17.43689
532.46        17.46116
532.90        17.46024
533.34        17.43133
533.78        17.37073
534.22        17.28837
534.66        17.22999
535.09        17.18612
535.53        17.09236
535.97        16.97695
536.41        16.94514
536.85        17.00503
537.28        17.10932
537.72        17.21723
538.16        17.28144
538.60         17.2865
539.04        17.24398
539.47        17.19148
539.91        17.19876
540.35         17.2748
540.79        17.40655
541.22        17.55121
541.66         17.6143
542.10        17.62665
542.54        17.57574
542.97        17.52114
543.41        17.54453
543.85        17.65844
544.29        17.83797
544.72        18.03223
545.16        18.17108
545.60        18.23572
546.04        18.24764
546.47        18.24917
546.91        18.31262
547.35        18.45332
547.79        18.63964
548.22        18.81842
548.66        18.95192
549.10        19.02967
549.53        18.98296
549.97        19.02054
550.41        19.08324
550.84        19.23476
551.28        19.45219
551.72        19.69246
552.15          19.867
552.59        19.96489
553.03        20.03649
553.46         20.0945
553.90        20.17013
554.34        20.27318
554.77        20.36082
555.21        20.40841
555.65        20.60051
556.08         20.5465
556.52        20.58132
556.96        20.60223
557.39        20.65006
557.83        20.73512
558.27        20.81486
558.70        20.88844
559.14        21.05691
559.57        21.12491
560.01        21.27603
560.45        21.40133
560.88        21.40275
561.32        21.32296
561.75        21.19448
562.19         21.0968
562.63        21.24172
563.06        21.54518
563.50        21.54656
563.93        21.28882
564.37        21.25635
564.80        21.45302
565.24        21.61547
565.68        21.70971
566.11        21.80987
566.55        21.91669
566.98        21.99988
567.42        22.09168
567.85        22.22732
568.29        22.41525
568.72         22.6277
569.16        22.85404
569.60        23.00587
570.03        23.05826
570.47        23.14368
570.90        23.26727
571.34        23.11639
571.77        23.28339
572.21        23.30762
572.64        23.40306
573.08        23.44719
573.51         23.8965
573.95        24.10972
574.38        23.81574
574.82         24.0807
