SpectraSmart Spectrum 2.9.0.0
--------- Device Information -----------
Spectrum Name :  反射率_0
Saving Time :  2024/05/01 16:56:01
Spectro-Module Model Name : SE2030-DUVN
Spectro-Module Serial Number : OS361AC55029948
Wavelength Start : 200
Wavelength End : 1025
Wavelength Unit : Wavelength(nm)
Spectrum Unit : Reflectance(%)
-----------Spectrum Setting ------------
Integration Time : 20ms
Average : 10
Boxcar : 0
Background removal :  enabled
linearity correction :  enabled
SC :  disabled
Intensity correction :  disabled
DWT denoise :  enabled
savitzky-golay :  disabled
FFT :  disabled
Running average :  disabled
Kalman :  disabled
High pass :  disabled
---------------BEGIN--------------------
Wavelength(nm)             Reflectance(%)
200.29               0
200.75        114.4629
201.21         502.211
201.67       -211.9517
202.13       -70.21404
202.58       -20.29145
203.04        11.25328
203.50        30.42866
203.96        36.07561
204.42        28.12564
204.88       -12.46655
205.34       -1056.285
205.80         185.506
206.26        94.80735
206.72        2.032495
207.18       -375.3903
207.64        640.1592
208.10        259.2252
208.55        154.3138
209.01        98.14201
209.47         69.0444
209.93        56.26611
210.39        49.09571
210.85        46.85376
211.31         52.5164
211.77         83.8026
212.23       -205.9273
212.69        -30.3542
213.14       -8.707376
213.60        21.05565
214.06        -240.362
214.52       -55.31131
214.98       -40.90946
215.44       -33.84372
215.90       -23.50313
216.36        133.9322
216.81        -138.926
217.27       -239.8244
217.73        571.8721
218.19        120.7756
218.65         75.7166
219.11        60.07378
219.57        44.30169
220.02       -32.26969
220.48       -45.71452
220.94       -5.639307
221.40         9.10125
221.86        17.45875
222.32        25.58178
222.77        36.43953
223.23        53.05436
223.69        74.02631
224.15        83.21798
224.61        74.71973
225.06        59.91019
225.52        49.65371
225.98        47.92999
226.44        53.74072
226.90        66.52412
227.36        83.86212
227.81        92.77063
228.27        87.83628
228.73        77.22619
229.19        68.70506
229.65        66.72964
230.10        70.76884
230.56        79.56644
231.02        90.89574
231.48        97.38849
231.93        95.42072
232.39        89.20987
232.85        82.38573
233.31        78.11301
233.77        76.57575
234.22        76.38284
234.68        77.07381
235.14         78.2589
235.60        79.88447
236.05         82.6788
236.51        86.62164
236.97        90.74614
237.43        93.41509
237.88        93.69135
238.34        91.77457
238.80        89.71832
239.26        87.89493
239.71        86.08997
240.17        82.25626
240.63        73.41119
241.08        60.81302
241.54        49.44373
242.00         43.2091
242.46        42.63717
242.91        47.55638
243.37        59.04827
243.83        80.13953
244.28        99.70676
244.74        99.39848
245.20        88.41261
245.66        76.44781
246.11        65.23914
246.57        52.11855
247.03        32.43911
247.48       0.4841197
247.94       -38.98893
248.40       -67.64523
248.85       -79.50306
249.31       -69.08431
249.77       -41.95145
250.22       -11.73531
250.68        14.97216
251.14        34.06564
251.59        44.65839
252.05        49.40934
252.51        49.22791
252.96        41.74835
253.42        33.03439
253.88        42.19775
254.33        57.12011
254.79         64.0862
255.25        65.24547
255.70        64.26569
256.16         63.5945
256.62        64.11925
257.07         66.3609
257.53        69.85088
257.99        73.29588
258.44        75.86803
258.90          77.533
259.35         78.0827
259.81        78.26194
260.27         78.0611
260.72        77.53234
261.18        77.11046
261.63        76.43048
262.09        75.92346
262.55        75.54497
263.00        75.13762
263.46        74.88219
263.91        74.45159
264.37         73.8959
264.83        73.13813
265.28        72.22723
265.74        71.36888
266.19        70.46896
266.65        69.68211
267.11        68.90655
267.56        68.24414
268.02        67.98192
268.47        68.06789
268.93        68.37959
269.38        68.61983
269.84        68.26817
270.30        67.24164
270.75        65.69853
271.21        63.96262
271.66        62.37629
272.12        61.12642
272.57        60.03952
273.03        59.12727
273.48        58.30636
273.94        57.58516
274.39        56.95026
274.85        56.35489
275.31        55.58974
275.76        54.62355
276.22        53.60596
276.67        52.59057
277.13        51.84553
277.58        51.30032
278.04        50.90509
278.49        50.52587
278.95        50.13659
279.40        49.62638
279.86        49.09007
280.31        48.39033
280.77        47.49183
281.22        46.35585
281.68        45.13793
282.13        43.92136
282.59        42.96281
283.04        42.25412
283.50        41.78244
283.95        41.45731
284.41        41.22253
284.86         41.0092
285.32        40.85273
285.77        40.70949
286.22         40.5881
286.68        40.47581
287.13        40.32691
287.59        40.11535
288.04        39.76621
288.50        39.32007
288.95        38.76575
289.41        38.23246
289.86        37.78411
290.32        37.47607
290.77        37.27123
291.22        37.10881
291.68        36.87521
292.13        36.55014
292.59        36.20955
293.04        35.93169
293.50        35.89962
293.95         36.1173
294.40        36.51711
294.86        37.00072
295.31        37.42455
295.77        37.73389
296.22        37.96193
296.68        38.11074
297.13        38.15802
297.58        38.14241
298.04        38.09584
298.49        38.08727
298.95        38.27563
299.40        38.65861
299.85        39.17091
300.31        39.75272
300.76        40.29609
301.21        40.76249
301.67         41.1875
302.12        41.47667
302.58        41.52668
303.03        41.32848
303.48         40.9588
303.94        40.63182
304.39        40.57883
304.84        40.86457
305.30        41.39677
305.75        42.00189
306.20        42.43143
306.66        42.61794
307.11        42.60564
307.57        42.48577
308.02        42.33025
308.47        42.19006
308.93        42.04583
309.38        41.86573
309.83        41.66445
310.29          41.459
310.74        41.26157
311.19        41.09457
311.65        40.96638
312.10         40.8714
312.55        40.80492
313.00        40.77312
313.46        40.78734
313.91        40.82792
314.36        40.87224
314.82        40.87184
315.27         40.7691
315.72        40.54404
316.18        40.22848
316.63        39.83802
317.08        39.40769
317.53        38.96177
317.99        38.51075
318.44        38.08535
318.89        37.74587
319.35        37.51072
319.80        37.36439
320.25        37.28767
320.70        37.23959
321.16        37.18895
321.61        37.14563
322.06        37.07382
322.51        36.92664
322.97        36.69013
323.42        36.38667
323.87        36.05672
324.32        35.78756
324.78        35.59887
325.23        35.48137
325.68        35.39463
326.13        35.27586
326.59        35.09616
327.04        34.89283
327.49        34.66625
327.94        34.42909
328.39         34.1897
328.85        33.92789
329.30        33.68285
329.75        33.48324
330.20        33.33606
330.66        33.22825
331.11        33.13838
331.56        32.98708
332.01         32.7598
332.46        32.48013
332.92        32.18584
333.37        31.97779
333.82        31.87351
334.27        31.85771
334.72        31.89902
335.17        31.94251
335.63        31.95228
336.08        31.94743
336.53         31.9449
336.98        31.99046
337.43        32.08717
337.88        32.22028
338.34        32.30276
338.79        32.21789
339.24        31.94194
339.69        31.52051
340.14        31.09872
340.59        30.90422
341.05        30.97615
341.50        31.25009
341.95        31.57645
342.40        31.70856
342.85        31.58723
343.30        31.30612
343.75        30.97058
344.20        30.74192
344.66        30.67433
345.11        30.70084
345.56        30.81561
346.01        31.00747
346.46        31.24335
346.91        31.51758
347.36         31.7487
347.81        31.81137
348.26        31.68859
348.72         31.4253
349.17         31.0865
349.62        30.82484
350.07        30.68064
350.52        30.60934
350.97        30.57525
351.42        30.51101
351.87        30.40157
352.32        30.29588
352.77        30.17282
353.22        29.99569
353.67        29.76856
354.13        29.49232
354.58        29.25631
355.03        29.24113
355.48        29.46435
355.93        29.88334
356.38        30.29249
356.83        30.34579
357.28        29.98405
357.73        29.32907
358.18        28.65761
358.63        28.38236
359.08        28.57705
359.53        29.09849
359.98        29.71539
360.43         30.0327
360.88        29.93412
361.33        29.56122
361.78        29.05333
362.23         28.6118
362.68         28.3035
363.13        28.05211
363.58        27.86337
364.03        27.75961
364.48        27.72372
364.93        27.75812
365.38        27.77787
365.83          27.635
366.28        27.30689
366.73        26.84207
367.18        26.33306
367.63        25.94377
368.08        25.72902
368.53        25.64152
368.98        25.64013
369.43        25.65938
369.88         25.6619
370.33        25.65452
370.78        25.61447
371.23        25.50263
371.68        25.31519
372.13        25.06974
372.58        24.77868
373.03        24.46173
373.48        24.13662
373.93        23.80656
374.38        23.53208
374.83        23.40886
375.28        23.44736
375.72        23.60869
376.17        23.79493
376.62        23.84851
377.07        23.73104
377.52        23.48312
377.97        23.17756
378.42        22.93382
378.87        22.78829
379.32        22.71039
379.77        22.65671
380.22         22.5598
380.67          22.406
381.11        22.22544
381.56        22.06096
382.01         21.9838
382.46        22.00626
382.91        22.09528
383.36        22.19128
383.81        22.20932
384.26        22.12387
384.71        21.95388
385.15        21.73683
385.60        21.55239
386.05        21.41875
386.50        21.32794
386.95        21.24232
387.40        21.10344
387.85        20.91199
388.29        20.68081
388.74        20.51027
389.19        20.47731
389.64        20.58347
390.09        20.77835
390.54        20.98016
390.98        21.05717
391.43        20.98499
391.88        20.81557
392.33        20.59154
392.78        20.38091
393.23        20.21244
393.67        20.03803
394.12        19.90438
394.57        19.89969
395.02        19.99397
395.47         20.0375
395.91        20.02657
396.36        20.06036
396.81        20.14014
397.26        20.20049
397.71        20.21123
398.15        20.18046
398.60        20.13435
399.05        19.98615
399.50           19.82
399.95        19.90271
400.39        20.18246
400.84        20.27556
401.29         20.1336
401.74        20.00082
402.18        19.87786
402.63        19.59165
403.08        19.23869
403.53        19.05513
403.97        19.07065
404.42        19.21746
404.87        19.40304
405.32        19.48059
405.76        19.40738
406.21        19.23787
406.66        19.03621
407.11         18.9031
407.55        18.87236
408.00        18.91239
408.45        18.97874
408.90        18.97098
409.34        18.87715
409.79         18.7745
410.24        18.69816
410.68        18.65133
411.13        18.64624
411.58        18.69207
412.03        18.75143
412.47        18.75186
412.92        18.67513
413.37        18.54853
413.81        18.42121
414.26        18.38165
414.71        18.43809
415.15        18.56907
415.60        18.70748
416.05        18.76071
416.49        18.70279
416.94        18.56267
417.39        18.39705
417.83        18.29458
418.28        18.28021
418.73        18.32619
419.17        18.39384
419.62        18.41504
420.07        18.37806
420.51        18.30632
420.96        18.24168
421.41         18.2199
421.85        18.24303
422.30        18.29953
422.74        18.37232
423.19        18.45764
423.64        18.54349
424.08         18.6409
424.53        18.70746
424.98        18.69908
425.42        18.61415
425.87        18.47237
426.31        18.32083
426.76        18.24444
427.21        18.25428
427.65        18.31892
428.10        18.42069
428.54        18.52468
428.99         18.6164
429.44        18.73114
429.88        18.79614
430.33        18.71171
430.77        18.48409
431.22        18.17468
431.66        17.88894
432.11        17.84889
432.56        18.03096
433.00        18.22002
433.45        18.27619
433.89        18.18072
434.34        17.83046
434.78        17.81861
435.23        18.26503
435.67        18.43863
436.12        18.36761
436.57        18.40712
437.01        18.55671
437.46        18.59875
437.90        18.51871
438.35        18.40906
438.79        18.29841
439.24        18.18243
439.68        18.10616
440.13        18.19725
440.57        18.38682
441.02        18.46955
441.46        18.41989
441.91        18.25645
442.35        18.05625
442.80        18.16158
443.24         18.4742
443.69        18.44277
444.13        18.10407
444.58        17.99114
445.02        18.10911
445.47         18.1705
445.91         18.1655
446.36        18.21965
446.80        18.32623
447.24        18.44562
447.69        18.55418
448.13        18.61685
448.58        18.62577
449.02        18.58849
449.47        18.52782
449.91        18.46526
450.36        18.41716
450.80        18.37733
451.25        18.34026
451.69        18.28401
452.13        18.20826
452.58        18.12325
453.02        18.04626
453.47        18.01412
453.91        18.02953
454.36        18.08766
454.80        18.15072
455.24        18.15718
455.69        18.10105
456.13        17.99032
456.58        17.88937
457.02        17.87235
457.46        17.95474
457.91        18.10702
458.35        18.26012
458.79        18.27823
459.24        18.14909
459.68        17.96912
460.13        17.83466
460.57        17.52976
461.01        17.58933
461.46        17.59725
461.90        17.68133
462.34        17.72559
462.79        17.81026
463.23        17.86525
463.68        17.91978
464.12        17.97567
464.56        18.03115
465.01        18.10326
465.45        18.14328
465.89        18.11466
466.34         18.0214
466.78        17.87006
467.22        17.71182
467.67        17.66702
468.11        17.68521
468.55        17.80541
468.99        17.95099
469.44        18.03549
469.88        18.03985
470.32        17.98431
470.77        17.91061
471.21        17.88475
471.65        17.92399
472.10        18.00875
472.54        18.09789
472.98        18.14057
473.42        18.12674
473.87        18.08232
474.31        18.03073
474.75         18.0256
475.20        18.08103
475.64        18.16555
476.08        18.24627
476.52        18.31939
476.97        18.38278
477.41        18.35467
477.85        18.21968
478.29        18.46631
478.74        18.30873
479.18        18.34806
479.62        18.35347
480.06        18.44619
480.50         18.6315
480.95        18.53763
481.39         18.7808
481.83        18.80908
482.27        18.81605
482.72        18.81317
483.16        18.81019
483.60        18.84289
484.04        18.89898
484.48        18.90682
484.93        18.98154
485.37        19.19202
485.81        19.40057
486.25        19.80067
486.69        19.24067
487.14        18.69939
487.58         18.9409
488.02        19.48114
488.46        19.33316
488.90        19.56872
489.34        19.54457
489.79        19.61674
490.23        19.87522
490.67        20.16143
491.11        20.45761
491.55        20.46317
491.99         20.2427
492.43        20.20283
492.88        20.37784
493.32         20.5171
493.76        20.60341
494.20          20.745
494.64        20.94251
495.08        21.14525
495.52        21.32352
495.96        21.50309
496.41        21.65388
496.85        21.61155
497.29        21.46017
497.73         21.5782
498.17         21.9377
498.61        22.11225
499.05        22.08718
499.49        22.17396
499.93        22.37159
500.37        22.49276
500.82         22.5434
501.26        22.62072
501.70        22.73164
502.14        22.85031
502.58        22.95537
503.02        23.01548
503.46        23.02861
503.90        23.01098
504.34        23.00354
504.78        23.06762
505.22        23.21538
505.66        23.42738
506.10         23.6522
506.54        23.80459
506.98        23.86098
507.42        23.84471
507.86        23.79976
508.30        23.79614
508.74        23.85317
509.18        23.95095
509.62         24.0596
510.06         24.1296
510.50        24.14935
510.94        24.13987
511.38        24.12763
511.82         24.1525
512.26        24.22207
512.70        24.31496
513.14        24.41356
513.58        24.49304
514.02        24.54275
514.46        24.57243
514.90        24.57276
515.34        24.52857
515.78        24.44506
516.22        24.33106
516.66        24.22267
517.10        24.17546
517.54        24.20112
517.98        24.28557
518.42        24.39431
518.86        24.46719
519.30        24.48613
519.74        24.46607
520.18        24.42911
520.62        24.41247
521.06        24.42422
521.50         24.4471
521.93        24.46685
522.37        24.45765
522.81        24.41575
523.25        24.35471
523.69         24.2802
524.13        24.19766
524.57         24.1152
525.01        24.03495
525.45         23.9705
525.89        23.94328
526.32        23.95385
526.76        23.98957
527.20        24.03454
527.64        24.06241
528.08        24.06307
528.52        24.04556
528.96        24.00313
529.40        23.92661
529.83        23.81887
530.27        23.69107
530.71        23.57351
531.15        23.52058
531.59        23.53996
532.03        23.61134
532.46        23.69293
532.90        23.72122
533.34        23.68076
533.78        23.57632
534.22        23.43395
534.66        23.33323
535.09        23.26712
535.53         23.1443
535.97          22.991
536.41        22.93237
536.85        22.97629
537.28        23.06148
537.72        23.15897
538.16        23.24339
538.60        23.29918
539.04        23.33153
539.47        23.34627
539.91        23.36881
540.35        23.40097
540.79        23.44579
541.22        23.50603
541.66         23.5517
542.10        23.64346
542.54        23.73473
542.97        23.83744
543.41        23.95411
543.85        24.07887
544.29        24.21157
544.72        24.34754
545.16         24.4928
545.60         24.6422
546.04        24.78875
546.47        24.93239
546.91        25.07789
547.35         25.2247
547.79        25.36763
548.22        25.47958
548.66        25.57397
549.10        25.65542
549.53        25.61056
549.97        25.70604
550.41        25.84142
550.84        26.09091
551.28        26.42867
551.72        26.79226
552.15        27.05173
552.59        27.19197
553.03         27.2849
553.46        27.34812
553.90        27.42761
554.34        27.54031
554.77        27.62522
555.21        27.66736
555.65        27.94581
556.08        27.92959
556.52        28.06081
556.96        28.16132
557.39        28.22796
557.83        28.26736
558.27        28.24483
558.70        28.19862
559.14        28.32924
559.57        28.39472
560.01        28.62284
560.45         28.8514
560.88        28.92239
561.32        28.87948
561.75        28.77091
562.19        28.69766
562.63        28.93525
563.06        29.36792
563.50        29.36901
563.93         29.0035
564.37        28.94361
564.80        29.19967
565.24        29.40961
565.68        29.53207
566.11        29.67449
566.55        29.83608
566.98        29.97083
567.42        30.10989
567.85        30.27909
568.29        30.49206
568.72        30.71597
569.16        30.95098
569.60        31.09801
570.03         31.1285
570.47        31.13872
570.90        31.43056
571.34        31.03595
571.77        31.40901
572.21        31.50892
572.64        31.75795
573.08        31.75171
573.51        32.12044
573.95        32.51811
574.38        32.15737
574.82        32.53134
