SpectraSmart Spectrum 2.9.0.0
--------- Device Information -----------
Spectrum Name :  反射率_0
Saving Time :  2024/05/01 16:58:26
Spectro-Module Model Name : SE2030-DUVN
Spectro-Module Serial Number : OS361AC55029948
Wavelength Start : 200
Wavelength End : 1025
Wavelength Unit : Wavelength(nm)
Spectrum Unit : Reflectance(%)
-----------Spectrum Setting ------------
Integration Time : 20ms
Average : 10
Boxcar : 0
Background removal :  enabled
linearity correction :  enabled
SC :  disabled
Intensity correction :  disabled
DWT denoise :  enabled
savitzky-golay :  disabled
FFT :  disabled
Running average :  disabled
Kalman :  disabled
High pass :  disabled
---------------BEGIN--------------------
Wavelength(nm)             Reflectance(%)
200.29               0
200.75        224.0993
201.21        934.8854
201.67       -391.8053
202.13       -147.6364
202.58       -72.10562
203.04       -29.74052
203.50       -4.845637
203.96        4.929716
204.42        1.652773
204.88       -27.61478
205.34        -882.559
205.80        162.1332
206.26        119.4261
206.72        121.2756
207.18        210.3994
207.64       -77.68136
208.10         15.6957
208.55        36.10962
209.01        44.16731
209.47         47.9267
209.93        49.14241
210.39        47.96693
210.85        44.72812
211.31        38.08007
211.77         14.4479
212.23        198.5455
212.69        93.38209
213.14        104.8667
213.60        183.9388
214.06       -715.6262
214.52       -95.17365
214.98       -57.42221
215.44       -55.42146
215.90       -84.24426
216.36       -598.1294
216.81        177.7977
217.27         174.364
217.73       -271.9596
218.19       -45.00787
218.65       -33.77355
219.11       -50.41887
219.57       -121.4353
220.02        -429.608
220.48       -231.8143
220.94       -68.36079
221.40       -25.26924
221.86       -10.15369
222.32       -5.106245
222.77       -4.160813
223.23       -5.559851
223.69       -7.557478
224.15        -5.81558
224.61      -0.4688537
225.06        4.692717
225.52        8.303374
225.98         10.6188
226.44        12.35372
226.90        14.03563
227.36        15.59378
227.81        16.11683
228.27        15.35655
228.73        14.03557
229.19        12.94331
229.65        12.42373
230.10        12.43849
230.56        13.24983
231.02        14.67369
231.48        16.02115
231.93        16.77791
232.39        16.92748
232.85        17.38687
233.31        19.20817
233.77         22.1237
234.22        25.66275
234.68        28.61039
235.14        29.67065
235.60        28.63305
236.05        25.37749
236.51        20.59177
236.97        18.00507
237.43        20.63415
237.88        28.02647
238.34        36.22153
238.80        40.29332
239.26        38.75882
239.71        30.98111
240.17        15.42466
240.63       -2.726738
241.08       -12.88906
241.54       -12.31527
242.00       -6.334841
242.46       -1.656081
242.91        1.118418
243.37         3.17125
243.83        10.09753
244.28        31.95722
244.74        55.45811
245.20        68.20517
245.66        70.93109
246.11        66.13998
246.57        54.37678
247.03        32.17878
247.48       -6.260478
247.94       -52.54922
248.40       -83.18764
248.85       -92.98339
249.31       -78.52779
249.77       -48.48135
250.22       -17.17203
250.68        10.00833
251.14        28.92459
251.59        38.17639
252.05        39.86248
252.51        32.71012
252.96        8.037472
253.42       -29.36435
253.88        -26.2569
254.33        8.157061
254.79        29.60876
255.25        37.34413
255.70          39.123
256.16        39.60288
256.62        40.21971
257.07        41.70005
257.53         43.8807
257.99         45.9038
258.44        47.36671
258.90        48.33509
259.35         48.6624
259.81         48.7893
260.27        48.64339
260.72        48.16935
261.18        47.66213
261.63        46.93666
262.09        46.27741
262.55        45.68126
263.00        45.06015
263.46        44.49785
263.91        43.83116
264.37        43.10299
264.83        42.28287
265.28        41.42126
265.74        40.59481
266.19        39.68037
266.65        38.78876
267.11        37.88944
267.56        37.15321
268.02        36.93413
268.47        37.21824
268.93        37.84146
269.38        38.49331
269.84        38.61628
270.30        38.09263
270.75        37.07085
271.21        35.81804
271.66        34.63581
272.12        33.69207
272.57        32.85517
273.03        32.14517
273.48        31.53628
273.94        31.03652
274.39        30.65786
274.85         30.3494
275.31        29.96713
275.76        29.47538
276.22        28.93318
276.67        28.38773
277.13         28.0067
277.58        27.75333
278.04        27.61526
278.49        27.44799
278.95        27.14718
279.40        26.65611
279.86        26.06483
280.31        25.45544
280.77        25.02142
281.22        24.74373
281.68        24.60877
282.13        24.45613
282.59        24.13805
283.04        23.61422
283.50        22.98908
283.95        22.39366
284.41        22.07713
284.86        22.06694
285.32        22.27697
285.77        22.56403
286.22        22.75846
286.68        22.81949
287.13        22.78531
287.59         22.7005
288.04         22.5938
288.50        22.51447
288.95        22.41395
289.41        22.34871
289.86        22.33835
290.32        22.40624
290.77        22.54209
291.22        22.70656
291.68        22.82589
292.13        22.88901
292.59        22.94797
293.04        23.04131
293.50        23.28002
293.95        23.66502
294.40        24.16094
294.86        24.72357
295.31        25.29632
295.77        25.84319
296.22         26.3705
296.68        26.84963
297.13        27.22673
297.58        27.51732
298.04        27.75864
298.49        28.00542
298.95         28.3826
299.40         28.8926
299.85        29.48786
300.31        30.13146
300.76        30.76396
301.21        31.36305
301.67        31.95737
302.12        32.46859
302.58        32.80374
303.03         32.9396
303.48        32.92522
303.94        32.92526
304.39          33.123
304.84        33.56837
305.30        34.18687
305.75        34.82282
306.20        35.25047
306.66        35.41919
307.11        35.38345
307.57         35.2541
308.02        35.14094
308.47        35.09916
308.93        35.10064
309.38        35.09784
309.83        35.07189
310.29        35.02102
310.74        34.95579
311.19         34.8954
311.65        34.84829
312.10        34.81028
312.55        34.77773
313.00        34.74619
313.46         34.7117
313.91        34.66345
314.36        34.59564
314.82         34.5051
315.27        34.40173
315.72        34.27946
316.18        34.14297
316.63        33.96505
317.08        33.71278
317.53        33.38518
317.99        33.00021
318.44        32.59871
318.89        32.26286
319.35         32.0191
319.80        31.84965
320.25         31.7181
320.70        31.55709
321.16        31.34191
321.61        31.10001
322.06        30.85595
322.51        30.65473
322.97        30.50194
323.42        30.38994
323.87        30.28903
324.32        30.16366
324.78        29.99842
325.23        29.81687
325.68        29.62811
326.13        29.45358
326.59        29.29034
327.04        29.13927
327.49        28.98499
327.94        28.81572
328.39        28.62349
328.85          28.401
329.30        28.16013
329.75        27.88799
330.20        27.58941
330.66        27.26942
331.11        26.95131
331.56        26.63965
332.01        26.34728
332.46        26.08121
332.92        25.85353
333.37        25.71134
333.82        25.64816
334.27        25.65111
334.72        25.69115
335.17        25.71797
335.63        25.69975
336.08         25.6566
336.53        25.58383
336.98        25.49367
337.43        25.39262
337.88        25.27759
338.34        25.14884
338.79        25.02516
339.24        24.90821
339.69        24.80083
340.14        24.71266
340.59        24.65485
341.05        24.61591
341.50        24.58937
341.95        24.55599
342.40        24.48593
342.85        24.37595
343.30        24.25241
343.75        24.11006
344.20        23.93808
344.66        23.75031
345.11        23.54177
345.56        23.39527
346.01        23.43991
346.46        23.68157
346.91        24.06246
347.36        24.43563
347.81        24.58151
348.26        24.45602
348.72        24.13566
349.17        23.72034
349.62         23.4122
350.07        23.26947
350.52        23.23346
350.97        23.24752
351.42        23.21412
351.87         23.1104
352.32        22.99346
352.77        22.87185
353.22        22.75209
353.67         22.6401
354.13        22.51546
354.58         22.4188
355.03         22.4529
355.48        22.62033
355.93        22.90011
356.38        23.14324
356.83         23.0996
357.28        22.73739
357.73        22.15494
358.18        21.57494
358.63        21.32594
359.08        21.46836
359.53        21.89146
359.98        22.41883
360.43        22.74552
360.88        22.77155
361.33        22.59344
361.78        22.30105
362.23        22.02771
362.68        21.82085
363.13        21.63103
363.58        21.46276
364.03        21.33579
364.48        21.24534
364.93        21.19465
365.38         21.1487
365.83        21.03981
366.28        20.85426
366.73        20.61379
367.18        20.34174
367.63        20.08361
368.08        19.86317
368.53        19.67148
368.98        19.52151
369.43        19.42857
369.88         19.3861
370.33        19.38775
370.78        19.39922
371.23         19.3597
371.68        19.25314
372.13        19.09582
372.58        18.91789
373.03        18.76643
373.48         18.6537
373.93        18.56535
374.38        18.49063
374.83        18.41362
375.28        18.32778
375.72        18.23736
376.17        18.14507
376.62        18.04906
377.07         17.9491
377.52        17.84568
377.97        17.73442
378.42        17.61015
378.87        17.47687
379.32        17.34111
379.77        17.21881
380.22        17.13248
380.67        17.08514
381.11        17.07093
381.56        17.07261
382.01        17.06604
382.46        17.04488
382.91        17.01762
383.36         16.9839
383.81        16.94736
384.26        16.90441
384.71        16.83852
385.15        16.76148
385.60        16.71078
386.05        16.68397
386.50         16.6854
386.95        16.65581
387.40        16.50319
387.85        16.23204
388.29        15.87185
388.74        15.56814
389.19        15.47262
389.64        15.60189
390.09        15.89019
390.54        16.21384
390.98        16.37128
391.43        16.31679
391.88        16.12302
392.33        15.87241
392.78         15.6893
393.23         15.6053
393.67        15.55053
394.12        15.52355
394.57          15.538
395.02        15.55889
395.47        15.49456
395.91          15.366
396.36        15.28271
396.81        15.26138
397.26        15.24093
397.71         15.2078
398.15        15.18102
398.60        15.17554
399.05        15.12109
399.50        15.04951
399.95        15.11648
400.39        15.27594
400.84        15.24988
401.29        15.03897
401.74        14.89179
402.18        14.82487
402.63        14.68644
403.08        14.51824
403.53        14.45148
403.97        14.49329
404.42        14.60726
404.87        14.72429
405.32        14.73302
405.76        14.60932
406.21        14.39869
406.66        14.17194
407.11        14.04276
407.55        14.04403
408.00        14.14026
408.45        14.28053
408.90        14.35388
409.34        14.33482
409.79        14.28831
410.24        14.23508
410.68        14.17049
411.13        14.10619
411.58        14.04764
412.03        13.99191
412.47        13.93182
412.92        13.86737
413.37        13.80938
413.81        13.75926
414.26        13.72717
414.71        13.70824
415.15        13.70378
415.60        13.69887
416.05        13.68652
416.49        13.66295
416.94        13.62912
417.39        13.59121
417.83        13.55961
418.28        13.53771
418.73        13.52186
419.17        13.50743
419.62        13.47946
420.07        13.44048
420.51        13.39359
420.96        13.35774
421.41        13.33989
421.85        13.33707
422.30        13.35057
422.74          13.374
423.19        13.41063
423.64        13.45389
424.08        13.50738
424.53        13.54058
424.98        13.52558
425.42        13.46113
425.87        13.36441
426.31         13.2584
426.76         13.1902
427.21        13.16521
427.65        13.16545
428.10        13.19864
428.54        13.27387
428.99        13.38354
429.44        13.54108
429.88        13.66539
430.33        13.64176
430.77        13.46527
431.22        13.19164
431.66        12.92288
432.11        12.84676
432.56        12.95262
433.00        13.13493
433.45        13.25885
433.89        13.10878
434.34        12.67519
434.78        12.68925
435.23        13.20806
435.67        13.41696
436.12        13.31307
436.57        13.32604
437.01        13.45632
437.46        13.47011
437.90        13.35842
438.35         13.2118
438.79        13.06958
439.24        12.95785
439.68        12.91523
440.13        13.02065
440.57         13.2077
441.02         13.3074
441.46        13.29367
441.91        13.16105
442.35        12.97911
442.80        13.07103
443.24        13.34275
443.69        13.26043
444.13        12.88536
444.58        12.76348
445.02        12.90646
445.47        13.02891
445.91        13.09359
446.36        13.17685
446.80        13.26432
447.24        13.33093
447.69        13.38201
448.13        13.42984
448.58        13.47568
449.02        13.51237
449.47        13.53465
449.91        13.52443
450.36        13.48568
450.80        13.42524
451.25        13.35677
451.69        13.29074
452.13        13.23415
452.58        13.18719
453.02        13.14839
453.47        13.12406
453.91        13.11186
454.36        13.11552
454.80        13.12254
455.24        13.10889
455.69          13.074
456.13        13.01531
456.58        12.96546
457.02        12.95673
457.46         12.9969
457.91        13.07339
458.35        13.14609
458.79        13.13183
459.24        13.02747
459.68        12.89457
460.13        12.80281
460.57        12.59499
461.01        12.65364
461.46         12.6781
461.90         12.7525
462.34        12.77715
462.79        12.80741
463.23        12.79728
463.68        12.78093
464.12        12.78115
464.56        12.80483
465.01        12.85894
465.45        12.90029
465.89        12.88746
466.34        12.82109
466.78        12.70949
467.22        12.59785
467.67        12.58581
468.11        12.63824
468.55        12.77712
468.99        12.93514
469.44         13.0329
469.88         13.0531
470.32        13.01308
470.77        12.95167
471.21        12.92959
471.65        12.96278
472.10          13.031
472.54        13.09879
472.98         13.1207
473.42        13.08963
473.87        13.03411
474.31        12.97139
474.75        12.93987
475.20         12.9534
475.64        12.98874
476.08        13.04038
476.52        13.13339
476.97        13.26736
477.41        13.37351
477.85        13.40289
478.29        13.65823
478.74        13.54614
479.18        13.52476
479.62        13.45997
480.06        13.50058
480.50        13.66426
480.95        13.65903
481.39        13.90751
481.83        13.95542
482.27        13.93619
482.72        13.87437
483.16        13.80912
483.60        13.82446
484.04        13.92604
484.48        14.03773
484.93        14.20771
485.37        14.46629
485.81        14.65339
486.25        14.93338
486.69        14.28984
487.14        13.93273
487.58         14.3624
488.02        15.06109
488.46        14.62063
488.90        15.12257
489.34        15.01132
489.79        15.05765
490.23        15.23212
490.67        15.45472
491.11        15.76427
491.55        15.87191
491.99        15.81064
492.43        15.85385
492.88        16.01294
493.32        16.10019
493.76        16.13093
494.20        16.24121
494.64        16.44423
495.08        16.68234
495.52        16.91351
495.96        17.13242
496.41        17.30636
496.85        17.30463
497.29        17.20211
497.73        17.33591
498.17        17.67927
498.61        17.83383
499.05        17.79965
499.49        17.89482
499.93        18.12344
500.37        18.30031
500.82        18.41463
501.26         18.5323
501.70        18.65285
502.14        18.75878
502.58        18.84235
503.02        18.89377
503.46        18.91729
503.90        18.92291
504.34         18.9412
504.78        19.01771
505.22        19.15949
505.66        19.35015
506.10        19.54993
506.54        19.69207
506.98        19.75646
507.42        19.76181
507.86        19.73332
508.30         19.7112
508.74        19.71257
509.18        19.73108
509.62        19.76459
510.06        19.80927
510.50         19.8634
510.94        19.92879
511.38        20.01066
511.82        20.11469
512.26        20.23429
512.70        20.35825
513.14        20.46181
513.58         20.5097
514.02         20.4962
514.46        20.43566
514.90        20.34969
515.34        20.27439
515.78        20.22562
516.22         20.1976
516.66        20.19361
517.10        20.21583
517.54        20.25983
517.98        20.32379
518.42        20.39079
518.86        20.43132
519.30        20.43668
519.74        20.41182
520.18        20.36668
520.62        20.32073
521.06        20.27963
521.50        20.23635
521.93        20.19292
522.37        20.14726
522.81        20.10247
523.25        20.06608
523.69        20.02918
524.13        19.97481
524.57        19.90378
525.01        19.82101
525.45        19.75254
525.89        19.74023
526.32         19.7867
526.76        19.87122
527.20        19.95622
527.64        19.98083
528.08        19.93109
528.52        19.83158
528.96        19.70416
529.40        19.58353
529.83        19.48215
530.27        19.39308
530.71        19.32946
531.15        19.31702
531.59        19.35293
532.03        19.42792
532.46        19.49549
532.90        19.48318
533.34        19.37971
533.78        19.19545
534.22        18.98248
534.66        18.85305
535.09        18.80895
535.53        18.76215
535.97        18.70181
536.41        18.67744
536.85        18.68432
537.28        18.69195
537.72        18.70015
538.16        18.72669
538.60        18.76967
539.04        18.81703
539.47        18.86734
539.91          18.933
540.35        19.00937
540.79        19.10447
541.22        19.20461
541.66        19.25762
542.10         19.3121
542.54        19.33866
542.97        19.37907
543.41        19.48769
543.85         19.6676
544.29        19.89931
544.72        20.14629
545.16        20.36182
545.60        20.52897
546.04        20.65991
546.47        20.76959
546.91        20.88706
547.35        21.02222
547.79        21.16147
548.22        21.28735
548.66        21.42061
549.10         21.5636
549.53        21.61798
549.97         21.7912
550.41        21.96709
550.84        22.20123
551.28        22.48138
551.72        22.76987
552.15        22.98312
552.59        23.11671
553.03        23.22315
553.46        23.31532
553.90        23.42829
554.34        23.57483
554.77        23.70876
555.21        23.80698
555.65        24.09199
556.08         24.1038
556.52        24.22477
556.96        24.32376
557.39        24.43479
557.83        24.56635
558.27        24.67373
558.70        24.75391
559.14        24.92392
559.57        24.95898
560.01         25.0823
560.45        25.18607
560.88        25.18537
561.32        25.13469
561.75        25.06153
562.19         25.0408
562.63        25.29343
563.06        25.71175
563.50        25.75424
563.93        25.47539
564.37        25.46327
564.80         25.7259
565.24        25.93906
565.68        26.06692
566.11        26.20903
566.55        26.36471
566.98        26.49412
567.42        26.61816
567.85        26.74827
568.29        26.89885
568.72         27.0523
569.16        27.22763
569.60        27.34861
570.03         27.3893
570.47        27.45306
570.90        27.80335
571.34        27.43782
571.77        27.88749
572.21        28.02115
572.64        28.24824
573.08        28.27406
573.51        28.72609
573.95        28.68488
574.38        28.63978
574.82        28.96471
