SpectraSmart Spectrum 2.9.0.0
--------- Device Information -----------
Spectrum Name :  反射率_0
Saving Time :  2024/05/01 16:54:53
Spectro-Module Model Name : SE2030-DUVN
Spectro-Module Serial Number : OS361AC55029948
Wavelength Start : 200
Wavelength End : 1025
Wavelength Unit : Wavelength(nm)
Spectrum Unit : Reflectance(%)
-----------Spectrum Setting ------------
Integration Time : 20ms
Average : 10
Boxcar : 0
Background removal :  enabled
linearity correction :  enabled
SC :  disabled
Intensity correction :  disabled
DWT denoise :  enabled
savitzky-golay :  disabled
FFT :  disabled
Running average :  disabled
Kalman :  disabled
High pass :  disabled
---------------BEGIN--------------------
Wavelength(nm)             Reflectance(%)
200.29               0
200.75        249.0428
201.21        1036.556
201.67       -422.3502
202.13        -146.577
202.58       -57.21511
203.04       -4.816549
203.50        27.34348
203.96        42.33646
204.42        44.53751
204.88        27.72865
205.34       -498.8025
205.80        131.0046
206.26        86.19711
206.72        44.17384
207.18       -117.6115
207.64        309.5613
208.10        146.3463
208.55        100.8068
209.01        77.21812
209.47        67.85202
209.93        67.39992
210.39        70.56599
210.85        75.95359
211.31        83.37613
211.77        100.9961
212.23       -34.92882
212.69        53.56892
213.14        74.61381
213.60        129.2785
214.06       -444.2917
214.52       -46.16584
214.98       -21.05651
215.44       -18.14435
215.90       -29.90006
216.36       -257.3736
216.81        88.26537
217.27        90.83094
217.73       -141.3057
218.19       -18.67439
218.65       -4.351154
219.11        7.375976
219.57        39.84076
220.02         193.922
220.48        140.9221
220.94        59.64994
221.40        35.91427
221.86        28.51779
222.32        29.40023
222.77        35.94394
223.23        48.31237
223.69        65.09008
224.15        72.99957
224.61        66.83019
225.06        55.84262
225.52        48.30424
225.98         47.0942
226.44        51.50396
226.90        60.90418
227.36        73.75483
227.81        81.05737
228.27        78.54387
228.73         71.7767
229.19        65.98114
229.65         64.1139
230.10        65.82095
230.56        70.19178
231.02        76.02898
231.48        79.54163
231.93         78.7812
232.39         76.0813
232.85        73.07011
233.31        71.15687
233.77        70.49525
234.22        70.42422
234.68        70.97751
235.14        72.37085
235.60        74.75092
236.05        78.74482
236.51        84.28569
236.97        89.67738
237.43        92.49098
237.88        91.82214
238.34        88.38799
238.80        84.94311
239.26        81.99541
239.71        79.05341
240.17        74.25676
240.63        65.44055
241.08        54.49004
241.54        45.95862
242.00        42.65778
242.46        44.82114
242.91        52.94175
243.37        69.09737
243.83        96.70903
244.28        120.0475
244.74         117.003
245.20        101.0079
245.66        85.58426
246.11         73.5704
246.57        62.02912
247.03        46.77816
247.48         22.4471
247.94       -10.36244
248.40       -38.72346
248.85        -56.0957
249.31       -51.86347
249.77       -25.66917
250.22         7.56081
250.68        38.32533
251.14        60.37809
251.59         71.5473
252.05        74.15066
252.51        67.55883
252.96        44.21299
253.42        10.34644
253.88        17.04206
254.33        49.78289
254.79         67.7405
255.25        71.07875
255.70         68.1608
256.16        64.67596
256.62        62.41374
257.07        62.50099
257.53        64.51054
257.99        66.82972
258.44        68.48975
258.90        69.31853
259.35        69.07557
259.81        68.43183
260.27        67.58633
260.72        66.85398
261.18        66.59496
261.63        66.37052
262.09        66.18117
262.55        65.59013
263.00        64.53321
263.46        63.36148
263.91         62.2156
264.37         61.6458
264.83        61.56604
265.28        61.77029
265.74        62.00503
266.19          61.617
266.65        60.67989
267.11        59.31495
267.56        57.98254
268.02        57.50145
268.47        57.94654
268.93        59.01684
269.38        60.12816
269.84        60.29866
270.30        59.33129
270.75        57.54854
271.21        55.51453
271.66        53.93286
272.12        53.06182
272.57        52.59335
273.03        52.34183
273.48        51.94629
273.94        51.34175
274.39        50.62811
274.85        49.87944
275.31        49.06987
275.76        48.20291
276.22        47.33673
276.67        46.47094
277.13        45.77965
277.58        45.19486
278.04        44.72949
278.49        44.26885
278.95        43.78973
279.40         43.2151
279.86        42.62638
280.31        41.97652
280.77        41.33916
281.22        40.66163
281.68        40.01137
282.13        39.33065
282.59        38.66553
283.04        37.98062
283.50        37.33202
283.95        36.72537
284.41        36.25016
284.86        35.89362
285.32        35.64802
285.77        35.45758
286.22        35.29789
286.68        35.14606
287.13        34.98251
287.59        34.77629
288.04        34.43565
288.50        34.00105
288.95        33.47211
289.41        32.98476
289.86        32.63321
290.32        32.46375
290.77        32.41587
291.22        32.42072
291.68        32.35907
292.13        32.19582
292.59        32.00037
293.04        31.80129
293.50        31.70119
293.95        31.70473
294.40        31.78343
294.86        31.92396
295.31        32.11998
295.77        32.35142
296.22         32.6113
296.68         32.8527
297.13        32.97883
297.58         32.9953
298.04        32.95508
298.49         32.9142
298.95        33.00681
299.40         33.2408
299.85         33.5615
300.31        33.94967
300.76        34.36885
301.21        34.78985
301.67        35.22343
302.12        35.55431
302.58        35.63703
303.03        35.44726
303.48        35.07195
303.94        34.70302
304.39        34.55161
304.84        34.68063
305.30        35.00381
305.75         35.3979
306.20         35.6896
306.66        35.82842
307.11         35.8497
307.57        35.78712
308.02        35.63306
308.47        35.42224
308.93        35.15884
309.38        34.87762
309.83         34.6917
310.29        34.62707
310.74        34.65218
311.19        34.70805
311.65         34.6816
312.10         34.5419
312.55        34.32769
313.00        34.10264
313.46        33.96721
313.91        33.93623
314.36         33.9673
314.82        34.00306
315.27        33.96804
315.72        33.83094
316.18        33.62379
316.63        33.35805
317.08         33.0565
317.53        32.73309
317.99        32.38906
318.44        32.03762
318.89        31.71758
319.35         31.4468
319.80        31.22542
320.25        31.05118
320.70        30.90831
321.16        30.78234
321.61        30.68072
322.06        30.59279
322.51        30.50701
322.97        30.41135
323.42        30.31352
323.87        30.20342
324.32        30.08043
324.78           29.94
325.23        29.79146
325.68        29.63982
326.13        29.50028
326.59         29.3692
327.04        29.26042
327.49        29.14926
327.94        29.00437
328.39        28.81827
328.85        28.58649
329.30         28.3601
329.75        28.19323
330.20        28.10025
330.66         28.0623
331.11        28.03592
331.56        27.91368
332.01        27.67816
332.46        27.36629
332.92         27.0478
333.37        26.87218
333.82        26.86571
334.27        26.98563
334.72        27.17269
335.17        27.32204
335.63        27.37702
336.08        27.37669
336.53        27.31974
336.98        27.22042
337.43        27.09535
337.88        26.94731
338.34        26.78739
338.79        26.65725
339.24        26.56673
339.69        26.51029
340.14        26.51503
340.59        26.61615
341.05        26.79607
341.50         27.0385
341.95        27.25816
342.40        27.31964
342.85        27.20199
343.30        26.96338
343.75        26.68636
344.20        26.50155
344.66        26.45317
345.11        26.49074
345.56        26.62059
346.01        26.84272
346.46        27.12506
346.91        27.45453
347.36        27.73039
347.81        27.80126
348.26        27.64889
348.72         27.3301
349.17        26.93846
349.62        26.67019
350.07        26.57664
350.52        26.60013
350.97        26.68108
351.42         26.7128
351.87        26.66462
352.32        26.59174
352.77        26.48549
353.22        26.32862
353.67        26.13211
354.13        25.89389
354.58        25.68806
355.03        25.67105
355.48        25.85698
355.93        26.20521
356.38        26.54985
356.83        26.60941
357.28        26.33183
357.73         25.8186
358.18        25.27309
358.63        24.99678
359.08        25.05115
359.53        25.33518
359.98        25.70673
360.43        25.92382
360.88        25.90714
361.33        25.73817
361.78        25.48644
362.23        25.25008
362.68        25.06417
363.13        24.89044
363.58        24.73044
364.03        24.59849
364.48        24.49107
364.93        24.40919
365.38        24.33091
365.83        24.21257
366.28        24.04285
366.73        23.83435
367.18        23.59449
367.63        23.34147
368.08        23.09283
368.53         22.8523
368.98        22.63954
369.43        22.47859
369.88        22.36789
370.33         22.2968
370.78         22.2464
371.23        22.18384
371.68        22.09711
372.13        21.99451
372.58        21.87472
373.03        21.73524
373.48         21.5786
373.93        21.40525
374.38        21.23446
374.83        21.10149
375.28        21.01556
375.72        20.96556
376.17        20.93304
376.62        20.88264
377.07        20.80237
377.52        20.69843
377.97        20.57963
378.42         20.4606
378.87        20.34787
379.32        20.24116
379.77        20.13255
380.22         20.0095
380.67        19.87267
381.11        19.73059
381.56        19.60515
382.01        19.53649
382.46        19.53159
382.91        19.57627
383.36        19.63005
383.81        19.63352
384.26         19.5677
384.71        19.43935
385.15        19.28151
385.60        19.16584
386.05         19.1041
386.50        19.09062
386.95        19.06956
387.40        18.95531
387.85        18.74651
388.29        18.46371
388.74        18.23813
389.19        18.19683
389.64        18.34818
390.09        18.62816
390.54        18.91551
390.98        19.01454
391.43        18.88999
391.88         18.6212
392.33        18.29506
392.78        18.04082
393.23        17.89491
393.67        17.78574
394.12        17.72844
394.57        17.76168
395.02        17.84869
395.47        17.87632
395.91        17.84136
396.36        17.82981
396.81        17.84978
397.26        17.83935
397.71        17.80649
398.15        17.81199
398.60         17.8774
399.05        17.90147
399.50         17.8986
399.95         18.0253
400.39        18.22075
400.84        18.16174
401.29        17.86079
401.74        17.63329
402.18        17.50817
402.63        17.30405
403.08        17.06661
403.53        16.94192
403.97        16.93851
404.42        17.02081
404.87        17.12117
405.32        17.12791
405.76        17.01476
406.21         16.8257
406.66        16.62455
407.11         16.5153
407.55        16.52786
408.00        16.62619
408.45        16.76429
408.90        16.83763
409.34        16.82346
409.79        16.79103
410.24        16.75234
410.68        16.68371
411.13        16.59722
411.58        16.50953
412.03        16.42944
412.47        16.36832
412.92        16.33012
413.37        16.31677
413.81        16.32412
414.26        16.35742
414.71        16.40637
415.15        16.47365
415.60        16.52787
416.05        16.53673
416.49        16.49202
416.94        16.40053
417.39        16.29574
417.83        16.23158
418.28        16.22285
418.73        16.25717
419.17        16.30354
419.62        16.30355
420.07        16.25053
420.51        16.16135
420.96        16.08456
421.41        16.06994
421.85        16.11905
422.30        16.21519
422.74        16.32233
423.19        16.40405
423.64        16.44522
424.08        16.46783
424.53        16.45467
424.98        16.40492
425.42        16.32975
425.87         16.2345
426.31           16.15
426.76        16.13598
427.21         16.1931
427.65        16.29857
428.10        16.42649
428.54        16.52656
428.99        16.58814
429.44        16.65638
429.88        16.68218
430.33        16.59825
430.77        16.40949
431.22        16.15705
431.66        15.94202
432.11         15.9458
432.56        16.13531
433.00        16.41591
433.45        16.60718
433.89        16.35651
434.34        15.69524
434.78        15.67311
435.23        16.34715
435.67        16.58677
436.12        16.38743
436.57        16.35498
437.01        16.50717
437.46        16.54965
437.90         16.4705
438.35        16.38072
438.79         16.2896
439.24        16.16843
439.68        16.05864
440.13        16.07977
440.57        16.19468
441.02         16.2732
441.46        16.29871
441.91        16.23922
442.35        16.14208
442.80        16.33769
443.24        16.70995
443.69        16.66048
444.13        16.24291
444.58         16.0665
445.02        16.14692
445.47         16.1596
445.91         16.1115
446.36        16.16701
446.80        16.32093
447.24        16.52277
447.69        16.71733
448.13        16.81804
448.58        16.80608
449.02        16.70654
449.47        16.56951
449.91        16.46199
450.36        16.41189
450.80        16.39786
451.25        16.40131
451.69        16.38051
452.13        16.32774
452.58        16.26267
453.02        16.19921
453.47        16.16662
453.91        16.16885
454.36        16.19927
454.80        16.23687
455.24        16.24873
455.69        16.22986
456.13         16.1771
456.58        16.12788
457.02        16.11669
457.46        16.15333
457.91        16.22727
458.35        16.29003
458.79        16.24133
459.24        16.08117
459.68        15.88821
460.13        15.75924
460.57        15.51913
461.01        15.63929
461.46        15.74487
461.90        15.91896
462.34        16.00637
462.79         16.0668
463.23        16.04779
463.68          16.009
464.12        16.00973
464.56        16.06363
465.01        16.16899
465.45        16.25225
465.89        16.23675
466.34        16.12005
466.78        15.92445
467.22        15.72308
467.67        15.66926
468.11        15.72883
468.55          15.917
468.99        16.13965
469.44        16.28081
469.88          16.312
470.32        16.26385
470.77        16.17881
471.21        16.12483
471.65        16.12374
472.10        16.15241
472.54        16.18994
472.98        16.21618
473.42        16.22511
473.87          16.237
474.31         16.2418
474.75        16.23801
475.20        16.23161
475.64        16.20953
476.08        16.18628
476.52        16.22687
476.97        16.34252
477.41        16.43936
477.85          16.452
478.29        16.74251
478.74        16.57975
479.18        16.53085
479.62        16.43381
480.06        16.47171
480.50         16.6652
480.95        16.65574
481.39        16.95283
481.83        16.99673
482.27        16.94846
482.72        16.84124
483.16        16.72834
483.60        16.70858
484.04        16.78271
484.48        16.89165
484.93        17.10369
485.37        17.36245
485.81        17.48573
486.25        17.99105
486.69        17.20828
487.14        16.75475
487.58        17.13924
488.02         17.7255
488.46        17.77157
488.90        17.84306
489.34        17.64295
489.79        17.57158
490.23        17.96663
490.67        18.19342
491.11         18.3033
491.55        18.25254
491.99        18.10222
492.43        18.08542
492.88         18.2251
493.32        18.35432
493.76        18.45033
494.20        18.58504
494.64        18.75588
495.08        18.91327
495.52        19.05274
495.96        19.23243
496.41        19.42787
496.85        19.49623
497.29        19.46239
497.73        19.55332
498.17        19.75069
498.61        19.78752
499.05        19.69476
499.49        19.73176
499.93        19.91042
500.37        20.09455
500.82        20.25737
501.26        20.40494
501.70        20.52494
502.14        20.61951
502.58        20.68078
503.02        20.69825
503.46        20.67922
503.90        20.62889
504.34        20.59422
504.78        20.65051
505.22        20.80979
505.66         21.0497
506.10        21.30301
506.54        21.45559
506.98        21.47876
507.42        21.40772
507.86        21.30071
508.30        21.25014
508.74        21.28357
509.18        21.37402
509.62        21.49413
510.06        21.59853
510.50        21.67054
510.94        21.72597
511.38        21.77352
511.82        21.82461
512.26         21.8805
512.70        21.92903
513.14        21.96482
513.58        21.98391
514.02        21.98614
514.46          21.979
514.90        21.96028
515.34         21.9245
515.78        21.87636
516.22        21.82095
516.66        21.78078
517.10        21.78948
517.54        21.85087
517.98        21.95271
518.42        22.06409
518.86        22.13352
519.30        22.14609
519.74        22.11464
520.18        22.06087
520.62        22.02127
521.06         22.0063
521.50        22.00408
521.93        22.00563
522.37        21.99162
522.81        21.96041
523.25        21.92304
523.69         21.8839
524.13        21.84679
524.57        21.81536
525.01        21.78738
525.45        21.76907
525.89        21.77176
526.32        21.79353
526.76        21.82519
527.20        21.85295
527.64        21.85455
528.08        21.82498
528.52        21.77542
528.96        21.70866
529.40        21.62937
529.83        21.54194
530.27        21.45172
530.71        21.37913
531.15        21.36124
531.59        21.40075
532.03        21.48346
532.46        21.56843
532.90        21.59358
533.34        21.54646
533.78        21.43153
534.22        21.28571
534.66        21.20262
535.09        21.17718
535.53         21.1181
535.97        21.03002
536.41        20.99622
536.85        21.01867
537.28        21.05508
537.72        21.09228
538.16        21.12933
538.60        21.15988
539.04        21.17889
539.47        21.19834
539.91        21.25137
540.35        21.33673
540.79        21.45614
541.22        21.58188
541.66          21.637
542.10        21.67064
542.54        21.65484
542.97        21.64622
543.41        21.72017
543.85        21.88451
544.29        22.11418
544.72        22.35883
545.16        22.55185
545.60        22.67163
546.04        22.73623
546.47        22.77772
546.91        22.85295
547.35         22.9779
547.79        23.12981
548.22        23.26822
548.66        23.38335
549.10        23.47097
549.53        23.43391
549.97        23.51892
550.41        23.63609
550.84        23.85452
551.28        24.14927
551.72        24.45914
552.15        24.66138
552.59        24.74367
553.03        24.77501
553.46        24.78565
553.90        24.83652
554.34        24.94727
554.77        25.06057
555.21        25.14287
555.65        25.41495
556.08        25.38653
556.52        25.46737
556.96        25.52485
557.39        25.59325
557.83        25.68231
558.27        25.76919
558.70         25.8464
559.14        25.97317
559.57        25.94151
560.01        26.10928
560.45        26.33619
560.88        26.38076
561.32        26.28977
561.75        26.17323
562.19        26.11705
562.63         26.3323
563.06        26.71068
563.50        26.69275
563.93        26.34912
564.37        26.30709
564.80        26.57487
565.24        26.81216
565.68        26.95953
566.11        27.08331
566.55        27.17928
566.98        27.22171
567.42        27.25647
567.85        27.33743
568.29         27.4868
568.72        27.65495
569.16        27.83936
569.60        28.00819
570.03        28.14505
570.47         28.2177
570.90        28.42907
571.34        28.37941
571.77        28.46949
572.21         28.4464
572.64         28.5123
573.08        28.56177
573.51        29.11883
573.95        29.66957
574.38        29.14867
574.82        29.54202
