SpectraSmart Spectrum 2.9.0.0
--------- Device Information -----------
Spectrum Name :  反射率_0
Saving Time :  2024/05/01 17:16:55
Spectro-Module Model Name : SE2030-DUVN
Spectro-Module Serial Number : OS361AC55029948
Wavelength Start : 200
Wavelength End : 1025
Wavelength Unit : Wavelength(nm)
Spectrum Unit : Reflectance(%)
-----------Spectrum Setting ------------
Integration Time : 20ms
Average : 10
Boxcar : 0
Background removal :  enabled
linearity correction :  enabled
SC :  disabled
Intensity correction :  disabled
DWT denoise :  enabled
savitzky-golay :  disabled
FFT :  disabled
Running average :  disabled
Kalman :  disabled
High pass :  disabled
---------------BEGIN--------------------
Wavelength(nm)             Reflectance(%)
200.29               0
200.75        375.2898
201.21         1370.69
201.67       -505.0128
202.13       -169.2623
202.58       -70.36626
203.04       -15.80853
203.50        15.98276
203.96        28.89397
204.42        26.24608
204.88       -7.643135
205.34       -975.8062
205.80        189.5078
206.26        119.9421
206.72        70.65637
207.18       -80.11069
207.64        270.8994
208.10        117.2838
208.55        66.39874
209.01        36.13819
209.47        21.85344
209.93        17.81075
210.39        17.04191
210.85        15.52126
211.31        5.117769
211.77       -45.76675
212.23        368.9992
212.69         125.515
213.14        129.9586
213.60        224.9944
214.06       -905.0817
214.52       -128.0522
214.98       -80.63323
215.44       -77.44355
215.90        -111.261
216.36       -731.2043
216.81        217.2328
217.27        243.7195
217.73       -496.8416
218.19       -109.8839
218.65       -86.54183
219.11       -105.7574
219.57       -194.8037
220.02       -551.9243
220.48       -260.5497
220.94       -70.87919
221.40       -24.01844
221.86       -7.835828
222.32       -1.427792
222.77        1.710414
223.23        3.322634
223.69        5.445334
224.15        10.50555
224.61        16.51095
225.06        20.95135
225.52        23.41848
225.98        24.22468
226.44        23.92225
226.90        22.45617
227.36        20.42113
227.81        19.97185
228.27        21.61172
228.73        24.04642
229.19         25.7728
229.65        25.86413
230.10        24.48445
230.56        22.01445
231.02        19.30874
231.48        18.94146
231.93        21.55771
232.39        25.52069
232.85        29.23997
233.31        31.48985
233.77         32.3678
234.22        32.54046
234.68        32.29935
235.14        32.06942
235.60         31.9719
236.05        31.78461
236.51         31.6183
236.97        31.87391
237.43        32.66841
237.88        33.98565
238.34        34.81375
238.80        34.07417
239.26        31.14246
239.71        25.15902
240.17        15.04099
240.63        3.333878
241.08       -3.589911
241.54        -3.15809
242.00        1.291472
242.46        5.641496
242.91        9.965818
243.37        15.03031
243.83        25.73145
244.28        46.96738
244.74        64.40762
245.20        71.57683
245.66        70.95723
246.11        64.47011
246.57        51.91522
247.03        29.33266
247.48        -8.34706
247.94       -50.55531
248.40       -74.09247
248.85       -76.28078
249.31       -58.25568
249.77       -31.86528
250.22       -7.994552
250.68        11.55879
251.14        24.06172
251.59        27.95454
252.05        23.76117
252.51        6.770324
252.96       -37.60945
253.42       -97.94968
253.88       -81.87425
254.33       -15.70751
254.79        21.80771
255.25        33.35826
255.70        34.15741
256.16        32.37418
256.62        31.08665
257.07        32.18817
257.53        35.01557
257.99        37.90522
258.44        40.26091
258.90        42.00108
259.35        42.95939
259.81        43.61732
260.27        43.70748
260.72        42.86758
261.18        41.51416
261.63         39.7916
262.09        38.23846
262.55        37.15712
263.00        36.46957
263.46        36.05363
263.91        35.74166
264.37        35.52114
264.83         35.2985
265.28        35.10909
265.74        34.82767
266.19        34.08471
266.65        32.97348
267.11        31.55181
267.56        30.22487
268.02        29.71229
268.47        30.07722
268.93        31.04388
269.38         32.0927
269.84        32.31468
270.30        31.52682
270.75        30.03595
271.21        28.29133
271.66        26.86191
272.12        25.98263
272.57        25.42114
273.03         25.1263
273.48        24.98499
273.94        24.92342
274.39        24.95213
274.85        24.95295
275.31        24.69945
275.76        24.16729
276.22        23.46388
276.67        22.68736
277.13        22.06002
277.58        21.58708
278.04        21.23474
278.49        20.94942
278.95        20.74121
279.40        20.54825
279.86        20.39613
280.31        20.20038
280.77        19.90217
281.22        19.47058
281.68        18.97899
282.13        18.44554
282.59        17.95601
283.04        17.51901
283.50        17.14879
283.95        16.86048
284.41        16.71432
284.86        16.69491
285.32        16.77326
285.77        16.89691
286.22        17.00697
286.68        17.08582
287.13        17.13478
287.59        17.12853
288.04        16.99375
288.50        16.76264
288.95        16.43923
289.41        16.15756
289.86        16.05723
290.32        16.16615
290.77        16.42826
291.22        16.72868
291.68        16.88384
292.13        16.86094
292.59        16.75379
293.04         16.6386
293.50        16.67893
293.95        16.90205
294.40        17.25393
294.86        17.70922
295.31        18.24557
295.77        18.81938
296.22        19.42504
296.68        19.97875
297.13        20.34584
297.58        20.52409
298.04          20.579
298.49        20.60627
298.95        20.79423
299.40        21.17427
299.85        21.68128
300.31        22.27221
300.76        22.88871
301.21         23.4911
301.67        24.09743
302.12         24.6149
302.58        24.91784
303.03        24.98243
303.48        24.87633
303.94        24.74717
304.39        24.76892
304.84         24.9973
305.30        25.36514
305.75        25.79575
306.20        26.17859
306.66        26.47015
307.11        26.68481
307.57         26.8151
308.02        26.80822
308.47        26.68206
308.93        26.45808
309.38        26.18544
309.83        25.99089
310.29        25.90926
310.74        25.90945
311.19        25.94333
311.65        25.91698
312.10        25.80504
312.55        25.64112
313.00        25.47396
313.46         25.3784
313.91        25.36157
314.36        25.38567
314.82        25.40188
315.27        25.34852
315.72         25.2004
316.18         24.9838
316.63        24.70716
317.08        24.38163
317.53        24.01883
317.99        23.62355
318.44        23.22005
318.89        22.86802
319.35        22.58898
319.80        22.37635
320.25        22.20556
320.70        22.02418
321.16        21.81192
321.61        21.58545
322.06        21.36434
322.51        21.18544
322.97        21.05166
323.42        20.95469
323.87        20.85837
324.32        20.71527
324.78        20.50908
325.23         20.2612
325.68        20.00271
326.13        19.78864
326.59        19.62576
327.04        19.50794
327.49        19.39062
327.94          19.207
328.39        18.94165
328.85        18.61259
329.30        18.27461
329.75        18.00333
330.20        17.82414
330.66        17.71181
331.11        17.63774
331.56        17.53368
332.01        17.37866
332.46        17.19275
332.92        16.98868
333.37        16.81039
333.82        16.66234
334.27        16.53149
334.72          16.415
335.17        16.31256
335.63        16.21455
336.08        16.13483
336.53        16.06263
336.98        15.98544
337.43        15.89882
337.88        15.80554
338.34        15.70087
338.79        15.58725
339.24          15.466
339.69         15.3398
340.14        15.22735
340.59        15.15732
341.05        15.12616
341.50         15.1267
341.95        15.13539
342.40        15.11411
342.85        15.05455
343.30        14.97785
343.75        14.88682
344.20        14.78527
344.66         14.6841
345.11        14.56957
345.56        14.48835
346.01        14.51256
346.46        14.64369
346.91        14.85055
347.36        15.03924
347.81        15.06959
348.26        14.91669
348.72        14.63277
349.17        14.28874
349.62         14.0353
350.07        13.91255
350.52        13.87712
350.97        13.87399
351.42        13.80961
351.87        13.66449
352.32        13.48883
352.77        13.30791
353.22        13.15522
353.67        13.04465
354.13        12.95791
354.58        12.91284
355.03        12.96464
355.48        13.11123
355.93        13.34164
356.38        13.56206
356.83        13.61333
357.28        13.46936
357.73        13.18369
358.18        12.88915
358.63        12.78696
359.08        12.91308
359.53        13.19802
359.98        13.53022
360.43        13.71784
360.88        13.70129
361.33        13.54601
361.78        13.31453
362.23        13.09757
362.68        12.92829
363.13        12.77612
363.58         12.6467
364.03        12.55553
364.48        12.49794
364.93        12.47227
365.38        12.44966
365.83        12.37759
366.28         12.2449
366.73        12.06951
367.18        11.86725
367.63        11.66836
368.08        11.49313
368.53        11.33901
368.98        11.22193
369.43         11.1645
369.88        11.16042
370.33         11.1922
370.78        11.23143
371.23        11.22847
371.68        11.16274
372.13        11.04839
372.58        10.88076
373.03        10.65115
373.48        10.37365
373.93        10.06561
374.38        9.781606
374.83        9.611726
375.28        9.579963
375.72        9.657816
376.17        9.803548
376.62        9.952646
377.07        10.07242
377.52        10.16741
377.97        10.21722
378.42          10.195
378.87        10.10237
379.32         9.95042
379.77        9.770476
380.22        9.613534
380.67        9.497561
381.11        9.417735
381.56        9.373351
382.01        9.360641
382.46        9.376098
382.91        9.424179
383.36        9.482656
383.81        9.518114
384.26        9.518085
384.71        9.475275
385.15        9.414175
385.60        9.392048
386.05        9.411559
386.50        9.464437
386.95        9.489488
387.40        9.392555
387.85        9.174501
388.29        8.871845
388.74        8.608665
389.19        8.518933
389.64        8.620366
390.09        8.855121
390.54        9.128689
390.98        9.288838
391.43        9.290619
391.88        9.189611
392.33          9.0349
392.78        8.900527
393.23        8.810658
393.67        8.726496
394.12        8.662308
394.57        8.645656
395.02        8.662732
395.47        8.660604
395.91        8.641735
396.36        8.644223
396.81        8.672565
397.26        8.694117
397.71        8.707877
398.15        8.736264
398.60        8.786918
399.05        8.809324
399.50         8.80989
399.95        8.865091
400.39        8.946252
400.84        8.897865
401.29        8.729981
401.74        8.603404
402.18         8.53433
402.63        8.433928
403.08        8.327993
403.53        8.294404
403.97        8.334942
404.42         8.42452
404.87        8.513374
405.32        8.520039
405.76        8.425962
406.21        8.264405
406.66        8.082989
407.11        7.959126
407.55         7.91866
408.00        7.941642
408.45        8.002436
408.90        8.043463
409.34        8.050348
409.79        8.052763
410.24        8.062004
410.68        8.073995
411.13        8.091681
411.58        8.117935
412.03        8.132318
412.47        8.098734
412.92        8.014414
413.37        7.896323
413.81        7.779967
414.26        7.723692
414.71          7.7351
415.15        7.803092
415.60        7.886673
416.05        7.927691
416.49        7.907315
416.94        7.841784
417.39        7.763277
417.83        7.724511
418.28        7.738084
418.73        7.784884
419.17        7.835419
419.62        7.834765
420.07        7.778723
420.51        7.689864
420.96        7.605663
421.41        7.565463
421.85         7.57548
422.30           7.618
422.74        7.683575
423.19        7.766356
423.64        7.854178
424.08        7.950735
424.53        8.011519
424.98        7.976409
425.42        7.840686
425.87        7.638568
426.31        7.421142
426.76        7.280312
427.21        7.235582
427.65        7.256506
428.10        7.344958
428.54        7.497723
428.99         7.68742
429.44         7.91921
429.88        8.102031
430.33        8.103477
430.77        7.919023
431.22        7.602507
431.66        7.270653
432.11        7.130628
432.56        7.202095
433.00        7.412736
433.45        7.634714
433.89        7.611724
434.34        7.320529
434.78        7.282415
435.23        7.539759
435.67        7.593057
436.12        7.455804
436.57        7.396932
437.01        7.421795
437.46        7.400263
437.90        7.330937
438.35         7.26686
438.79        7.222693
439.24        7.199709
439.68        7.213444
440.13        7.307707
440.57        7.441568
441.02        7.512433
441.46        7.504925
441.91        7.416294
442.35        7.294296
442.80        7.334319
443.24        7.485032
443.69        7.445857
444.13        7.243006
444.58        7.171432
445.02        7.235687
445.47        7.280905
445.91        7.295356
446.36        7.334518
446.80        7.393359
447.24        7.451454
447.69        7.503578
448.13        7.547026
448.58        7.577125
449.02        7.592388
449.47        7.590522
449.91        7.562302
450.36        7.512583
450.80        7.447152
451.25        7.376273
451.69        7.309524
452.13        7.253349
452.58        7.209046
453.02        7.179805
453.47        7.175891
453.91        7.195469
454.36        7.236403
454.80        7.281792
455.24        7.299823
455.69        7.284569
456.13        7.236711
456.58        7.184667
457.02        7.161994
457.46        7.177571
457.91        7.221311
458.35        7.258937
458.79         7.22466
459.24        7.117705
459.68        6.979095
460.13        6.870989
460.57        6.738569
461.01        6.794873
461.46        6.868452
461.90        6.981719
462.34        7.038138
462.79        7.057086
463.23         7.02091
463.68         6.97603
464.12        6.979352
464.56        7.042041
465.01        7.148158
465.45        7.238905
465.89        7.240084
466.34        7.147029
466.78        6.981109
467.22        6.803539
467.67        6.731883
468.11        6.764495
468.55        6.895105
468.99        7.055185
469.44        7.151311
469.88        7.160664
470.32        7.106836
470.77         7.02849
471.21        6.982604
471.65        6.988432
472.10         7.02601
472.54        7.068926
472.98        7.084105
473.42        7.065562
473.87        7.034035
474.31        7.002365
474.75        6.996486
475.20        7.023225
475.64        7.064065
476.08        7.112537
476.52        7.177754
476.97        7.257365
477.41        7.318587
477.85        7.329495
478.29        7.447384
478.74        7.351214
479.18         7.29389
479.62        7.221446
480.06        7.245274
480.50        7.376298
480.95        7.439511
481.39        7.642959
481.83        7.702301
482.27        7.683206
482.72        7.615776
483.16        7.528231
483.60        7.484977
484.04        7.491351
484.48        7.515728
484.93        7.611763
485.37        7.786575
485.81        7.914139
486.25        8.343518
486.69        7.725736
487.14        7.594073
487.58        8.079782
488.02        8.058892
488.46        8.024226
488.90        8.115581
489.34        7.822596
489.79        7.818119
490.23        8.194835
490.67        8.425123
491.11        8.536342
491.55        8.529151
491.99        8.446267
492.43        8.428563
492.88        8.492541
493.32        8.519245
493.76        8.522637
494.20        8.599185
494.64        8.756607
495.08        8.958084
495.52        9.159168
495.96        9.323027
496.41        9.424062
496.85        9.395455
497.29        9.307425
497.73        9.396189
498.17           9.654
498.61        9.835088
499.05        9.903967
499.49        9.996802
499.93        10.10594
500.37        10.13895
500.82        10.11913
501.26        10.13033
501.70        10.18732
502.14        10.26406
502.58        10.34404
503.02        10.40205
503.46        10.43349
503.90        10.45518
504.34        10.47899
504.78         10.5196
505.22        10.58263
505.66        10.65997
506.10        10.75289
506.54        10.86438
506.98        10.98751
507.42        11.11621
507.86        11.22952
508.30        11.29614
508.74        11.31188
509.18         11.2882
509.62        11.24581
510.06        11.22058
510.50        11.22557
510.94        11.25212
511.38        11.29623
511.82        11.34924
512.26        11.40412
512.70        11.46198
513.14        11.51203
513.58        11.53679
514.02        11.53347
514.46        11.50671
514.90        11.46672
515.34        11.43229
515.78        11.41049
516.22        11.39742
516.66        11.39347
517.10        11.39762
517.54        11.40791
517.98        11.42566
518.42        11.44337
518.86        11.44774
519.30         11.4361
519.74        11.41077
520.18        11.38093
520.62        11.36257
521.06        11.35831
521.50         11.3619
521.93        11.36582
522.37        11.35372
522.81        11.32429
523.25         11.2857
523.69         11.2415
524.13        11.19631
524.57        11.15416
525.01        11.11311
525.45        11.08255
525.89        11.07769
526.32        11.09785
526.76        11.13412
527.20        11.16771
527.64        11.16699
528.08        11.12576
528.52        11.05715
528.96        10.97521
529.40        10.90208
529.83        10.84528
530.27        10.80133
530.71        10.77452
531.15        10.77452
531.59        10.79802
532.03        10.83917
532.46        10.87634
532.90        10.87474
533.34        10.82913
533.78         10.7432
534.22        10.63646
534.66        10.55748
535.09        10.50569
535.53        10.43769
535.97         10.3623
536.41        10.33018
536.85          10.344
537.28        10.38141
537.72        10.42581
538.16        10.46195
538.60        10.48246
539.04        10.48741
539.47        10.49202
539.91        10.52839
540.35        10.59841
540.79        10.69824
541.22        10.80194
541.66        10.85079
542.10        10.86675
542.54        10.84335
542.97        10.82447
543.41        10.87319
543.85        10.99796
544.29        11.17812
544.72        11.37465
545.16        11.53138
545.60        11.63252
546.04        11.69341
546.47        11.73833
546.91        11.81071
547.35        11.92049
547.79        12.04894
548.22        12.16947
548.66        12.26928
549.10        12.34584
549.53        12.35298
549.97        12.42313
550.41        12.50911
550.84        12.64965
551.28        12.83203
551.72        13.03212
552.15        13.19773
552.59        13.32213
553.03        13.43619
553.46        13.54055
553.90         13.6458
554.34        13.75662
554.77        13.84546
555.21        13.90554
555.65        14.07928
556.08        14.10014
556.52         14.1883
556.96        14.25711
557.39        14.31063
557.83        14.35307
558.27        14.36717
558.70         14.3671
559.14         14.4453
559.57        14.47714
560.01        14.58377
560.45        14.69112
560.88        14.73223
561.32        14.73198
561.75        14.70987
562.19        14.70875
562.63        14.85897
563.06        15.09862
563.50        15.11029
563.93        14.92939
564.37        14.90779
564.80        15.05279
565.24        15.17612
565.68        15.25954
566.11        15.36398
566.55        15.48879
566.98        15.61059
567.42        15.73652
567.85        15.86969
568.29        16.01578
568.72        16.15584
569.16        16.29065
569.60        16.41863
570.03        16.53581
570.47        16.59337
570.90         16.7158
571.34        16.79521
571.77        16.88924
572.21        16.97767
572.64        17.08952
573.08        17.18377
573.51        17.61591
573.95        17.67475
574.38        17.64622
574.82        17.81245
