SpectraSmart Spectrum 2.9.0.0
--------- Device Information -----------
Spectrum Name :  反射率_0
Saving Time :  2024/05/01 17:12:33
Spectro-Module Model Name : SE2030-DUVN
Spectro-Module Serial Number : OS361AC55029948
Wavelength Start : 200
Wavelength End : 1025
Wavelength Unit : Wavelength(nm)
Spectrum Unit : Reflectance(%)
-----------Spectrum Setting ------------
Integration Time : 20ms
Average : 10
Boxcar : 0
Background removal :  enabled
linearity correction :  enabled
SC :  disabled
Intensity correction :  disabled
DWT denoise :  enabled
savitzky-golay :  disabled
FFT :  disabled
Running average :  disabled
Kalman :  disabled
High pass :  disabled
---------------BEGIN--------------------
Wavelength(nm)             Reflectance(%)
200.29               0
200.75       -22.13836
201.21        130.4857
201.67        -98.5144
202.13       -25.49558
202.58        13.68117
203.04        43.44958
203.50        64.60437
203.96        76.40414
204.42        82.44474
204.88        87.45491
205.34        195.3067
205.80        42.26292
206.26         18.8384
206.72       -48.02971
207.18       -399.3965
207.64        604.3539
208.10        248.4569
208.55        160.0321
209.01        118.1929
209.47        100.9089
209.93        98.46474
210.39        102.7992
210.85        114.8889
211.31        144.4467
211.77        251.9181
212.23       -624.6397
212.69        -93.1035
213.14       -54.08242
213.60       -70.16276
214.06        287.1057
214.52        51.90709
214.98        44.77586
215.44         59.0607
215.90        119.2103
216.36        1088.645
216.81       -415.9856
217.27       -535.9767
217.73        1124.575
218.19        237.5542
218.65        178.5455
219.11        215.2506
219.57        402.7512
220.02        1217.625
220.48        675.4288
220.94        242.5686
221.40        131.3502
221.86        95.79546
222.32        90.23109
222.77         101.108
223.23        126.8152
223.69        162.7249
224.15        178.0482
224.61        161.8075
225.06          135.25
225.52        117.5504
225.98        115.2201
226.44        126.4755
226.90        150.2177
227.36        181.7117
227.81        196.8774
228.27        186.2357
228.73        165.3663
229.19        148.5844
229.65        143.8443
230.10        149.8752
230.56        163.8751
231.02        182.0723
231.48        192.2085
231.93        188.3199
232.39        177.9511
232.85        166.1414
233.31        157.0187
233.77        151.3006
234.22        147.1597
234.68        145.4879
235.14        147.4859
235.60        153.5794
236.05        165.6458
236.51        183.1666
236.97         199.666
237.43        207.1377
237.88        203.1167
238.34        192.2065
238.80        185.7118
239.26        187.0495
239.71        197.0616
240.17         212.113
240.63         215.162
241.08        193.0238
241.54        156.3891
242.00         126.301
242.46        115.1735
242.91        123.2655
243.37        152.5809
243.83         205.168
244.28        236.0556
244.74        208.8432
245.20        164.2212
245.66        130.4851
246.11        112.5051
246.57        104.0967
247.03        99.18993
247.48        93.25564
247.94        77.17173
248.40        50.25597
248.85        22.69805
249.31        8.800649
249.77         15.1172
250.22        32.46247
250.68        51.68768
251.14        67.34958
251.59        77.83937
252.05        85.99449
252.51        96.79916
252.96        120.2019
253.42        170.3298
253.88        203.3538
254.33         183.142
254.79        161.2805
255.25        150.3229
255.70        144.3876
256.16        141.7152
256.62        138.8854
257.07        133.8181
257.53        128.9385
257.99        124.7883
258.44        122.1704
258.90        122.8608
259.35        125.6336
259.81        129.9997
260.27        134.3844
260.72        136.7835
261.18         137.421
261.63        136.4185
262.09        135.1153
262.55        134.0109
263.00        132.9619
263.46        132.1372
263.91        130.8757
264.37        129.2421
264.83        127.1512
265.28        124.8113
265.74        122.7252
266.19        120.9069
266.65        119.6112
267.11        118.5771
267.56        117.8689
268.02        117.7804
268.47        118.1639
268.93        118.8857
269.38        119.4097
269.84        118.8658
270.30        117.1232
270.75          114.45
271.21        111.4963
271.66        109.0502
272.12        107.4169
272.57         106.234
273.03        105.3469
273.48        104.3318
273.94         103.163
274.39        101.9139
274.85        100.6335
275.31        99.12441
275.76        97.36719
276.22        95.54939
276.67        93.77231
277.13        92.52981
277.58        91.68298
278.04        91.16516
278.49        90.61079
278.95         89.7431
279.40        88.39278
279.86        86.84007
280.31        85.09998
280.77        83.47795
281.22        81.90836
281.68         80.4641
282.13         79.0558
282.59        77.81632
283.04        76.64638
283.50        75.64033
283.95        74.66257
284.41        73.66075
284.86        72.58962
285.32        71.54215
285.77        70.58307
286.22        69.93739
286.68        69.59452
287.13        69.41933
287.59        69.23058
288.04         68.6829
288.50        67.77776
288.95          66.578
289.41        65.35282
289.86        64.28766
290.32        63.50623
290.77        62.89753
291.22        62.39019
291.68        61.84811
292.13        61.21885
292.59        60.59021
293.04          60.023
293.50        59.68692
293.95        59.57304
294.40        59.62247
294.86        59.71439
295.31        59.67245
295.77        59.45495
296.22        59.09777
296.68        58.69135
297.13        58.31768
297.58        58.03606
298.04        57.85442
298.49        57.72333
298.95        57.62787
299.40        57.53621
299.85        57.45311
300.31        57.46992
300.76        57.67858
301.21         58.0779
301.67        58.61916
302.12        59.07027
302.58        59.13161
303.03        58.73137
303.48        58.01941
303.94        57.29945
304.39        56.89223
304.84        56.90205
305.30        57.20512
305.75        57.59932
306.20        57.81182
306.66        57.78211
307.11        57.57276
307.57        57.30362
308.02        57.05548
308.47        56.88396
308.93        56.75095
309.38         56.6096
309.83        56.46836
310.29        56.33323
310.74        56.20784
311.19        56.08164
311.65        55.91284
312.10        55.68729
312.55        55.41764
313.00        55.16939
313.46        55.04854
313.91        55.05593
314.36        55.14558
314.82        55.21164
315.27            55.1
315.72        54.77065
316.18        54.30022
316.63        53.74808
317.08        53.22745
317.53        52.77718
317.99        52.36694
318.44        52.01389
318.89         51.7515
319.35        51.58264
319.80        51.51343
320.25        51.47913
320.70        51.36631
321.16        51.14076
321.61        50.83135
322.06         50.5161
322.51        50.34139
322.97        50.32326
323.42        50.42673
323.87        50.53292
324.32        50.46156
324.78        50.16374
325.23         49.7229
325.68        49.22563
326.13        48.82047
326.59        48.54629
327.04        48.38096
327.49        48.29064
327.94         48.2326
328.39        48.18019
328.85        48.13142
329.30        48.09033
329.75        47.99367
330.20         47.8302
330.66        47.59346
331.11        47.33761
331.56         47.1057
332.01        46.92144
332.46        46.77971
332.92        46.66749
333.37        46.60833
333.82        46.58865
334.27        46.62181
334.72        46.69779
335.17        46.79557
335.63        46.88957
336.08        46.98825
336.53        47.09575
336.98        47.25372
337.43        47.45877
337.88        47.69276
338.34        47.86484
338.79        47.86175
339.24        47.65378
339.69        47.29308
340.14        46.90704
340.59        46.69541
341.05        46.70134
341.50        46.87511
341.95        47.12574
342.40        47.29874
342.85        47.34927
343.30        47.33906
343.75        47.29735
344.20        47.26733
344.66        47.27013
345.11        47.26746
345.56        47.30983
346.01         47.4804
346.46        47.77335
346.91        48.15853
347.36        48.50462
347.81        48.61105
348.26        48.44906
348.72        48.09172
349.17        47.66572
349.62        47.42365
350.07        47.41954
350.52        47.56678
350.97         47.7498
351.42         47.7732
351.87        47.59322
352.32        47.31002
352.77        46.96027
353.22        46.59579
353.67         46.2517
354.13        45.90292
354.58        45.63509
355.03        45.63927
355.48        45.92131
355.93        46.43705
356.38        46.92958
356.83        46.96371
357.28        46.46507
357.73        45.58561
358.18        44.66492
358.63        44.20946
359.08        44.31608
359.53        44.81561
359.98        45.44527
360.43        45.75868
360.88        45.61725
361.33         45.1718
361.78        44.57764
362.23        44.05416
362.68        43.67455
363.13        43.36669
363.58        43.10199
364.03        42.85322
364.48        42.60402
364.93        42.36956
365.38        42.15923
365.83        41.96896
366.28        41.78803
366.73        41.61282
367.18        41.38498
367.63        41.02169
368.08        40.52969
368.53        39.95276
368.98        39.40422
369.43        39.04647
369.88        38.90215
370.33         38.9136
370.78        38.98577
371.23        38.94997
371.68        38.75227
372.13        38.45193
372.58        38.08915
373.03        37.72042
373.48        37.37215
373.93        37.02266
374.38        36.71422
374.83        36.52385
375.28        36.46129
375.72        36.50171
376.17        36.57164
376.62        36.53713
377.07        36.36499
377.52        36.08321
377.97        35.75824
378.42        35.50033
378.87        35.33675
379.32        35.23705
379.77        35.13976
380.22        34.94913
380.67        34.65136
381.11        34.29097
381.56         33.9402
382.01        33.72183
382.46        33.66678
382.91        33.73141
383.36        33.84286
383.81        33.89237
384.26         33.8414
384.71        33.70924
385.15        33.52398
385.60        33.35833
386.05        33.22194
386.50        33.10044
386.95        32.95398
387.40        32.72596
387.85        32.42252
388.29        32.05933
388.74        31.75359
389.19        31.57845
389.64        31.54096
390.09        31.59623
390.54        31.68134
390.98        31.68971
391.43         31.6092
391.88        31.47635
392.33        31.30889
392.78        31.14511
393.23        31.00339
393.67        30.82102
394.12        30.66401
394.57        30.66436
395.02        30.77884
395.47        30.77798
395.91        30.66484
396.36        30.61843
396.81         30.6478
397.26        30.64956
397.71        30.59284
398.15        30.50734
398.60        30.43066
399.05        30.23125
399.50        29.99955
399.95        30.08307
400.39        30.39697
400.84        30.37861
401.29        30.01403
401.74        29.76788
402.18        29.66428
402.63        29.40567
403.08        29.07769
403.53        28.94429
403.97        29.02156
404.42        29.23707
404.87        29.46465
405.32        29.50598
405.76         29.3158
406.21        28.97171
406.66         28.5947
407.11        28.37631
407.55        28.37333
408.00        28.52651
408.45        28.74731
408.90        28.83871
409.34        28.76032
409.79        28.64084
410.24        28.52413
410.68         28.4053
411.13         28.3083
411.58        28.24879
412.03        28.20687
412.47        28.14147
412.92         28.0414
413.37        27.93167
413.81        27.84164
414.26        27.83283
414.71        27.90083
415.15        28.03036
415.60        28.15297
416.05        28.18315
416.49        28.09709
416.94        27.91702
417.39         27.7003
417.83        27.53715
418.28        27.45493
418.73        27.43102
419.17        27.42957
419.62        27.38636
420.07        27.29343
420.51        27.17519
420.96        27.08309
421.41        27.05832
421.85        27.09888
422.30        27.19325
422.74        27.31113
423.19        27.44087
423.64        27.56416
424.08        27.69477
424.53        27.78175
424.98        27.78271
425.42        27.69233
425.87        27.51516
426.31        27.31171
426.76        27.18723
427.21        27.16465
427.65        27.22279
428.10        27.30531
428.54        27.35609
428.99        27.37729
429.44         27.2994
429.88        27.14852
430.33        27.25295
430.77        27.48566
431.22        27.24939
431.66        26.67658
432.11        26.61327
432.56        27.03507
433.00        27.20675
433.45        26.97283
433.89        26.79066
434.34         26.4642
434.78        26.43057
435.23        26.88236
435.67        27.06055
436.12        27.01963
436.57        27.08959
437.01        27.27245
437.46        27.34042
437.90         27.2715
438.35        27.16974
438.79        27.05367
439.24        26.88165
439.68        26.71722
440.13        26.76915
440.57        26.95966
441.02        27.03003
441.46        26.95505
441.91        26.74395
442.35        26.50112
442.80        26.72123
443.24        27.25421
443.69        27.27948
444.13        26.82606
444.58         26.6589
445.02        26.78186
445.47        26.76817
445.91        26.64147
446.36        26.64981
446.80        26.79606
447.24        27.01029
447.69        27.21655
448.13         27.2928
448.58        27.21795
449.02        27.02873
449.47        26.81258
449.91        26.68464
450.36        26.68337
450.80        26.76698
451.25        26.87454
451.69        26.89272
452.13        26.79916
452.58        26.63475
453.02        26.45539
453.47         26.3614
453.91        26.37308
454.36        26.46841
454.80        26.58462
455.24        26.62542
455.69        26.57594
456.13        26.45018
456.58        26.33693
457.02        26.33453
457.46        26.46354
457.91        26.68518
458.35        26.89833
458.79        26.90696
459.24         26.6953
459.68        26.40603
460.13        26.18998
460.57        25.75067
461.01        25.87048
461.46        25.93168
461.90         26.0984
462.34        26.16559
462.79        26.24492
463.23        26.24932
463.68        26.23841
464.12        26.24537
464.56        26.28054
465.01        26.36158
465.45        26.42314
465.89        26.42427
466.34        26.36464
466.78        26.24928
467.22        26.12231
467.67        26.10517
468.11        26.10944
468.55        26.20536
468.99        26.31143
469.44         26.3512
469.88        26.31194
470.32        26.21437
470.77         26.1055
471.21        26.06205
471.65        26.10042
472.10        26.19793
472.54        26.30602
472.98        26.36468
473.42        26.35983
473.87        26.32302
474.31        26.26714
474.75        26.23708
475.20        26.24973
475.64        26.27929
476.08        26.31186
476.52        26.37552
476.97        26.47261
477.41        26.54157
477.85        26.39838
478.29        26.81223
478.74        26.58735
479.18        26.61408
479.62        26.56289
480.06        26.61958
480.50        26.80319
480.95        26.58279
481.39        26.85195
481.83        26.83566
482.27        26.81088
482.72        26.78872
483.16         26.7861
483.60        26.82966
484.04        26.90081
484.48        26.94679
484.93        27.09665
485.37         27.3215
485.81        27.54265
486.25        28.01291
486.69        27.55494
487.14        26.85409
487.58         27.2627
488.02        27.56612
488.46        27.45419
488.90        27.56596
489.34        27.45435
489.79        27.22635
490.23        27.77299
490.67        27.91761
491.11        27.95574
491.55        28.05051
491.99        28.20721
492.43        28.31821
492.88        28.36707
493.32        28.38115
493.76        28.38693
494.20        28.45795
494.64        28.61132
495.08        28.78974
495.52        28.96017
495.96        29.15425
496.41         29.3266
496.85        29.30187
497.29        29.14208
497.73        29.18577
498.17        29.43097
498.61         29.5284
499.05        29.48816
499.49        29.62524
499.93        29.90631
500.37        30.04094
500.82        30.03035
501.26        30.07557
501.70        30.18435
502.14        30.25332
502.58        30.27833
503.02        30.29971
503.46        30.32196
503.90        30.33752
504.34        30.36656
504.78        30.43712
505.22        30.55289
505.66        30.70988
506.10        30.86928
506.54        30.96563
506.98        30.98452
507.42        30.94229
507.86        30.89015
508.30        30.90833
508.74        31.01464
509.18        31.18798
509.62        31.37203
510.06        31.47364
510.50        31.47001
510.94        31.38794
511.38        31.29055
511.82        31.27895
512.26        31.37341
512.70        31.53761
513.14        31.70514
513.58        31.77223
514.02        31.71594
514.46        31.57538
514.90        31.40525
515.34         31.2926
515.78        31.26597
516.22         31.2987
516.66        31.36668
517.10        31.43244
517.54        31.47983
517.98        31.51955
518.42        31.55112
518.86        31.57061
519.30        31.57839
519.74        31.57267
520.18        31.55237
520.62        31.52094
521.06        31.48026
521.50        31.42772
521.93        31.38002
522.37        31.35605
522.81        31.36162
523.25        31.39559
523.69        31.42436
524.13         31.3932
524.57        31.29774
525.01        31.15741
525.45        31.02617
525.89        30.99005
526.32        31.06095
526.76        31.20146
527.20        31.35522
527.64        31.43122
528.08        31.40501
528.52        31.31413
528.96        31.17865
529.40        31.02966
529.83        30.88429
530.27        30.74032
530.71        30.63467
531.15        30.63411
531.59        30.74147
532.03        30.93302
532.46        31.12824
532.90        31.20274
533.34        31.12958
533.78        30.92482
534.22        30.66323
534.66         30.5129
535.09        30.47655
535.53         30.4156
535.97        30.32142
536.41        30.28953
536.85        30.31595
537.28        30.34328
537.72        30.37367
538.16        30.43706
538.60        30.52694
539.04        30.62426
539.47        30.70754
539.91        30.76601
540.35        30.79029
540.79        30.80336
541.22        30.81454
541.66        30.79409
542.10        30.82835
542.54        30.84928
542.97        30.89378
543.41          30.999
543.85        31.15852
544.29        31.36226
544.72        31.56129
545.16        31.69485
545.60        31.74676
546.04        31.73523
546.47        31.71005
546.91        31.75982
547.35        31.90639
547.79        32.11272
548.22        32.31527
548.66        32.48744
549.10        32.61568
549.53        32.56765
549.97        32.67015
550.41        32.77481
550.84         32.9746
551.28        33.25385
551.72        33.56632
552.15        33.76691
552.59        33.84275
553.03        34.02072
553.46        34.04683
553.90        34.15096
554.34        34.26784
554.77        34.33877
555.21         34.3447
555.65        34.63623
556.08        34.56134
556.52         34.6635
556.96        34.73381
557.39        34.78581
557.83        34.83012
558.27        34.82093
558.70        34.78733
559.14        34.94625
559.57        34.98887
560.01        35.20184
560.45         35.4087
560.88        35.43248
561.32        35.33031
561.75        35.21209
562.19        35.16592
562.63        35.34536
563.06         35.6615
563.50        35.66072
563.93        35.39182
564.37         35.3718
564.80        35.60124
565.24         35.8026
565.68        35.93263
566.11        36.05757
566.55        36.18048
566.98         36.2679
567.42        36.36214
567.85        36.49395
568.29        36.67334
568.72        36.88814
569.16        37.15897
569.60        37.29768
570.03        37.24916
570.47        37.52391
570.90        37.74585
571.34        37.29461
571.77        37.65773
572.21        37.66021
572.64        37.83627
573.08        37.73337
573.51        38.12467
573.95        38.61969
574.38        38.36824
574.82        38.60357
