SpectraSmart Spectrum 2.9.0.0
--------- Device Information -----------
Spectrum Name :  反射率_0
Saving Time :  2024/05/01 17:09:26
Spectro-Module Model Name : SE2030-DUVN
Spectro-Module Serial Number : OS361AC55029948
Wavelength Start : 200
Wavelength End : 1025
Wavelength Unit : Wavelength(nm)
Spectrum Unit : Reflectance(%)
-----------Spectrum Setting ------------
Integration Time : 20ms
Average : 10
Boxcar : 0
Background removal :  enabled
linearity correction :  enabled
SC :  disabled
Intensity correction :  disabled
DWT denoise :  enabled
savitzky-golay :  disabled
FFT :  disabled
Running average :  disabled
Kalman :  disabled
High pass :  disabled
---------------BEGIN--------------------
Wavelength(nm)             Reflectance(%)
200.29               0
200.75        226.7014
201.21        744.4236
201.67       -237.5753
202.13       -61.96004
202.58       -9.725022
203.04        19.78325
203.50        37.75724
203.96         46.8175
204.42        50.33366
204.88         47.9514
205.34       -37.24745
205.80         46.7706
206.26         16.0277
206.72       -47.74644
207.18       -366.3535
207.64         530.484
208.10        207.4104
208.55        123.9861
209.01        83.07306
209.47        66.58129
209.93        64.83698
210.39        69.58076
210.85        79.11078
211.31        94.88971
211.77        140.4614
212.23       -223.6903
212.69        3.611035
213.14        36.13834
213.60        89.95022
214.06       -428.5976
214.52       -63.52106
214.98       -34.15417
215.44       -17.34284
215.90         16.9117
216.36        500.3989
216.81       -249.0704
217.27       -318.9969
217.73        564.1805
218.19        89.92638
218.65        57.19161
219.11        75.56145
219.57        175.5446
220.02        646.6723
220.48        400.6581
220.94        149.7792
221.40        81.69709
221.86        59.93288
222.32        58.30795
222.77         68.6982
223.23          90.464
223.69        119.7419
224.15        131.0711
224.61        116.1152
225.06        93.04903
225.52         77.5524
225.98        74.79086
226.44        83.10712
226.90        101.6052
227.36        126.5356
227.81        138.8026
228.27        130.8013
228.73        114.6573
229.19        101.8876
229.65        99.12873
230.10          105.48
230.56        118.8426
231.02        135.7591
231.48        144.8821
231.93        140.8622
232.39         130.541
232.85        119.0902
233.31        110.8189
233.77        106.2313
234.22        103.4763
234.68           102.7
235.14        104.3076
235.60        108.4561
236.05        116.5097
236.51        128.2128
236.97        139.3298
237.43        144.5116
237.88        141.9377
238.34        134.3252
238.80         128.841
239.26        127.4152
239.71        130.0815
240.17        134.0261
240.63        129.8097
241.08        112.5411
241.54        90.26791
242.00        74.67675
242.46        72.03893
242.91         83.0161
243.37        110.2727
243.83        157.6567
244.28        191.3339
244.74        176.7422
245.20        144.0845
245.66        116.4162
246.11        97.81889
246.57        82.85413
247.03        64.06508
247.48        36.59668
247.94        4.916845
248.40       -15.88946
248.85        -20.0904
249.31       -8.767078
249.77        7.480134
250.22        21.67887
250.68        32.94431
251.14        41.05099
251.59        47.08739
252.05        53.28129
252.51        62.89864
252.96        83.47686
253.42        122.2349
253.88        139.5418
254.33        119.4896
254.79        103.2364
255.25        97.66193
255.70        96.83601
256.16        98.18154
256.62        99.07423
257.07        97.79155
257.53        95.99094
257.99        94.28171
258.44        93.22798
258.90         94.0933
259.35        96.06909
259.81        98.91188
260.27         101.631
260.72        102.9882
261.18        103.2317
261.63        102.4011
262.09        101.3412
262.55        100.2484
263.00        99.04332
263.46        97.92427
263.91        96.60033
264.37        95.34692
264.83        94.08105
265.28        92.83797
265.74        91.74606
266.19        90.48798
266.65        89.22531
267.11        87.87117
267.56        86.71492
268.02        86.35529
268.47        86.75674
268.93        87.69698
269.38        88.53667
269.84        88.22095
270.30        86.57927
270.75        83.96129
271.21        81.10911
271.66        78.97413
272.12        77.86175
272.57        77.35042
273.03        77.14216
273.48         76.6475
273.94        75.77528
274.39        74.70206
274.85        73.52824
275.31        72.20141
275.76        70.74931
276.22        69.26093
276.67        67.86287
277.13        66.99689
277.58        66.54432
278.04        66.42065
278.49        66.23213
278.95        65.58808
279.40         64.3426
279.86        62.78774
280.31        61.06113
280.77        59.55521
281.22        58.26761
281.68        57.20157
282.13        56.24366
282.59        55.41731
283.04        54.63099
283.50        53.97355
283.95        53.36757
284.41        52.79963
284.86        52.22985
285.32        51.69305
285.77         51.2021
286.22        50.87545
286.68        50.70529
287.13        50.61354
287.59        50.49213
288.04        50.12012
288.50        49.51133
288.95        48.69054
289.41        47.86778
289.86        47.19635
290.32        46.76019
290.77        46.47811
291.22        46.24517
291.68        45.88031
292.13        45.34291
292.59        44.73577
293.04         44.1799
293.50        43.92702
293.95        43.99717
294.40         44.3106
294.86        44.71671
295.31        44.98949
295.77        45.06156
296.22        44.98338
296.68        44.84106
297.13        44.73045
297.58        44.70501
298.04        44.75557
298.49        44.83133
298.95        44.90973
299.40         44.9614
299.85        44.99805
300.31        45.10135
300.76        45.36157
301.21        45.78497
301.67        46.34015
302.12        46.83538
302.58        47.01712
303.03         46.8273
303.48        46.39127
303.94        45.97635
304.39         45.8774
304.84        46.17932
305.30        46.76284
305.75        47.42419
306.20        47.87841
306.66        48.05415
307.11        48.01205
307.57        47.87498
308.02        47.74987
308.47        47.69342
308.93        47.66533
309.38        47.60535
309.83        47.49116
310.29        47.32787
310.74        47.13789
311.19        46.94591
311.65        46.76424
312.10        46.59237
312.55        46.42591
313.00        46.29601
313.46        46.25174
313.91        46.28355
314.36        46.36919
314.82        46.42709
315.27        46.34214
315.72        46.08331
316.18        45.69771
316.63         45.2491
317.08         44.8539
317.53        44.54222
317.99        44.28652
318.44        44.04783
318.89        43.77043
319.35        43.44481
319.80        43.10093
320.25        42.77078
320.70        42.49589
321.16        42.27758
321.61        42.10385
322.06        41.95066
322.51        41.78901
322.97        41.59609
323.42        41.39309
323.87        41.16466
324.32        40.90088
324.78        40.60089
325.23          40.285
325.68        39.96986
326.13        39.69196
326.59        39.45084
327.04        39.25553
327.49        39.08501
327.94        38.91367
328.39        38.73152
328.85        38.53376
329.30        38.34291
329.75        38.14895
330.20        37.95465
330.66        37.74807
331.11        37.55839
331.56        37.39184
332.01        37.25161
332.46        37.13524
332.92        37.01918
333.37        36.90397
333.82        36.77587
334.27        36.64907
334.72        36.53308
335.17        36.44836
335.63         36.3883
336.08        36.35232
336.53        36.34529
336.98        36.39482
337.43        36.49419
337.88         36.6394
338.34        36.73124
338.79        36.63227
339.24        36.31372
339.69        35.82338
340.14        35.32807
340.59        35.09226
341.05        35.16524
341.50        35.47742
341.95        35.85549
342.40        36.01365
342.85        35.88254
343.30         35.5622
343.75        35.19016
344.20        34.97911
344.66        34.98772
345.11         35.1295
345.56        35.34549
346.01        35.53831
346.46         35.6628
346.91        35.75298
347.36        35.78937
347.81        35.73829
348.26        35.60722
348.72        35.41177
349.17        35.19208
349.62        35.06038
350.07        35.03662
350.52        35.08572
350.97        35.15343
351.42        35.14374
351.87        35.03445
352.32        34.87196
352.77        34.66597
353.22        34.43189
353.67        34.18699
354.13        33.92819
354.58        33.70419
355.03        33.63387
355.48         33.7263
355.93        33.95648
356.38        34.18415
356.83        34.17195
357.28        33.87766
357.73        33.38141
358.18        32.86803
358.63        32.61325
359.08        32.66496
359.53        32.92685
359.98        33.24372
360.43        33.35438
360.88        33.18534
361.33        32.83304
361.78        32.39664
362.23         32.0154
362.68        31.73412
363.13        31.50295
363.58        31.31458
364.03        31.16833
364.48        31.04752
364.93        30.94951
365.38        30.83972
365.83        30.65333
366.28        30.37912
366.73        30.04598
367.18        29.66577
367.63        29.26767
368.08        28.88388
368.53        28.51588
368.98        28.22524
369.43        28.09848
369.88        28.13198
370.33        28.28933
370.78        28.46464
371.23        28.47014
371.68        28.25388
372.13        27.87674
372.58        27.42303
373.03         27.0213
373.48        26.71497
373.93        26.46948
374.38        26.28837
374.83        26.17827
375.28         26.1283
375.72        26.13447
376.17        26.15556
376.62        26.11315
377.07        25.98804
377.52        25.79504
377.97        25.56304
378.42        25.34564
378.87        25.16209
379.32        25.00066
379.77        24.85604
380.22        24.71764
380.67        24.58282
381.11        24.46452
381.56        24.36324
382.01        24.28156
382.46        24.22376
382.91        24.19039
383.36        24.17615
383.81        24.17677
384.26        24.18282
384.71         24.1773
385.15        24.16018
385.60        24.15666
386.05        24.15404
386.50        24.14781
386.95        24.08762
387.40        23.89823
387.85        23.58849
388.29        23.18901
388.74        22.82611
389.19        22.60535
389.64        22.54642
390.09        22.60294
390.54        22.72132
390.98        22.80872
391.43        22.83887
391.88        22.83737
392.33        22.79999
392.78        22.73177
393.23        22.64396
393.67        22.49737
394.12        22.35332
394.57        22.32843
395.02        22.39881
395.47        22.39323
395.91        22.31753
396.36        22.30246
396.81        22.35381
397.26        22.39534
397.71        22.39381
398.15        22.35376
398.60        22.30009
399.05        22.14094
399.50        21.95246
399.95         22.0034
400.39        22.23543
400.84        22.23488
401.29        21.98638
401.74        21.82049
402.18        21.75269
402.63        21.57015
403.08        21.34103
403.53        21.26842
403.97        21.36438
404.42        21.56658
404.87        21.77692
405.32        21.84142
405.76        21.72281
406.21        21.48342
406.66        21.20534
407.11        21.01927
407.55        20.96825
408.00        21.01163
408.45        21.10808
408.90        21.15361
409.34        21.12847
409.79        21.11571
410.24        21.11499
410.68        21.07281
411.13         20.9967
411.58        20.91061
412.03        20.83053
412.47        20.78039
412.92        20.76373
413.37          20.776
413.81         20.8024
414.26        20.83678
414.71        20.86592
415.15        20.90039
415.60        20.91354
416.05        20.88345
416.49        20.80936
416.94         20.6975
417.39        20.58684
417.83        20.53889
418.28        20.56659
418.73        20.65073
419.17        20.75136
419.62        20.79645
420.07        20.77307
420.51        20.70161
420.96        20.62515
421.41        20.58274
421.85        20.57828
422.30        20.60289
422.74        20.64395
423.19        20.70553
423.64        20.77673
424.08        20.86965
424.53        20.93458
424.98        20.91661
425.42        20.81275
425.87        20.64545
426.31        20.47342
426.76        20.39866
427.21        20.43519
427.65        20.54645
428.10        20.70024
428.54        20.83651
428.99        20.93659
429.44        21.04588
429.88        21.10194
430.33        21.02206
430.77        20.81517
431.22        20.53904
431.66        20.29065
432.11        20.28016
432.56        20.46819
433.00         20.6311
433.45         20.6289
433.89        20.44735
434.34        20.00274
434.78        20.01342
435.23        20.58308
435.67        20.78614
436.12        20.64126
436.57        20.59851
437.01        20.69143
437.46        20.71838
437.90        20.67714
438.35        20.65919
438.79        20.64525
439.24        20.55212
439.68        20.41214
440.13        20.38932
440.57        20.46833
441.02         20.4957
441.46        20.45648
441.91        20.42604
442.35        20.39596
442.80        20.43217
443.24         20.4971
443.69        20.46523
444.13        20.34069
444.58        20.26774
445.02        20.24509
445.47        20.20159
445.91        20.16298
446.36        20.20674
446.80        20.33237
447.24        20.51368
447.69        20.69462
448.13        20.78678
448.58        20.77179
449.02        20.66835
449.47        20.53151
449.91        20.43562
450.36        20.40808
450.80        20.42309
451.25        20.44625
451.69        20.40965
452.13        20.30423
452.58        20.16001
453.02        20.01677
453.47        19.94701
453.91        19.96201
454.36        20.04074
454.80         20.1391
455.24        20.18677
455.69        20.17092
456.13         20.1036
456.58        20.03093
457.02        19.99586
457.46        20.01448
457.91        20.06807
458.35        20.12688
458.79        20.11562
459.24        20.03304
459.68        19.95941
460.13        19.95207
460.57        19.69481
461.01        19.76915
461.46        19.72926
461.90        19.75092
462.34        19.75965
462.79        19.85917
463.23        19.95189
463.68        20.04474
464.12        20.09959
464.56        20.10874
465.01        20.11602
465.45        20.08766
465.89        20.00759
466.34        19.88648
466.78        19.72125
467.22        19.57085
467.67        19.57294
468.11        19.66576
468.55        19.88704
468.99        20.12853
469.44        20.25831
469.88         20.2482
470.32        20.13042
470.77        19.97247
471.21        19.88759
471.65        19.90638
472.10        19.99437
472.54        20.09929
472.98        20.15193
473.42        20.13652
473.87        20.09199
474.31         20.0327
474.75        19.99804
475.20        20.00478
475.64        20.02263
476.08        20.04822
476.52        20.13038
476.97        20.27287
477.41        20.36514
477.85         20.3414
478.29        20.67212
478.74        20.45944
479.18        20.39939
479.62        20.27242
480.06        20.27326
480.50        20.42719
480.95         20.3134
481.39        20.58519
481.83        20.60484
482.27        20.57417
482.72        20.51541
483.16        20.46611
483.60        20.49043
484.04        20.57488
484.48        20.67719
484.93         20.8792
485.37        21.08247
485.81        21.15641
486.25        21.65478
486.69        20.97814
487.14        20.42799
487.58        20.79649
488.02        21.19571
488.46        21.08441
488.90        21.29844
489.34        21.24573
489.79        21.03418
490.23        21.46024
490.67        21.73096
491.11        22.02744
491.55        22.03372
491.99        21.81739
492.43        21.79072
492.88        21.97866
493.32        22.11974
493.76        22.19294
494.20        22.31769
494.64        22.49568
495.08        22.66765
495.52        22.81427
495.96        22.98126
496.41        23.13862
496.85        23.11684
497.29        22.98003
497.73           23.07
498.17        23.35988
498.61        23.45972
499.05        23.37959
499.49        23.43879
499.93        23.64399
500.37        23.81698
500.82        23.94216
501.26        24.07253
501.70          24.203
502.14        24.31668
502.58        24.41032
503.02        24.48179
503.46        24.53463
503.90        24.57465
504.34        24.61721
504.78        24.68452
505.22        24.78029
505.66        24.89659
506.10        25.01634
506.54        25.10973
506.98         25.1674
507.42        25.19935
507.86        25.21116
508.30        25.21138
508.74        25.20745
509.18        25.19935
509.62            25.2
510.06        25.23098
510.50        25.29587
510.94        25.38792
511.38        25.49038
511.82        25.57498
512.26        25.63063
512.70        25.66045
513.14        25.66973
513.58        25.66949
514.02        25.66432
514.46         25.6528
514.90        25.63232
515.34        25.59886
515.78        25.55635
516.22        25.51308
516.66        25.48215
517.10         25.4811
517.54        25.51224
517.98         25.5666
518.42        25.63376
518.86        25.69618
519.30        25.74431
519.74        25.77955
520.18        25.79376
520.62        25.77692
521.06        25.72927
521.50        25.65279
521.93        25.56714
522.37        25.49971
522.81        25.46196
523.25        25.45116
523.69        25.44877
524.13        25.42243
524.57         25.3676
525.01        25.29582
525.45         25.2321
525.89        25.21542
526.32        25.25066
526.76        25.31826
527.20        25.38969
527.64        25.42085
528.08        25.39873
528.52        25.33892
528.96        25.25352
529.40        25.16149
529.83        25.07015
530.27        24.98203
530.71         24.9049
531.15        24.85759
531.59        24.84127
532.03        24.84921
532.46        24.86198
532.90        24.85217
533.34        24.81431
533.78        24.73963
534.22        24.63987
534.66         24.5764
535.09        24.53215
535.53        24.41413
535.97        24.25257
536.41        24.18266
536.85        24.21565
537.28        24.28997
537.72        24.36903
538.16        24.41739
538.60        24.42218
539.04        24.39351
539.47        24.36551
539.91         24.4065
540.35        24.52038
540.79        24.69273
541.22        24.88212
541.66        24.98594
542.10        25.05235
542.54        25.05502
542.97        25.04351
543.41        25.07963
543.85        25.17486
544.29        25.31103
544.72        25.46892
545.16        25.63189
545.60        25.78685
546.04        25.93795
546.47         26.0836
546.91        26.22402
547.35        26.35907
547.79        26.47973
548.22        26.56942
548.66        26.66267
549.10        26.76474
549.53        26.75017
549.97        26.87571
550.41        27.00048
550.84        27.19723
551.28        27.45555
551.72        27.73406
552.15        27.93591
552.59        28.05672
553.03        28.15651
553.46        28.24829
553.90        28.37134
554.34        28.53467
554.77        28.67658
555.21        28.76009
555.65        29.04106
556.08        28.96505
556.52        29.00397
556.96        29.00557
557.39        29.01663
557.83        29.05459
558.27        29.06876
558.70        29.07619
559.14        29.24592
559.57        29.31621
560.01        29.53405
560.45        29.74088
560.88        29.78736
561.32        29.72336
561.75        29.59268
562.19        29.49982
562.63        29.72972
563.06        30.16396
563.50        30.16192
563.93        29.78631
564.37         29.7201
564.80        29.97147
565.24        30.16638
565.68        30.27202
566.11        30.41418
566.55        30.59223
566.98        30.75446
567.42        30.91013
567.85        31.04942
568.29        31.18284
568.72        31.29846
569.16        31.42936
569.60        31.51749
570.03         31.5406
570.47        31.63414
570.90         31.9216
571.34        31.62526
571.77        31.97045
572.21        32.05472
572.64        32.23344
573.08        32.21098
573.51        32.69117
573.95        32.71815
574.38        32.59726
574.82        32.96595
