SpectraSmart Spectrum 2.9.0.0
--------- Device Information -----------
Spectrum Name :  反射率_0
Saving Time :  2024/05/01 16:52:30
Spectro-Module Model Name : SE2030-DUVN
Spectro-Module Serial Number : OS361AC55029948
Wavelength Start : 200
Wavelength End : 1025
Wavelength Unit : Wavelength(nm)
Spectrum Unit : Reflectance(%)
-----------Spectrum Setting ------------
Integration Time : 20ms
Average : 10
Boxcar : 0
Background removal :  enabled
linearity correction :  enabled
SC :  disabled
Intensity correction :  disabled
DWT denoise :  enabled
savitzky-golay :  disabled
FFT :  disabled
Running average :  disabled
Kalman :  disabled
High pass :  disabled
---------------BEGIN--------------------
Wavelength(nm)             Reflectance(%)
200.29               0
200.75        124.9405
201.21        505.9104
201.67       -199.0508
202.13       -69.86176
202.58       -30.61345
203.04       -8.400973
203.50        3.963782
203.96        5.977536
204.42       -3.547179
204.88       -44.31675
205.34       -1136.561
205.80        191.8976
206.26        132.5255
206.72        120.9244
207.18        159.5212
207.64         8.26227
208.10        50.94372
208.55        56.69351
209.01        55.59098
209.47        52.10447
209.93        46.74335
210.39         38.4378
210.85          27.225
211.31        9.448045
211.77        -44.9118
212.23        360.8207
212.69        119.1475
213.14        121.8799
213.60        211.1183
214.06       -849.0931
214.52       -118.1194
214.98       -69.70486
215.44       -57.98522
215.90        -62.7448
216.36       -243.3969
216.81        38.63331
217.27        49.80548
217.73       -197.4782
218.19       -70.85114
218.65       -69.58143
219.11       -90.59714
219.57        -165.086
220.02       -438.6425
220.48       -183.2436
220.94       -39.31254
221.40       -5.516496
221.86        5.709483
222.32        9.878547
222.77        11.74153
223.23        12.56927
223.69        13.50796
224.15        16.12211
224.61        19.60989
225.06        22.25093
225.52        24.50999
225.98        27.28484
226.44         31.1528
226.90        36.58715
227.36        42.87028
227.81        45.57889
228.27         43.0726
228.73        38.45271
229.19        34.35609
229.65        31.93261
230.10        30.78458
230.56        30.51515
231.02        30.93859
231.48        31.68319
231.93        32.38825
232.39        33.18314
232.85        34.07719
233.31        35.17814
233.77        36.41842
234.22        37.65769
234.68        38.69997
235.14        39.49977
235.60        40.09516
236.05        40.56847
236.51        40.90667
236.97        41.05121
237.43        40.81986
237.88        40.20247
238.34        38.94692
238.80        36.91875
239.26        33.68039
239.71        28.62132
240.17        20.99017
240.63        12.55644
241.08        7.988311
241.54        9.177913
242.00        13.66433
242.46        18.88569
242.91        25.70127
243.37        35.71116
243.83        53.67932
244.28        77.35065
244.74        88.80103
245.20        88.24903
245.66        83.17019
246.11        76.96764
246.57        69.00947
247.03        56.07718
247.48        33.42529
247.94        2.120849
248.40       -25.53975
248.85       -43.04328
249.31       -42.46261
249.77       -25.29232
250.22       -2.729142
250.68        18.61203
251.14        33.93704
251.59        40.96732
252.05        40.94268
252.51        32.52702
252.96        6.711493
253.42       -32.15197
253.88       -28.68679
254.33        7.503907
254.79        31.34638
255.25        42.44467
255.70        47.67912
256.16        51.10863
256.62        53.39541
257.07        54.63453
257.53        55.53328
257.99        56.01852
258.44        56.21392
258.90        56.67934
259.35        57.08916
259.81        57.58859
260.27        57.87102
260.72        57.58909
261.18        57.02551
261.63         56.1204
262.09        55.20265
262.55        54.22852
263.00        53.15073
263.46        52.10963
263.91        51.06417
264.37        50.27392
264.83        49.67443
265.28        49.20366
265.74        48.77887
266.19        48.02509
266.65        47.02656
267.11        45.81976
267.56        44.69228
268.02        44.19168
268.47        44.34079
268.93        44.91203
269.38        45.50542
269.84        45.42284
270.30        44.53599
270.75         43.0923
271.21        41.44302
271.66        39.98915
272.12        38.93868
272.57        38.10926
273.03        37.54961
273.48        37.27295
273.94        37.24118
274.39        37.39415
274.85        37.53897
275.31        37.31955
275.76         36.6813
276.22        35.79385
276.67        34.81058
277.13        34.07111
277.58        33.57816
278.04          33.277
278.49        33.03434
278.95        32.77253
279.40        32.40866
279.86        32.03099
280.31        31.61444
280.77        31.21945
281.22        30.80592
281.68        30.41465
282.13        29.98698
282.59        29.54277
283.04        29.05794
283.50        28.58737
283.95        28.15966
284.41        27.87703
284.86        27.73598
285.32        27.71648
285.77        27.75884
286.22        27.81885
286.68        27.87757
287.13        27.92604
287.59        27.94766
288.04        27.87243
288.50        27.72769
288.95        27.49734
289.41        27.28767
289.86        27.17198
290.32        27.19155
290.77        27.30985
291.22         27.4638
291.68        27.54452
292.13        27.53015
292.59        27.48735
293.04        27.47539
293.50        27.63943
293.95        27.98622
294.40        28.47061
294.86        29.02582
295.31        29.55817
295.77         30.0303
296.22        30.46815
296.68        30.87395
297.13        31.23311
297.58        31.57431
298.04        31.92343
298.49        32.32306
298.95        32.87888
299.40        33.58028
299.85         34.3805
300.31        35.23422
300.76        36.07084
301.21         36.8608
301.67        37.61564
302.12        38.26159
302.58        38.71952
303.03        38.96244
303.48        39.04981
303.94        39.11069
304.39        39.26303
304.84        39.57114
305.30        39.99196
305.75         40.4711
306.20        40.94308
306.66         41.3785
307.11        41.76453
307.57        42.08932
308.02        42.26986
308.47        42.32138
308.93        42.27417
309.38        42.16142
309.83        42.09854
310.29        42.12304
310.74        42.20115
311.19        42.30678
311.65        42.38015
312.10        42.39578
312.55        42.37584
313.00        42.35142
313.46        42.36837
313.91        42.42517
314.36        42.49697
314.82         42.5345
315.27        42.47794
315.72        42.30785
316.18        42.05857
316.63        41.75705
317.08        41.45712
317.53        41.17803
317.99        40.91349
318.44        40.65964
318.89         40.4196
319.35        40.19755
319.80        40.00024
320.25        39.82988
320.70         39.6822
321.16        39.54463
321.61        39.41886
322.06        39.29211
322.51        39.15413
322.97        38.98939
323.42        38.80848
323.87        38.59934
324.32        38.35806
324.78        38.08441
325.23        37.80238
325.68        37.51488
326.13        37.23266
326.59        36.95396
327.04        36.69466
327.49        36.46265
327.94          36.282
328.39         36.1514
328.85        36.04688
329.30        35.95572
329.75        35.81063
330.20        35.59608
330.66        35.32277
331.11        35.02823
331.56        34.73706
332.01        34.46886
332.46        34.21775
332.92         33.9977
333.37        33.86819
333.82        33.82405
334.27        33.86287
334.72        33.93395
335.17         33.9469
335.63        33.86226
336.08        33.70939
336.53        33.54087
336.98        33.46453
337.43        33.50364
337.88        33.63252
338.34        33.74916
338.79        33.70812
339.24        33.46977
339.69        33.08185
340.14        32.68824
340.59         32.5145
341.05        32.59841
341.50        32.87566
341.95        33.18409
342.40         33.2607
342.85         33.0509
343.30        32.65841
343.75        32.22777
344.20        31.98015
344.66        31.97665
345.11        32.12724
345.56        32.37986
346.01        32.64445
346.46         32.8681
346.91        33.07582
347.36        33.20972
347.81        33.18194
348.26        32.99132
348.72         32.6666
349.17        32.29633
349.62        32.07151
350.07        32.03228
350.52        32.12625
350.97        32.25183
351.42        32.23307
351.87        32.03354
352.32         31.7314
352.77        31.39228
353.22        31.11468
353.67        30.93127
354.13        30.80552
354.58        30.73984
355.03         30.7817
355.48        30.92146
355.93        31.15784
356.38        31.37482
356.83        31.37401
357.28        31.12675
357.73        30.69787
358.18        30.26462
358.63        30.09638
359.08        30.23625
359.53        30.58813
359.98        30.99232
360.43        31.17661
360.88         31.0607
361.33        30.74145
361.78        30.31307
362.23        29.90921
362.68        29.58022
363.13        29.28524
363.58        29.03694
364.03        28.86526
364.48        28.76367
364.93        28.72274
365.38        28.69672
365.83         28.6034
366.28        28.42016
366.73        28.17171
367.18        27.86731
367.63        27.53131
368.08         27.1951
368.53        26.86771
368.98        26.59715
369.43        26.45123
369.88        26.43072
370.33        26.50397
370.78        26.62216
371.23        26.69374
371.68        26.67997
372.13        26.60622
372.58        26.45859
373.03        26.21907
373.48        25.90155
373.93        25.51298
374.38        25.14121
374.83        24.93756
375.28        24.93043
375.72        25.06803
376.17        25.24587
376.62        25.28974
377.07        25.15628
377.52         24.8999
377.97        24.58278
378.42        24.30387
378.87        24.10247
379.32        23.95492
379.77        23.85035
380.22         23.7738
380.67        23.71618
381.11         23.6843
381.56        23.68121
382.01        23.71178
382.46        23.76808
382.91        23.83898
383.36        23.87988
383.81          23.831
384.26        23.68086
384.71        23.44051
385.15        23.16872
385.60        22.98002
386.05        22.89322
386.50        22.88926
386.95        22.88992
387.40         22.7718
387.85        22.52443
388.29        22.18272
388.74        21.88577
389.19        21.76302
389.64        21.82906
390.09        22.01852
390.54        22.23373
390.98        22.31608
391.43        22.23712
391.88        22.06226
392.33        21.84186
392.78        21.65484
393.23        21.52866
393.67        21.39869
394.12        21.31364
394.57        21.36904
395.02        21.53031
395.47        21.64009
395.91        21.66648
396.36        21.67608
396.81        21.66812
397.26        21.58476
397.71        21.45617
398.15        21.38368
398.60        21.40609
399.05        21.40085
399.50        21.37807
399.95        21.51365
400.39         21.7313
400.84        21.64479
401.29        21.28676
401.74        21.06035
402.18        21.00186
402.63        20.88352
403.08        20.71242
403.53        20.59435
403.97        20.53147
404.42        20.50548
404.87        20.49662
405.32        20.46999
405.76        20.41327
406.21        20.34203
406.66        20.27818
407.11        20.25883
407.55        20.29454
408.00        20.37148
408.45        20.45415
408.90        20.45359
409.34        20.36266
409.79        20.25287
410.24        20.15508
410.68        20.06651
411.13         20.0019
411.58        19.98042
412.03        19.97485
412.47         19.9277
412.92        19.82789
413.37        19.69975
413.81        19.59045
414.26        19.58549
414.71        19.68811
415.15        19.87513
415.60        20.06731
416.05        20.15276
416.49        20.10017
416.94        19.94231
417.39        19.74635
417.83        19.61981
418.28        19.59339
418.73        19.63366
419.17        19.70007
419.62         19.7209
420.07        19.68239
420.51        19.61145
420.96         19.5451
421.41        19.50908
421.85        19.50611
422.30        19.53016
422.74        19.57559
423.19        19.65811
423.64         19.7683
424.08        19.91031
424.53        20.03177
424.98        20.07082
425.42        20.01879
425.87        19.90081
426.31        19.76263
426.76        19.68814
427.21        19.69072
427.65        19.73726
428.10        19.82601
428.54        19.94727
428.99        20.08991
429.44        20.28274
429.88        20.42238
430.33        20.36654
430.77        20.11415
431.22        19.74174
431.66        19.38964
432.11        19.31843
432.56        19.49643
433.00        19.76615
433.45        19.96006
433.89        19.77094
434.34         19.1138
434.78          19.411
435.23        19.84123
435.67        20.13252
436.12        20.02271
436.57        20.05265
437.01        20.23031
437.46        20.29255
437.90        20.23409
438.35        20.15279
438.79         20.0656
439.24        19.94502
439.68        19.83967
440.13        19.89684
440.57        20.05629
441.02        20.13615
441.46        20.11638
441.91        19.96146
442.35        19.75079
442.80        19.93943
443.24        20.37645
443.69        20.26181
444.13        19.68329
444.58         19.4638
445.02        19.62379
445.47        19.72724
445.91        19.75039
446.36        19.86144
446.80        20.04416
447.24        20.24566
447.69        20.42877
448.13        20.53587
448.58        20.55575
449.02         20.5035
449.47        20.41579
449.91        20.33607
450.36        20.28777
450.80        20.25658
451.25        20.23671
451.69        20.20273
452.13        20.15184
452.58        20.09918
453.02        20.04683
453.47        20.00789
453.91        19.98281
454.36        19.97247
454.80         19.9696
455.24        19.96286
455.69        19.95339
456.13        19.93059
456.58        19.91884
457.02        19.92856
457.46        19.96517
457.91        20.02382
458.35        20.07085
458.79         20.0246
459.24        19.88775
459.68        19.73965
460.13        19.66247
460.57        19.38464
461.01         19.4835
461.46        19.51069
461.90        19.60246
462.34         19.6218
462.79        19.66043
463.23        19.64408
463.68        19.62537
464.12        19.64224
464.56        19.70214
465.01         19.8148
465.45        19.91066
465.89        19.92669
466.34        19.86092
466.78        19.72662
467.22        19.58312
467.67        19.56737
468.11        19.62333
468.55        19.78835
468.99        19.97485
469.44        20.08514
469.88        20.09803
470.32        20.03876
470.77        19.95385
471.21        19.91814
471.65        19.95118
472.10        20.02958
472.54        20.11441
472.98        20.15838
473.42        20.15171
473.87        20.12386
474.31        20.08519
474.75        20.07025
475.20         20.0935
475.64         20.1288
476.08        20.16912
476.52         20.2562
476.97        20.39491
477.41        20.47754
477.85         20.4494
478.29        20.80168
478.74        20.63477
479.18        20.64268
479.62        20.59266
480.06        20.66371
480.50        20.87553
480.95        20.80056
481.39        21.11334
481.83        21.17361
482.27        21.19107
482.72        21.18197
483.16        21.18073
483.60        21.24815
484.04        21.36432
484.48        21.50603
484.93        21.76529
485.37        22.01366
485.81        22.05838
486.25        22.74682
486.69        21.77249
487.14        21.29034
487.58         21.9071
488.02        22.65008
488.46        22.30634
488.90        22.27185
489.34        22.44418
489.79        22.40388
490.23        22.91321
490.67        23.15072
491.11         23.3113
491.55        23.39029
491.99        23.41944
492.43        23.49044
492.88        23.60765
493.32        23.68887
493.76        23.75829
494.20        23.92866
494.64        24.21231
495.08        24.54403
495.52        24.86136
495.96        25.14715
496.41        25.35137
496.85        25.30627
497.29        25.11105
497.73        25.18906
498.17        25.52416
498.61        25.66814
499.05        25.62502
499.49        25.74149
499.93        26.01818
500.37        26.25871
500.82        26.43217
501.26        26.57523
501.70        26.68124
502.14         26.7434
502.58        26.77453
503.02        26.79933
503.46        26.83148
503.90        26.86844
504.34        26.93524
504.78        27.06758
505.22        27.26503
505.66          27.515
506.10        27.76191
506.54         27.9118
506.98        27.94391
507.42        27.88846
507.86        27.79954
508.30        27.76359
508.74        27.80792
509.18        27.90986
509.62        28.04924
510.06        28.19101
510.50        28.31769
510.94        28.43674
511.38        28.54542
511.82        28.63777
512.26        28.71043
512.70        28.75876
513.14        28.77809
513.58        28.76653
514.02         28.7285
514.46        28.67043
514.90         28.6095
515.34        28.57125
515.78        28.56386
516.22        28.58374
516.66        28.61953
517.10        28.65037
517.54        28.66957
517.98        28.68153
518.42         28.6918
518.86        28.70954
519.30         28.7363
519.74        28.76656
520.18        28.79226
520.62        28.80338
521.06        28.79697
521.50        28.77437
521.93        28.74603
522.37        28.72275
522.81        28.71037
523.25        28.70774
523.69        28.70024
524.13        28.66395
524.57        28.59793
525.01        28.51226
525.45        28.43222
525.89        28.39758
526.32        28.41294
526.76        28.45865
527.20        28.50845
527.64        28.52039
528.08        28.48297
528.52        28.41505
528.96        28.32036
529.40        28.20485
529.83        28.07459
530.27        27.93437
530.71        27.81442
531.15        27.76936
531.59        27.80473
532.03        27.90312
532.46        28.00516
532.90        28.02079
533.34        27.93272
533.78        27.75004
534.22        27.53441
534.66        27.42726
535.09        27.42473
535.53        27.40184
535.97        27.34432
536.41         27.3286
536.85        27.35057
537.28        27.36345
537.72        27.37343
538.16        27.41571
538.60        27.48973
539.04        27.57692
539.47        27.66773
539.91        27.76722
540.35        27.86538
540.79        27.97525
541.22         28.0841
541.66        28.12998
542.10        28.18387
542.54        28.19557
542.97        28.21439
543.41        28.29977
543.85         28.4563
544.29        28.66953
544.72        28.89605
545.16        29.08215
545.60        29.21029
546.04        29.29478
546.47        29.37303
546.91        29.51046
547.35        29.72076
547.79        29.97328
548.22        30.20733
548.66        30.39902
549.10        30.53985
549.53        30.50494
549.97        30.61615
550.41        30.76142
550.84        31.03424
551.28        31.40248
551.72        31.79336
552.15        32.05665
552.59        32.17882
553.03        32.24788
553.46        32.29477
553.90         32.3862
554.34         32.5425
554.77        32.68705
555.21        32.78424
555.65        33.13644
556.08        33.10749
556.52        33.22889
556.96        33.30737
557.39        33.36731
557.83        33.42242
558.27         33.4227
558.70        33.39794
559.14        33.56049
559.57        33.61909
560.01        33.85441
560.45        34.08867
560.88        34.15572
561.32        34.11194
561.75        34.00562
562.19        33.94986
562.63        34.26125
563.06        34.79884
563.50        34.82194
563.93        34.40218
564.37        34.33044
564.80        34.61671
565.24        34.82788
565.68         34.9244
566.11        35.04906
566.55        35.20529
566.98        35.34008
567.42        35.47287
567.85        35.60667
568.29         35.7583
568.72        35.89872
569.16        36.05751
569.60        36.21511
570.03        36.33312
570.47        36.46694
570.90        36.66521
571.34        36.55143
571.77         36.8148
572.21        36.96589
572.64        37.22126
573.08        37.17732
573.51        37.59604
573.95        37.83019
574.38        37.50032
574.82        37.79404
