SpectraSmart Spectrum 2.9.0.0
--------- Device Information -----------
Spectrum Name :  反射率_0
Saving Time :  2024/05/01 17:22:44
Spectro-Module Model Name : SE2030-DUVN
Spectro-Module Serial Number : OS361AC55029948
Wavelength Start : 200
Wavelength End : 1025
Wavelength Unit : Wavelength(nm)
Spectrum Unit : Reflectance(%)
-----------Spectrum Setting ------------
Integration Time : 20ms
Average : 10
Boxcar : 0
Background removal :  enabled
linearity correction :  enabled
SC :  disabled
Intensity correction :  disabled
DWT denoise :  enabled
savitzky-golay :  disabled
FFT :  disabled
Running average :  disabled
Kalman :  disabled
High pass :  disabled
---------------BEGIN--------------------
Wavelength(nm)             Reflectance(%)
200.29               0
200.75        416.6898
201.21        1552.317
201.67       -591.1092
202.13       -212.1772
202.58       -103.4769
203.04        -45.1001
203.50       -12.39167
203.96        -1.74412
204.42       -11.58082
204.88       -69.93441
205.34        -1678.72
205.80        269.6471
206.26        170.8727
206.72        128.0004
207.18        64.86035
207.64        148.7973
208.10        86.83704
208.55         57.9283
209.01        36.36342
209.47        22.37748
209.93        13.11757
210.39        3.085923
210.85       -9.500559
211.31       -30.91537
211.77       -101.1517
212.23        432.6996
212.69        114.3723
213.14        115.3728
213.60        221.8005
214.06       -1053.687
214.52       -177.2859
214.98       -124.3858
215.44       -122.1544
215.90       -166.1349
216.36       -957.9265
216.81        253.0667
217.27        285.8208
217.73       -646.3511
218.19       -160.5898
218.65       -134.6637
219.11       -166.1693
219.57       -300.0321
220.02       -830.6282
220.48       -394.8621
220.94       -113.4919
221.40       -44.77174
221.86       -20.48906
222.32       -9.195643
222.77       -1.254684
223.23        6.912948
223.69        16.33656
224.15        22.63499
224.61        22.75219
225.06        19.62029
225.52        17.17025
225.98        17.38902
226.44        20.17863
226.90        25.23042
227.36        31.75419
227.81        35.07238
228.27        33.13841
228.73        29.15509
229.19        25.41691
229.65        22.78774
230.10        20.96618
230.56        19.58674
231.02        18.94876
231.48        20.01745
231.93        22.63079
232.39        25.88064
232.85        29.00613
233.31        31.54403
233.77        33.47383
234.22        34.96778
234.68        35.90276
235.14         36.2615
235.60        36.08902
236.05         35.2872
236.51        33.94452
236.97        32.88655
237.43        32.79169
237.88         33.7216
238.34        34.68047
238.80        34.36982
239.26        32.11796
239.71         27.4919
240.17        19.38848
240.63        9.041661
241.08        1.338129
241.54       -1.131208
242.00       0.2090895
242.46        2.746895
242.91        6.434156
243.37        12.13644
243.83        23.92864
244.28        42.86375
244.74        55.16851
245.20        58.23452
245.66        56.01244
246.11        50.70646
246.57         42.0122
247.03        26.84076
247.48        1.386862
247.94       -27.68746
248.40       -45.15787
248.85       -48.53974
249.31       -37.49028
249.77       -19.79526
250.22       -3.112719
250.68        10.63621
251.14        19.56868
251.59        22.66653
252.05        20.37261
252.51        9.935106
252.96       -18.26718
253.42       -57.58342
253.88        -48.6475
254.33       -5.346837
254.79        20.75495
255.25        30.93194
255.70        34.48444
256.16        36.10872
256.62        37.92654
257.07        41.11539
257.53        45.16264
257.99        48.95499
258.44        51.79855
258.90        53.55373
259.35        54.17334
259.81        54.30585
260.27        54.06351
260.72        53.62022
261.18        53.29924
261.63        52.78628
262.09        52.26926
262.55        51.60608
263.00        50.72297
263.46        49.81318
263.91         48.8002
264.37        47.86238
264.83        46.97058
265.28        46.11935
265.74        45.32208
266.19        44.35246
266.65        43.30846
267.11        42.17899
267.56        41.19297
268.02         40.7975
268.47        40.99127
268.93         41.5847
269.38        42.18462
269.84        42.10492
270.30        41.21898
270.75        39.74026
271.21        38.05709
271.66        36.64091
272.12        35.69186
272.57        35.01014
273.03        34.52686
273.48        34.07841
273.94        33.62657
274.39        33.21525
274.85        32.82317
275.31        32.33905
275.76        31.75051
276.22        31.12534
276.67         30.5009
277.13        30.04583
277.58        29.71844
278.04        29.49218
278.49        29.27686
278.95        29.05018
279.40        28.74243
279.86        28.41404
280.31        27.99518
280.77        27.47736
281.22        26.83994
281.68        26.16768
282.13        25.49958
282.59        24.96985
283.04        24.57675
283.50        24.32764
283.95        24.17833
284.41        24.10836
284.86        24.07896
285.32        24.09147
285.77        24.13649
286.22        24.23774
286.68        24.38853
287.13        24.55529
287.59         24.6682
288.04        24.57963
288.50        24.30712
288.95        23.87669
289.41        23.46508
289.86        23.24845
290.32        23.28047
290.77        23.49684
291.22         23.7735
291.68        23.90905
292.13        23.86566
292.59        23.74315
293.04        23.65067
293.50        23.80663
293.95         24.2354
294.40        24.85882
294.86        25.57333
295.31         26.2336
295.77        26.77532
296.22        27.22863
296.68        27.60058
297.13        27.88894
297.58        28.12533
298.04         28.3352
298.49        28.54558
298.95        28.84048
299.40        29.22083
299.85         29.6599
300.31        30.16909
300.76        30.75672
301.21        31.40582
301.67         32.1141
302.12        32.74481
302.58        33.11442
303.03         33.1785
303.48        33.01904
303.94        32.84174
304.39        32.88704
304.84        33.22171
305.30        33.75529
305.75        34.32531
306.20        34.69574
306.66        34.81339
307.11        34.74147
307.57        34.58829
308.02        34.45876
308.47        34.40238
308.93        34.38169
309.38         34.3531
309.83        34.30545
310.29        34.23689
310.74        34.16142
311.19        34.07407
311.65         33.9454
312.10        33.77289
312.55        33.56871
313.00        33.38474
313.46        33.30478
313.91         33.3314
314.36        33.42683
314.82        33.51994
315.27        33.50894
315.72         33.3562
316.18        33.09874
316.63        32.75692
317.08        32.36979
317.53        31.95867
317.99        31.52254
318.44        31.08423
318.89        30.69829
319.35        30.38581
319.80        30.14489
320.25        29.95814
320.70        29.78251
321.16        29.59708
321.61         29.4165
322.06         29.2429
322.51        29.08696
322.97        28.94299
323.42        28.80909
323.87        28.66826
324.32        28.50916
324.78        28.32178
325.23        28.11743
325.68        27.89772
326.13        27.67197
326.59        27.43525
327.04        27.20009
327.49        26.94928
327.94        26.66382
328.39        26.34403
328.85        25.99263
329.30        25.65243
329.75        25.36566
330.20         25.1462
330.66         24.9761
331.11        24.83999
331.56        24.68069
332.01        24.48271
332.46        24.26347
332.92        24.02822
333.37        23.81526
333.82        23.62973
334.27        23.46824
334.72        23.34157
335.17        23.27281
335.63        23.25074
336.08        23.26936
336.53        23.30795
336.98        23.34402
337.43        23.36252
337.88        23.37348
338.34        23.31998
338.79        23.12755
339.24        22.79196
339.69        22.34248
340.14        21.91582
340.59        21.72757
341.05        21.80877
341.50        22.09789
341.95        22.43426
342.40        22.55192
342.85        22.38816
343.30        22.03916
343.75        21.62387
344.20        21.32811
344.66        21.21171
345.11        21.19937
345.56        21.27588
346.01         21.4142
346.46        21.57982
346.91        21.77877
347.36        21.93454
347.81        21.92645
348.26        21.74294
348.72        21.42909
349.17        21.06244
349.62        20.81288
350.07        20.72186
350.52        20.73646
350.97        20.80151
351.42        20.81907
351.87        20.76045
352.32        20.67579
352.77         20.5542
353.22        20.37601
353.67         20.1543
354.13        19.89278
354.58        19.67154
355.03        19.64815
355.48        19.84028
355.93        20.20838
356.38         20.5957
356.83        20.73328
357.28        20.56703
357.73        20.18857
358.18        19.78108
358.63        19.62158
359.08        19.76282
359.53        20.10159
359.98         20.5049
360.43        20.74798
360.88        20.75414
361.33        20.60349
361.78         20.3448
362.23        20.04365
362.68        19.73895
363.13        19.41341
363.58        19.11715
364.03        18.94049
364.48        18.89744
364.93        18.96354
365.38        19.07367
365.83         19.1166
366.28        19.05911
366.73        18.93033
367.18        18.74859
367.63        18.55119
368.08        18.36255
368.53        18.17538
368.98        18.01231
369.43        17.90758
369.88        17.86113
370.33        17.86169
370.78        17.88269
371.23        17.87323
371.68        17.81443
372.13        17.71983
372.58        17.59158
373.03         17.4331
373.48        17.25256
373.93        17.05239
374.38        16.86112
374.83        16.72795
375.28        16.66632
375.72        16.66335
376.17        16.69099
376.62        16.70203
377.07        16.67727
377.52        16.61944
377.97        16.53846
378.42        16.45205
378.87        16.36625
379.32        16.28142
379.77        16.17722
380.22        16.02307
380.67        15.82084
381.11        15.58692
381.56        15.37722
382.01        15.28439
382.46        15.32789
382.91        15.48189
383.36        15.66267
383.81        15.74345
384.26        15.68974
384.71        15.52205
385.15        15.32047
385.60        15.23087
386.05        15.27463
386.50        15.41552
386.95        15.53432
387.40        15.44971
387.85        15.14901
388.29        14.69977
388.74         14.2927
389.19        14.14447
389.64         14.2834
390.09         14.6143
390.54        14.99099
390.98        15.17775
391.43        15.11744
391.88        14.90424
392.33         14.6155
392.78        14.36374
393.23        14.18948
393.67        14.03201
394.12        13.92849
394.57        13.94994
395.02        14.07074
395.47        14.18627
395.91        14.26145
396.36        14.30831
396.81        14.31826
397.26        14.25882
397.71        14.14879
398.15        14.05762
398.60        14.01619
399.05        13.94295
399.50        13.86296
399.95        13.91367
400.39        14.04896
400.84        14.02024
401.29        13.82175
401.74        13.66712
402.18        13.56946
402.63        13.39307
403.08        13.19175
403.53        13.11002
403.97        13.15833
404.42         13.2951
404.87        13.43982
405.32        13.46313
405.76        13.33579
406.21        13.10724
406.66         12.8566
407.11        12.71086
407.55        12.70631
408.00        12.80414
408.45        12.94524
408.90         13.0076
409.34        12.96342
409.79         12.8798
410.24        12.79159
410.68        12.71603
411.13        12.66925
411.58        12.65243
412.03        12.64743
412.47        12.62089
412.92        12.56469
413.37        12.49204
413.81        12.42845
414.26        12.42059
414.71        12.46864
415.15        12.56332
415.60        12.65006
416.05         12.6544
416.49        12.55929
416.94         12.3882
417.39        12.20273
417.83        12.10136
418.28        12.10611
418.73        12.18375
419.17        12.27931
419.62        12.29627
420.07        12.21742
420.51        12.07813
420.96        11.92759
421.41        11.81901
421.85        11.76648
422.30        11.75399
422.74        11.77547
423.19        11.83489
423.64        11.92127
424.08        12.03913
424.53        12.14043
424.98        12.16167
425.42        12.09085
425.87        11.95164
426.31        11.78775
426.76         11.6821
427.21         11.6503
427.65        11.66632
428.10        11.72307
428.54        11.80416
428.99        11.89607
429.44        12.02227
429.88         12.1189
430.33        12.09302
430.77        11.94116
431.22        11.70598
431.66        11.47634
432.11        11.41386
432.56        11.50482
433.00        11.67477
433.45        11.79406
433.89        11.60924
434.34        11.13888
434.78        11.12973
435.23        11.62085
435.67        11.80414
436.12        11.67323
436.57        11.66037
437.01        11.77202
437.46        11.78937
437.90        11.70391
438.35        11.59638
438.79        11.49053
439.24        11.39386
439.68        11.33742
440.13        11.39422
440.57        11.51405
441.02        11.56419
441.46         11.5279
441.91        11.39684
442.35        11.22776
442.80        11.29463
443.24        11.51297
443.69        11.42422
444.13        11.08293
444.58        10.96014
445.02        11.06567
445.47        11.15438
445.91        11.19461
446.36        11.25184
446.80        11.31433
447.24         11.3609
447.69         11.3977
448.13        11.43826
448.58         11.4833
449.02        11.52546
449.47        11.55666
449.91        11.55599
450.36        11.52551
450.80        11.47246
451.25        11.41133
451.69        11.35554
452.13        11.31252
452.58        11.28175
453.02        11.25958
453.47        11.24844
453.91        11.24512
454.36        11.25226
454.80         11.2621
455.24        11.25782
455.69        11.23844
456.13        11.19971
456.58        11.16346
457.02        11.14752
457.46          11.159
457.91        11.19304
458.35         11.2235
458.79        11.19186
459.24        11.09937
459.68        10.99253
460.13        10.93122
460.57        10.77937
461.01        10.86292
461.46        10.92587
461.90        11.02946
462.34        11.06864
462.79        11.08792
463.23        11.04936
463.68        11.00477
464.12        11.01045
464.56        11.07756
465.01        11.19903
465.45        11.30518
465.89         11.3142
466.34        11.22153
466.78        11.04845
467.22        10.86784
467.67        10.82498
468.11        10.90361
468.55        11.10212
468.99         11.3275
469.44        11.45614
469.88        11.46035
470.32        11.37635
470.77        11.25783
471.21        11.18862
471.65         11.1966
472.10        11.25269
472.54        11.33159
472.98        11.40357
473.42        11.45696
473.87        11.51077
474.31        11.55267
474.75        11.57384
475.20        11.57818
475.64        11.55696
476.08        11.53074
476.52         11.5631
476.97        11.66627
477.41        11.77161
477.85        11.82165
478.29        12.05929
478.74        11.95592
479.18        11.92532
479.62         11.8631
480.06         11.9223
480.50        12.11875
480.95        12.17669
481.39         12.4585
481.83        12.54135
482.27         12.5419
482.72        12.49123
483.16        12.42006
483.60        12.41507
484.04        12.49126
484.48        12.53369
484.93        12.61728
485.37         12.9397
485.81        13.29958
486.25        13.55034
486.69         12.7274
487.14        12.42123
487.58        13.06629
488.02        13.45609
488.46        13.22307
488.90        13.47468
489.34         13.2081
489.79        13.17685
490.23        13.63118
490.67        13.92979
491.11        14.15157
491.55        14.16294
491.99        14.03317
492.43        14.04779
492.88        14.22844
493.32        14.36631
493.76        14.45228
494.20        14.59771
494.64        14.80622
495.08        15.02818
495.52        15.22839
495.96        15.41064
496.41        15.54993
496.85        15.52091
497.29        15.40335
497.73        15.52846
498.17         15.8705
498.61        16.04707
499.05        16.04141
499.49        16.13241
499.93        16.31933
500.37        16.43161
500.82        16.47854
501.26        16.55561
501.70        16.67092
502.14        16.79745
502.58        16.91344
503.02        16.98668
503.46        17.01426
503.90        17.01337
504.34        17.01896
504.78        17.08347
505.22        17.21737
505.66        17.40132
506.10        17.59735
506.54        17.74278
506.98        17.81747
507.42        17.83895
507.86        17.82903
508.30        17.82191
508.74        17.83297
509.18        17.85735
509.62        17.89207
510.06        17.93291
510.50        17.97802
510.94        18.02732
511.38        18.09102
511.82        18.18307
512.26        18.29813
512.70        18.42457
513.14        18.52684
513.58        18.55154
514.02        18.49187
514.46        18.36986
514.90        18.22602
515.34        18.12708
515.78        18.09465
516.22        18.11051
516.66        18.16073
517.10        18.22032
517.54        18.27646
517.98        18.33678
518.42         18.3867
518.86        18.40094
519.30        18.37646
519.74        18.31747
520.18        18.24764
520.62        18.20837
521.06        18.20793
521.50        18.23253
521.93        18.26472
522.37        18.26989
522.81         18.2408
523.25        18.19209
523.69        18.12874
524.13         18.0563
524.57        17.98368
525.01        17.91255
525.45        17.85883
525.89        17.84894
526.32        17.88315
526.76        17.94463
527.20        18.01615
527.64        18.06799
528.08        18.08852
528.52        18.09002
528.96        18.05849
529.40        17.97362
529.83        17.84012
530.27        17.67157
530.71        17.52001
531.15        17.47289
531.59        17.54198
532.03        17.69551
532.46        17.86357
532.90        17.93415
533.34        17.88115
533.78        17.73019
534.22        17.53079
534.66        17.38841
535.09        17.31129
535.53        17.21704
535.97        17.11826
536.41        17.09708
536.85        17.15468
537.28         17.2535
537.72        17.36329
538.16        17.45016
538.60         17.5003
539.04        17.51768
539.47        17.52548
539.91         17.5742
540.35        17.66913
540.79        17.80323
541.22        17.94835
541.66        18.03276
542.10        18.09279
542.54        18.10651
542.97        18.11903
543.41        18.18941
543.85        18.32487
544.29        18.50869
544.72        18.70052
545.16        18.84672
545.60        18.93328
546.04        18.97627
546.47        19.01347
546.91        19.10964
547.35        19.27727
547.79        19.48754
548.22        19.68723
548.66        19.84039
549.10        19.93721
549.53        19.90315
549.97        19.95778
550.41         20.0408
550.84        20.21921
551.28        20.47061
551.72        20.74523
552.15        20.94179
552.59        21.04899
553.03         21.1229
553.46        21.18775
553.90        21.29343
554.34        21.45176
554.77        21.60933
555.21        21.72604
555.65        21.97668
556.08        21.93771
556.52        21.97262
556.96        21.97802
557.39        22.00719
557.83        22.07632
558.27        22.13938
558.70        22.19845
559.14        22.36564
559.57        22.43506
560.01        22.60143
560.45        22.74911
560.88        22.77215
561.32        22.71402
561.75        22.60909
562.19        22.53652
562.63        22.71424
563.06        23.05204
563.50        23.05934
563.93        22.79012
564.37        22.77641
564.80        23.02398
565.24        23.24299
565.68        23.38795
566.11        23.52587
566.55        23.65281
566.98        23.73987
567.42        23.82158
567.85        23.93423
568.29        24.09136
568.72        24.27134
569.16        24.47319
569.60        24.61084
570.03        24.65985
570.47        24.78312
570.90        24.93669
571.34        24.82674
571.77        25.06816
572.21        25.15901
572.64        25.30963
573.08        25.39467
573.51        25.92431
573.95        26.02186
574.38        25.80687
574.82        25.99619
