SpectraSmart Spectrum 2.9.0.0
--------- Device Information -----------
Spectrum Name :  反射率_0
Saving Time :  2024/05/01 17:09:59
Spectro-Module Model Name : SE2030-DUVN
Spectro-Module Serial Number : OS361AC55029948
Wavelength Start : 200
Wavelength End : 1025
Wavelength Unit : Wavelength(nm)
Spectrum Unit : Reflectance(%)
-----------Spectrum Setting ------------
Integration Time : 20ms
Average : 10
Boxcar : 0
Background removal :  enabled
linearity correction :  enabled
SC :  disabled
Intensity correction :  disabled
DWT denoise :  enabled
savitzky-golay :  disabled
FFT :  disabled
Running average :  disabled
Kalman :  disabled
High pass :  disabled
---------------BEGIN--------------------
Wavelength(nm)             Reflectance(%)
200.29               0
200.75        102.1424
201.21        390.2136
201.67        -135.121
202.13       -36.15763
202.58       -4.800017
203.04        13.63575
203.50        24.62051
203.96        28.28768
204.42        25.05651
204.88         6.48197
205.34       -505.9383
205.80        115.4515
206.26          84.562
206.72        72.80065
207.18        53.51963
207.64        104.3793
208.10        88.22391
208.55        85.67474
209.01        83.11659
209.47        78.54951
209.93        71.78354
210.39        62.00813
210.85         51.5064
211.31        43.01265
211.77        33.08484
212.23        69.19485
212.69        48.83717
213.14        61.69264
213.60        120.5421
214.06       -524.3671
214.52        -77.3691
214.98       -47.99041
215.44       -41.68872
215.90       -47.57516
216.36       -186.3681
216.81        10.14522
217.27       -31.74893
217.73        114.2025
218.19        25.35258
218.65        13.80807
219.11        5.722162
219.57       -12.74129
220.02       -91.84921
220.48       -52.69672
220.94       -10.97915
221.40        1.150795
221.86        6.751949
222.32        11.13805
222.77        16.58556
223.23        24.80478
223.69        35.85888
224.15        42.84068
224.61        41.81322
225.06        36.92897
225.52        33.76511
225.98        35.05228
226.44        40.79514
226.90        51.15054
227.36        64.21873
227.81        70.07461
228.27        65.05106
228.73        55.67807
229.19        48.16952
229.65        45.89175
230.10         48.2698
230.56         54.4269
231.02        62.55229
231.48        66.91288
231.93        64.91623
232.39        59.77114
232.85        54.62767
233.31         52.2952
233.77        52.67225
234.22        54.40763
234.68        56.53394
235.14        58.11486
235.60        58.99957
236.05        59.70567
236.51        60.38964
236.97        61.54926
237.43        63.18908
237.88        64.66114
238.34        65.19407
238.80        64.81738
239.26        63.36467
239.71         60.7467
240.17          55.478
240.63        46.63474
241.08        37.01683
241.54        30.14523
242.00         27.6658
242.46        29.12269
242.91        34.72698
243.37        46.04737
243.83        66.70824
244.28        87.80676
244.74        90.93532
245.20        82.87041
245.66        73.19359
246.11        64.65128
246.57        55.49447
247.03        42.16547
247.48        19.90541
247.94       -9.983912
248.40       -35.68979
248.85       -51.59612
249.31       -49.49578
249.77       -30.35036
250.22        -5.75895
250.68        17.30712
251.14        33.47258
251.59        39.98471
252.05        37.66484
252.51        23.10558
252.96       -17.00703
253.42       -73.99845
253.88       -63.84823
254.33       -6.464567
254.79        26.58599
255.25         36.1158
255.70         35.8158
256.16         33.3766
256.62         31.9092
257.07        33.33923
257.53         36.7433
257.99        40.28112
258.44        43.03238
258.90        44.64801
259.35        45.09048
259.81        45.08027
260.27        44.70083
260.72        44.05214
261.18        43.50135
261.63        42.85715
262.09        42.38282
262.55        42.10474
263.00        41.90463
263.46        41.78523
263.91        41.61242
264.37        41.44261
264.83        41.21082
265.28        40.95379
265.74        40.58543
266.19        39.76346
266.65        38.60638
267.11        37.16959
267.56        35.87859
268.02        35.48269
268.47        36.03748
268.93        37.25473
269.38        38.56293
269.84        38.96906
270.30        38.27116
270.75        36.80233
271.21        35.05284
271.66        33.65273
272.12        32.85773
272.57        32.40139
273.03        32.23975
273.48        32.25812
273.94        32.37516
274.39        32.59315
274.85        32.74509
275.31        32.51403
275.76        31.87373
276.22         30.9814
276.67        30.01186
277.13        29.32395
277.58        28.92203
278.04        28.72408
278.49        28.59328
278.95        28.43134
279.40         28.1455
279.86        27.82716
280.31         27.4151
280.77        26.90277
281.22         26.2754
281.68        25.61149
282.13        24.95021
282.59        24.43248
283.04        24.05142
283.50        23.79629
283.95        23.62886
284.41         23.5392
284.86        23.48062
285.32         23.4504
285.77        23.39495
286.22        23.26657
286.68        23.06242
287.13        22.79159
287.59        22.46554
288.04        22.07358
288.50        21.67059
288.95        21.23484
289.41        20.89212
289.86        20.75101
290.32        20.82248
290.77        21.04677
291.22        21.26379
291.68        21.22172
292.13        20.87918
292.59        20.34885
293.04        19.77746
293.50        19.44782
293.95        19.41084
294.40           19.58
294.86        19.86261
295.31        20.12386
295.77        20.30268
296.22        20.44624
296.68        20.52947
297.13        20.49876
297.58        20.37451
298.04        20.18925
298.49        20.02905
298.95        20.07128
299.40        20.33268
299.85        20.74973
300.31        21.24321
300.76        21.69696
301.21        22.06577
301.67        22.38897
302.12        22.62082
302.58         22.7162
303.03        22.67335
303.48        22.52813
303.94         22.4022
304.39        22.43552
304.84        22.66283
305.30        23.02456
305.75        23.42216
306.20        23.70923
306.66        23.84415
307.11         23.8593
307.57        23.78922
308.02        23.64956
308.47         23.4725
308.93        23.26164
309.38        23.04149
309.83         22.8943
310.29        22.83995
310.74         22.8602
311.19         22.9146
311.65        22.92171
312.10        22.86026
312.55        22.75587
313.00        22.65187
313.46        22.61774
313.91        22.66081
314.36        22.74823
314.82        22.83715
315.27        22.87277
315.72         22.8301
316.18        22.72874
316.63        22.57522
317.08        22.37808
317.53        22.14784
317.99        21.89074
318.44        21.62207
318.89        21.38675
319.35        21.20147
319.80        21.06001
320.25        20.95368
320.70        20.85648
321.16        20.75505
321.61        20.66234
322.06        20.57411
322.51        20.48748
322.97        20.39804
323.42        20.30813
323.87         20.2205
324.32        20.15103
324.78        20.09625
325.23        20.05805
325.68        20.01748
326.13        19.94937
326.59        19.84291
327.04        19.71727
327.49        19.57784
327.94        19.44226
328.39        19.31917
328.85        19.19979
329.30        19.09867
329.75        19.02155
330.20        18.96755
330.66        18.92915
331.11        18.89737
331.56        18.83666
332.01        18.73926
332.46        18.61503
332.92        18.47325
333.37        18.35378
333.82        18.26528
334.27        18.21114
334.72        18.19263
335.17        18.21088
335.63        18.25218
336.08        18.31331
336.53        18.40059
336.98        18.53519
337.43        18.70943
337.88        18.91774
338.34        19.07162
338.79        19.03679
339.24        18.79546
339.69        18.40022
340.14        18.00693
340.59        17.86428
341.05         18.0159
341.50         18.3812
341.95        18.81718
342.40        19.08685
342.85        19.12039
343.30        19.00376
343.75        18.79031
344.20        18.56234
344.66        18.36806
345.11        18.16991
345.56        18.03763
346.01        18.08691
346.46        18.31891
346.91        18.68951
347.36         19.0635
347.81        19.22931
348.26         19.1451
348.72        18.88704
349.17         18.5338
349.62        18.25401
350.07        18.10168
350.52        18.02482
350.97        18.00792
351.42        18.02185
351.87        18.04965
352.32        18.11781
352.77        18.17448
353.22        18.13432
353.67        17.98775
354.13        17.75308
354.58        17.51933
355.03        17.45658
355.48         17.5938
355.93        17.89309
356.38        18.20723
356.83        18.28697
357.28        18.08529
357.73        17.68733
358.18        17.28636
358.63        17.17083
359.08         17.3886
359.53        17.83468
359.98         18.3305
360.43        18.57362
360.88         18.4796
361.33        18.16065
361.78        17.73908
362.23        17.39109
362.68        17.17648
363.13        17.03804
363.58        16.97078
364.03        16.97361
364.48        17.02311
364.93        17.11376
365.38        17.19294
365.83        17.17047
366.28         17.0267
366.73        16.79005
367.18        16.48351
367.63        16.15562
368.08        15.84518
368.53        15.55504
368.98        15.33161
369.43        15.23911
369.88        15.27534
370.33        15.41119
370.78        15.58292
371.23        15.67252
371.68        15.63477
372.13        15.50002
372.58        15.28168
373.03        15.00316
373.48        14.69057
373.93        14.34924
374.38        14.03934
374.83        13.86284
375.28        13.84178
375.72          13.943
376.17        14.10857
376.62        14.24325
377.07         14.3091
377.52         14.3226
377.97        14.27594
378.42        14.16255
378.87        13.99498
379.32        13.78272
379.77        13.56352
380.22        13.39673
380.67        13.29987
381.11        13.26528
381.56        13.28082
382.01        13.32338
382.46        13.37974
382.91        13.45226
383.36        13.51974
383.81         13.5546
384.26        13.54436
384.71        13.47867
385.15        13.37824
385.60        13.29576
386.05        13.23982
386.50        13.21676
386.95        13.17479
387.40        13.03214
387.85        12.79395
388.29        12.48504
388.74        12.24461
389.19        12.22298
389.64        12.42945
390.09        12.79306
390.54        13.17144
390.98         13.3347
391.43         13.2351
391.88        12.96596
392.33        12.63083
392.78        12.38168
393.23        12.25954
393.67        12.19043
394.12        12.17898
394.57        12.24359
395.02        12.35007
395.47        12.42269
395.91        12.43658
396.36        12.41048
396.81        12.34658
397.26        12.21528
397.71        12.05562
398.15        11.96108
398.60        11.96116
399.05        11.97625
399.50        11.99489
399.95        12.09009
400.39        12.21398
400.84        12.16002
401.29        11.95436
401.74         11.8367
402.18        11.83002
402.63        11.79725
403.08        11.74127
403.53        11.72539
403.97        11.74642
404.42         11.7882
404.87        11.82073
405.32        11.79324
405.76        11.69654
406.21        11.55756
406.66        11.41341
407.11        11.32417
407.55        11.31008
408.00        11.35464
408.45        11.43717
408.90        11.50217
409.34        11.53576
409.79        11.57217
410.24        11.60946
410.68        11.61868
411.13         11.6017
411.58        11.57168
412.03        11.52599
412.47        11.45821
412.92        11.37362
413.37        11.28261
413.81        11.20191
414.26        11.16302
414.71        11.16677
415.15        11.21171
415.60        11.26928
416.05        11.30495
416.49        11.30569
416.94        11.27667
417.39         11.2394
417.83        11.23065
418.28        11.25742
418.73        11.30604
419.17        11.34802
419.62        11.33084
420.07        11.25338
420.51        11.13801
420.96        11.03152
421.41        10.98417
421.85        11.00377
422.30         11.0735
422.74        11.17435
423.19        11.28934
423.64         11.4035
424.08        11.52508
424.53        11.61542
424.98        11.62849
425.42        11.56013
425.87        11.43284
426.31         11.2868
426.76        11.19903
427.21        11.18388
427.65         11.2164
428.10        11.29773
428.54        11.42254
428.99        11.57452
429.44        11.77034
429.88        11.92671
430.33        11.92477
430.77        11.75978
431.22        11.48323
431.66        11.20967
432.11        11.14198
432.56           11.28
433.00        11.54316
433.45        11.77336
433.89         11.6585
434.34        11.19914
434.78         11.1635
435.23        11.62085
435.67        11.81176
436.12        11.74142
436.57        11.82603
437.01        12.04333
437.46        12.11848
437.90         12.0281
438.35        11.87339
438.79        11.71232
439.24        11.60246
439.68        11.58665
440.13        11.72349
440.57        11.93497
441.02        12.03936
441.46        12.00683
441.91         11.8444
442.35        11.63632
442.80        11.69979
443.24        11.95508
443.69        11.91641
444.13        11.61757
444.58        11.51999
445.02         11.6294
445.47        11.69896
445.91        11.71637
446.36        11.78197
446.80        11.88944
447.24        12.00409
447.69        12.11156
448.13        12.19464
448.58        12.24525
449.02        12.26456
449.47        12.25872
449.91        12.22803
450.36        12.18215
450.80        12.12427
451.25        12.05877
451.69        11.98329
452.13        11.90296
452.58        11.82256
453.02        11.75742
453.47        11.73784
453.91        11.76531
454.36        11.83581
454.80        11.91213
455.24        11.93099
455.69        11.88432
456.13        11.78243
456.58        11.68656
457.02         11.6745
457.46         11.7616
457.91        11.91857
458.35        12.07775
458.79         12.1137
459.24        12.01308
459.68        11.85137
460.13        11.71662
460.57        11.49919
461.01        11.55921
461.46        11.61087
461.90         11.7219
462.34        11.78607
462.79        11.84732
463.23        11.86563
463.68        11.87439
464.12         11.8957
464.56        11.93601
465.01        12.00172
465.45        12.04594
465.89        12.02101
466.34        11.92934
466.78        11.78188
467.22        11.64018
467.67         11.6303
468.11        11.72474
468.55        11.93086
468.99        12.15766
469.44        12.28649
469.88        12.29081
470.32        12.20158
470.77          12.073
471.21          11.992
471.65        11.98661
472.10        12.02955
472.54        12.08994
472.98        12.12848
473.42        12.13461
473.87        12.13337
474.31         12.1252
474.75        12.12084
475.20        12.12767
475.64        12.12915
476.08         12.1337
476.52        12.18767
476.97        12.29687
477.41        12.39232
477.85        12.41964
478.29        12.64402
478.74        12.51399
479.18        12.46149
479.62         12.3724
480.06        12.39893
480.50        12.55862
480.95         12.5728
481.39        12.82464
481.83        12.88711
482.27        12.88074
482.72        12.83505
483.16        12.77595
483.60        12.76587
484.04        12.80159
484.48        12.82687
484.93        12.92968
485.37        13.14063
485.81        13.27737
486.25        13.76348
486.69        13.05881
487.14         12.6905
487.58        12.93034
488.02        13.54055
488.46        13.45457
488.90         13.5543
489.34        13.36603
489.79         13.2488
490.23        13.70064
490.67        13.92603
491.11        14.03909
491.55        14.00231
491.99        13.87908
492.43        13.88624
492.88        14.04086
493.32         14.1812
493.76        14.28495
494.20         14.4172
494.64        14.57624
495.08        14.72629
495.52        14.84735
495.96        14.96695
496.41        15.06927
496.85        15.02658
497.29        14.90998
497.73        15.03063
498.17        15.35864
498.61        15.52458
499.05        15.51406
499.49        15.59914
499.93        15.77853
500.37        15.88608
500.82        15.92188
501.26        15.96529
501.70        16.02394
502.14        16.07698
502.58        16.12272
503.02         16.1594
503.46        16.19001
503.90        16.22362
504.34        16.27206
504.78        16.34924
505.22        16.45623
505.66        16.58498
506.10        16.72079
506.54        16.83952
506.98          16.931
507.42        16.99969
507.86        17.04614
508.30        17.07285
508.74        17.08557
509.18        17.08693
509.62        17.08927
510.06        17.11306
510.50        17.16336
510.94        17.23413
511.38        17.31642
511.82        17.39448
512.26        17.45869
512.70        17.50787
513.14        17.53666
513.58        17.53833
514.02        17.51428
514.46        17.47087
514.90         17.4128
515.34        17.34841
515.78        17.28614
516.22        17.22845
516.66        17.19331
517.10        17.20559
517.54        17.26662
517.98        17.36766
518.42         17.4786
518.86        17.54883
519.30        17.56459
519.74        17.53759
520.18        17.49178
520.62        17.46849
521.06          17.477
521.50        17.50073
521.93        17.52609
522.37        17.52685
522.81        17.49871
523.25        17.45691
523.69        17.40252
524.13        17.33395
524.57        17.25851
525.01        17.17881
525.45        17.11881
525.89         17.1168
526.32        17.17506
526.76        17.27483
527.20        17.38238
527.64        17.44225
528.08        17.43781
528.52        17.38645
528.96        17.30163
529.40        17.20596
529.83         17.1105
530.27        17.01595
530.71        16.93581
531.15        16.89588
531.59        16.89837
532.03        16.93486
532.46         16.9814
532.90        16.99949
533.34        16.97963
533.78        16.92006
534.22         16.8339
534.66        16.77142
535.09        16.72479
535.53        16.63023
535.97        16.50805
536.41        16.45056
536.85         16.4658
537.28        16.51202
537.72        16.56816
538.16        16.61634
538.60        16.64651
539.04        16.66211
539.47        16.67428
539.91        16.71173
540.35        16.77525
540.79        16.86299
541.22        16.96055
541.66        17.01954
542.10        17.07929
542.54        17.11433
542.97        17.15248
543.41         17.2275
543.85        17.34113
544.29         17.4818
544.72        17.63089
545.16        17.76796
545.60        17.88338
546.04         17.9819
546.47        18.06967
546.91         18.1601
547.35        18.25869
547.79        18.35998
548.22        18.44869
548.66        18.54173
549.10        18.64153
549.53        18.65966
549.97        18.78488
550.41        18.93288
550.84        19.15242
551.28        19.42833
551.72        19.70672
552.15        19.88068
552.59         19.9422
553.03        19.95076
553.46        19.94439
553.90        19.99481
554.34        20.12074
554.77        20.26558
555.21        20.39187
555.65        20.66203
556.08        20.67124
556.52        20.75785
556.96        20.80705
557.39        20.84309
557.83        20.87782
558.27        20.87682
558.70        20.85973
559.14        20.96174
559.57        21.00109
560.01        21.15446
560.45        21.30866
560.88         21.3559
561.32         21.3308
561.75        21.26465
562.19          21.229
562.63        21.42483
563.06        21.76491
563.50        21.78609
563.93        21.53099
564.37        21.49283
564.80        21.67779
565.24        21.81624
565.68        21.88686
566.11        21.98427
566.55        22.11048
566.98        22.23132
567.42        22.35347
567.85        22.47075
568.29        22.59276
568.72        22.70594
569.16        22.83434
569.60        22.95303
570.03        23.04353
570.47        23.13148
570.90         23.4087
571.34        23.22108
571.77        23.47128
572.21        23.54108
572.64        23.68615
573.08        23.65434
573.51        23.82511
573.95        23.96533
574.38        24.03445
574.82        24.19644
