SpectraSmart Spectrum 2.9.0.0
--------- Device Information -----------
Spectrum Name :  反射率_0
Saving Time :  2024/05/01 16:56:27
Spectro-Module Model Name : SE2030-DUVN
Spectro-Module Serial Number : OS361AC55029948
Wavelength Start : 200
Wavelength End : 1025
Wavelength Unit : Wavelength(nm)
Spectrum Unit : Reflectance(%)
-----------Spectrum Setting ------------
Integration Time : 20ms
Average : 10
Boxcar : 0
Background removal :  enabled
linearity correction :  enabled
SC :  disabled
Intensity correction :  disabled
DWT denoise :  enabled
savitzky-golay :  disabled
FFT :  disabled
Running average :  disabled
Kalman :  disabled
High pass :  disabled
---------------BEGIN--------------------
Wavelength(nm)             Reflectance(%)
200.29               0
200.75        201.0895
201.21        867.2031
201.67       -373.7091
202.13       -143.7738
202.58       -71.66257
203.04       -31.32535
203.50       -7.394858
203.96        3.013702
204.42        2.729268
204.88         -15.217
205.34       -580.6564
205.80        115.2354
206.26         91.8609
206.72        106.6127
207.18        229.6472
207.64       -123.2715
208.10        5.481458
208.55          40.847
209.01        57.43353
209.47         62.2982
209.93        59.11835
210.39        50.26408
210.85        38.53097
211.31        25.70121
211.77      -0.7907525
212.23        172.7944
212.69         70.0452
213.14        78.72127
213.60        146.8064
214.06       -622.7062
214.52       -89.68684
214.98       -53.11152
215.44       -41.64801
215.90       -36.29349
216.36       -3.751644
216.81       -83.58372
217.27       -176.8083
217.73        460.5984
218.19        102.6233
218.65        67.36291
219.11        56.59517
219.57        49.54118
220.02        6.550304
220.48       -26.36343
220.94       -3.532307
221.40        7.018613
221.86        13.57301
222.32        20.17895
222.77        29.17161
223.23         42.8133
223.69        61.05593
224.15        72.22289
224.61        69.90662
225.06        61.67633
225.52        55.57054
225.98        54.85061
226.44        59.17278
226.90        67.86105
227.36        79.96206
227.81        87.99195
228.27        87.57814
228.73        83.16336
229.19        78.88042
229.65        77.09942
230.10        77.65154
230.56        79.72831
231.02        82.73347
231.48        84.94038
231.93        85.13915
232.39        84.49849
232.85        83.42857
233.31        82.26122
233.77        81.20428
234.22        80.16847
234.68        79.44503
235.14        79.32892
235.60        79.90371
236.05        81.42439
236.51        83.81504
236.97        86.70441
237.43        89.10551
237.88        90.45234
238.34        90.38389
238.80        89.84875
239.26        89.01923
239.71        87.83212
240.17        84.25332
240.63        75.59211
241.08          63.255
241.54        51.99834
242.00        45.68879
242.46        44.87082
242.91        49.43905
243.37        60.57818
243.83        82.14182
244.28        104.7664
244.74        108.6817
245.20        100.7811
245.66        90.79229
246.11        81.47623
246.57        70.93449
247.03        54.85951
247.48         28.1344
247.94        -6.41458
248.40       -33.83412
248.85       -47.85206
249.31       -42.52472
249.77       -21.99007
250.22        2.190413
250.68        24.22095
251.14        40.09918
251.59        48.47828
252.05        51.38203
252.51        49.32745
252.96        39.11084
253.42        27.45626
253.88        38.24721
254.33        56.01336
254.79        65.57173
255.25        69.82703
255.70        71.68022
256.16        73.34972
256.62        74.26057
257.07        73.86291
257.53        73.25777
257.99        72.49908
258.44        71.98225
258.90        72.65607
259.35        73.94323
259.81        75.80786
260.27        77.44414
260.72        77.83761
261.18        77.32205
261.63        76.05868
262.09        74.88538
262.55        74.16801
263.00        73.79152
263.46        73.72694
263.91        73.57535
264.37        73.32143
264.83        72.84707
265.28        72.22248
265.74        71.61264
266.19        70.85075
266.65         70.0946
267.11        69.27575
267.56        68.53172
268.02        68.21257
268.47        68.28849
268.93        68.61237
269.38        68.91399
269.84        68.71346
270.30        67.91396
270.75        66.65204
271.21        65.15498
271.66        63.61964
272.12        62.21675
272.57         60.8278
273.03        59.57707
273.48        58.55296
273.94        57.81214
274.39        57.29354
274.85        56.87974
275.31        56.26052
275.76        55.37148
276.22        54.38038
276.67        53.38303
277.13        52.70749
277.58        52.28464
278.04        52.04574
278.49        51.77552
278.95        51.33186
279.40        50.60626
279.86        49.75714
280.31        48.77309
280.77        47.79446
281.22        46.79061
281.68        45.83039
282.13        44.88638
282.59        44.06479
283.04        43.32129
283.50        42.70122
283.95        42.14576
284.41        41.64927
284.86        41.18235
285.32        40.78221
285.77        40.44004
286.22        40.21307
286.68        40.08864
287.13        40.00102
287.59         39.9007
288.04        39.66545
288.50        39.31199
288.95        38.84031
289.41        38.34858
289.86        37.86052
290.32        37.43832
290.77        37.05738
291.22        36.72991
291.68        36.45845
292.13        36.23536
292.59        36.09169
293.04        36.01897
293.50         36.0609
293.95        36.19054
294.40        36.39213
294.86        36.62227
295.31        36.82769
295.77        36.98608
296.22         37.0979
296.68        37.17221
297.13        37.19808
297.58        37.20349
298.04        37.22371
298.49        37.26901
298.95        37.39949
299.40        37.60527
299.85        37.85855
300.31        38.18677
300.76         38.6153
301.21        39.12918
301.67        39.71655
302.12        40.21299
302.58        40.40247
303.03        40.23814
303.48        39.82429
303.94        39.40595
304.39        39.26176
304.84        39.46784
305.30        39.91693
305.75        40.42041
306.20        40.70801
306.66        40.72023
307.11        40.53015
307.57        40.25863
308.02         40.0191
308.47        39.86694
308.93         39.7583
309.38        39.65322
309.83        39.55156
310.29        39.45391
310.74         39.3744
311.19        39.29017
311.65        39.14252
312.10        38.92244
312.55        38.64672
313.00         38.4025
313.46        38.32943
313.91         38.4385
314.36        38.67746
314.82        38.91734
315.27        38.96273
315.72        38.75869
316.18        38.37542
316.63        37.90672
317.08        37.50753
317.53        37.22262
317.99         37.0144
318.44        36.83572
318.89         36.6218
319.35        36.35881
319.80        36.07899
320.25        35.82205
320.70        35.63903
321.16        35.53086
321.61        35.47795
322.06        35.43661
322.51        35.34552
322.97        35.17991
323.42        34.97416
323.87        34.73909
324.32        34.50706
324.78        34.28887
325.23        34.08418
325.68        33.90591
326.13        33.78284
326.59        33.70547
327.04        33.68389
327.49        33.65835
327.94        33.53778
328.39        33.30016
328.85         32.9549
329.30        32.59071
329.75        32.32385
330.20        32.19124
330.66        32.15593
331.11        32.16349
331.56        32.08076
332.01        31.87594
332.46        31.59147
332.92        31.28709
333.37        31.09711
333.82        31.04693
334.27         31.1035
334.72          31.216
335.17        31.29869
335.63        31.30639
336.08        31.27395
336.53        31.22558
336.98        31.21646
337.43        31.26015
337.88        31.34178
338.34        31.40012
338.79        31.35938
339.24        31.20001
339.69        30.95211
340.14         30.7175
340.59        30.65435
341.05        30.78252
341.50        31.05382
341.95        31.34647
342.40        31.46232
342.85        31.35835
343.30        31.11421
343.75        30.82224
344.20        30.62526
344.66        30.57004
345.11        30.59433
345.56         30.7023
346.01        30.89495
346.46        31.14348
346.91        31.44446
347.36        31.69375
347.81        31.73227
348.26        31.54186
348.72        31.17642
349.17        30.75371
349.62        30.51003
350.07        30.49706
350.52        30.64196
350.97        30.82737
351.42        30.85409
351.87        30.67694
352.32        30.38544
352.77        30.04222
353.22        29.74012
353.67        29.51514
354.13         29.3309
354.58        29.21341
355.03        29.24519
355.48        29.42271
355.93        29.73833
356.38        30.04245
356.83        30.07888
357.28        29.80644
357.73        29.30598
358.18        28.79952
358.63        28.62415
359.08        28.83498
359.53          29.315
359.98        29.85589
360.43        30.10284
360.88        29.95595
361.33        29.54201
361.78        29.00709
362.23        28.56079
362.68        28.27214
363.13        28.07685
363.58        27.95157
364.03         27.8686
364.48         27.8011
364.93         27.7524
365.38        27.70445
365.83        27.61626
366.28        27.47593
366.73        27.30016
367.18        27.05922
367.63        26.71634
368.08        26.29537
368.53        25.82545
368.98        25.42414
369.43        25.26329
369.88         25.3587
370.33         25.6456
370.78        25.98477
371.23        26.12489
371.68        25.98446
372.13         25.6418
372.58        25.17879
373.03        24.72095
373.48        24.32152
373.93        23.94968
374.38        23.64338
374.83        23.46863
375.28        23.43144
375.72        23.51582
376.17        23.65063
376.62        23.70974
377.07        23.65628
377.52        23.51187
377.97        23.31587
378.42        23.13875
378.87        23.00432
379.32        22.89713
379.77        22.79361
380.22        22.65851
380.67        22.48813
381.11        22.30149
381.56        22.14002
382.01        22.07248
382.46        22.10891
382.91        22.22223
383.36        22.34247
383.81        22.36546
384.26        22.26567
384.71        22.06853
385.15        21.83224
385.60        21.67094
386.05        21.60507
386.50        21.60706
386.95        21.61584
387.40         21.5384
387.85        21.36343
388.29        21.11468
388.74        20.89536
389.19        20.78393
389.64        20.79115
390.09        20.87473
390.54        20.97413
390.98         20.9916
391.43        20.91271
391.88        20.77883
392.33        20.62115
392.78        20.49139
393.23        20.40518
393.67        20.30772
394.12        20.23471
394.57        20.26003
395.02         20.3502
395.47        20.36034
395.91        20.28514
396.36         20.2261
396.81        20.19437
397.26        20.12993
397.71         20.0395
398.15        19.98348
398.60        19.98939
399.05        19.94929
399.50        19.89664
399.95        20.02802
400.39         20.2786
400.84        20.28383
401.29        20.03204
401.74        19.83234
402.18        19.70566
402.63         19.4573
403.08        19.16744
403.53        19.04669
403.97        19.11311
404.42        19.30985
404.87        19.53039
405.32        19.60363
405.76        19.48757
406.21        19.24363
406.66        18.96886
407.11         18.8188
407.55        18.83831
408.00        18.97969
408.45        19.16579
408.90        19.23475
409.34        19.15539
409.79        19.02617
410.24        18.90126
410.68        18.81259
411.13        18.78164
411.58        18.80359
412.03        18.84657
412.47        18.85024
412.92        18.79356
413.37        18.70174
413.81          18.597
414.26         18.5238
414.71        18.48679
415.15        18.48305
415.60        18.48017
416.05        18.44602
416.49        18.37494
416.94        18.27736
417.39        18.19417
417.83        18.18823
418.28        18.26706
418.73        18.40247
419.17        18.53861
419.62        18.58151
420.07         18.5162
420.51        18.37595
420.96        18.21803
421.41        18.10405
421.85        18.05092
422.30        18.04749
422.74        18.08688
423.19        18.17848
423.64        18.30809
424.08        18.47833
424.53        18.63212
424.98         18.6961
425.42        18.65472
425.87        18.53363
426.31        18.37123
426.76        18.24277
427.21        18.16487
427.65        18.11158
428.10        18.10495
428.54          18.175
428.99        18.31884
429.44        18.55001
429.88        18.74762
430.33        18.74398
430.77        18.52825
431.22        18.17634
431.66        17.83064
432.11        17.75964
432.56        17.95146
433.00        18.22809
433.45        18.40547
433.89        18.25084
434.34        17.71836
434.78        17.70601
435.23        18.30747
435.67        18.51629
436.12        18.34564
436.57        18.31687
437.01        18.43546
437.46        18.42451
437.90        18.27576
438.35         18.1024
438.79        17.94325
439.24        17.80843
439.68        17.74588
440.13        17.87352
440.57        18.11332
441.02        18.25651
441.46        18.27072
441.91        18.13986
442.35        17.94704
442.80        18.11724
443.24        18.52131
443.69         18.4362
444.13        17.94154
444.58        17.77554
445.02         17.9547
445.47        18.09282
445.91        18.14288
446.36        18.21435
446.80        18.29102
447.24        18.34102
447.69        18.37686
448.13        18.42038
448.58        18.47348
449.02        18.52166
449.47        18.55352
449.91        18.53718
450.36        18.47554
450.80        18.38281
451.25        18.27213
451.69        18.14929
452.13        18.02728
452.58        17.91076
453.02        17.82003
453.47        17.79725
453.91        17.84245
454.36        17.94591
454.80        18.06247
455.24        18.11755
455.69        18.09708
456.13        18.00896
456.58        17.90759
457.02          17.854
457.46        17.86691
457.91        17.92654
458.35        17.98653
458.79        17.94715
459.24        17.80647
459.68        17.65035
460.13        17.56177
460.57        17.30894
461.01        17.41058
461.46         17.4564
461.90        17.57111
462.34        17.63771
462.79        17.73414
463.23        17.78974
463.68        17.82753
464.12        17.84213
464.56        17.83824
465.01          17.844
465.45        17.83073
465.89        17.78648
466.34        17.71901
466.78        17.62664
467.22        17.54893
467.67        17.58378
468.11        17.66778
468.55        17.83904
468.99        18.01775
469.44        18.11529
469.88        18.11331
470.32        18.03268
470.77        17.91577
471.21        17.83245
471.65        17.80589
472.10        17.82016
472.54        17.85017
472.98        17.86634
473.42         17.8616
473.87        17.85686
474.31        17.85295
474.75        17.86779
475.20        17.90758
475.64        17.94902
476.08        17.98319
476.52        18.04411
476.97        18.13709
477.41        18.16969
477.85        18.09717
478.29        18.36017
478.74        18.16768
479.18        18.13046
479.62        18.05247
480.06        18.10424
480.50        18.30152
480.95         18.2637
481.39         18.5618
481.83        18.59859
482.27        18.55532
482.72        18.46224
483.16         18.3697
483.60        18.37533
484.04        18.48719
484.48        18.61394
484.93        18.82084
485.37        19.13198
485.81         19.3989
486.25        19.71235
486.69        19.10571
487.14        18.59064
487.58        18.99372
488.02        19.49103
488.46        19.37502
488.90        19.61895
489.34         19.3077
489.79         19.1944
490.23        19.58693
490.67        19.80104
491.11        19.93122
491.55        19.90727
491.99         19.7896
492.43        19.80075
492.88        19.95707
493.32        20.09176
493.76         20.1844
494.20        20.31143
494.64        20.47511
495.08        20.62924
495.52        20.75814
495.96        20.91781
496.41        21.08557
496.85         21.0759
497.29        20.95582
497.73        21.11179
498.17        21.49263
498.61        21.59753
499.05         21.4477
499.49        21.48158
499.93        21.71153
500.37        21.89012
500.82        21.99601
501.26        22.10487
501.70        22.21256
502.14        22.30151
502.58        22.36647
503.02        22.40134
503.46        22.41021
503.90        22.39854
504.34        22.39989
504.78        22.46439
505.22        22.60012
505.66        22.79463
506.10        22.99312
506.54        23.10362
506.98        23.10516
507.42        23.02427
507.86         22.9227
508.30        22.89739
508.74        22.97268
509.18        23.12234
509.62        23.29416
510.06        23.40101
510.50        23.41989
510.94        23.37825
511.38        23.32539
511.82        23.33926
512.26        23.43511
512.70        23.58006
513.14        23.72677
513.58        23.80368
514.02        23.79319
514.46        23.72385
514.90        23.62411
515.34        23.53863
515.78        23.48686
516.22        23.45672
516.66        23.45232
517.10        23.47965
517.54        23.53442
517.98         23.6157
518.42        23.70184
518.86        23.75409
519.30        23.76264
519.74         23.7354
520.18         23.6897
520.62        23.65735
521.06        23.64539
521.50        23.64034
521.93         23.6371
522.37        23.62161
522.81        23.59309
523.25        23.56409
523.69        23.52441
524.13        23.45501
524.57        23.36005
525.01        23.24645
525.45        23.15348
525.89        23.14389
526.32        23.22258
526.76        23.36088
527.20        23.50493
527.64        23.56697
528.08        23.52529
528.52        23.41357
528.96        23.26135
529.40        23.11549
529.83         22.9953
530.27        22.89347
530.71        22.82838
531.15        22.83516
531.59        22.91089
532.03        23.04114
532.46        23.17243
532.90        23.22084
533.34        23.16895
533.78        23.02668
534.22        22.83917
534.66        22.71654
535.09        22.65927
535.53        22.56924
535.97        22.45939
536.41        22.43049
536.85        22.48436
537.28        22.56973
537.72        22.66159
538.16           22.74
538.60         22.7924
539.04        22.81988
539.47         22.8337
539.91        22.86878
540.35        22.92638
540.79        23.00592
541.22        23.09632
541.66        23.14552
542.10        23.20915
542.54        23.24926
542.97        23.29257
543.41         23.3654
543.85        23.46843
544.29        23.59477
544.72        23.73164
545.16        23.87116
545.60        24.00493
546.04        24.13251
546.47         24.2569
546.91          24.387
547.35        24.52431
547.79        24.66034
548.22        24.77083
548.66        24.87359
549.10        24.97076
549.53        24.94725
549.97        25.05446
550.41         25.1806
550.84        25.39598
551.28        25.68372
551.72        25.98589
552.15        26.18166
552.59          26.262
553.03        26.29512
553.46        26.31555
553.90        26.39324
554.34        26.54542
554.77        26.70602
555.21        26.82641
555.65        27.12156
556.08         27.0677
556.52        27.11365
556.96        27.12602
557.39        27.16269
557.83        27.24048
558.27        27.30021
558.70        27.35133
559.14        27.54377
559.57        27.62671
560.01        27.83939
560.45        28.02288
560.88        28.02134
561.32         27.8868
561.75        27.66977
562.19        27.50047
562.63        27.69361
563.06        28.14653
563.50        28.24426
563.93        28.00449
564.37        28.00892
564.80        28.25225
565.24        28.40007
565.68        28.44361
566.11         28.5366
566.55        28.69115
566.98        28.84915
567.42        29.01398
567.85        29.17079
568.29        29.32745
568.72        29.46793
569.16        29.62242
569.60        29.75156
570.03        29.83394
570.47         29.9166
570.90         30.2514
571.34        29.95962
571.77        30.26426
572.21        30.32228
572.64        30.50905
573.08        30.47469
573.51        30.74196
573.95        31.13464
574.38        30.99065
574.82        31.22915
