SpectraSmart Spectrum 2.9.0.0
--------- Device Information -----------
Spectrum Name :  反射率_0
Saving Time :  2024/05/01 16:59:54
Spectro-Module Model Name : SE2030-DUVN
Spectro-Module Serial Number : OS361AC55029948
Wavelength Start : 200
Wavelength End : 1025
Wavelength Unit : Wavelength(nm)
Spectrum Unit : Reflectance(%)
-----------Spectrum Setting ------------
Integration Time : 20ms
Average : 10
Boxcar : 0
Background removal :  enabled
linearity correction :  enabled
SC :  disabled
Intensity correction :  disabled
DWT denoise :  enabled
savitzky-golay :  disabled
FFT :  disabled
Running average :  disabled
Kalman :  disabled
High pass :  disabled
---------------BEGIN--------------------
Wavelength(nm)             Reflectance(%)
200.29               0
200.75         257.761
201.21        1025.439
201.67       -412.2631
202.13       -144.7264
202.58       -59.98473
203.04       -11.22283
203.50        17.28138
203.96        26.87597
204.42        18.50655
204.88       -30.95384
205.34       -1398.301
205.80        260.5731
206.26        180.8277
206.72        156.3927
207.18         174.565
207.64        18.49634
208.10         36.7424
208.55        27.00517
209.01        14.37189
209.47        4.714381
209.93         -2.5899
210.39       -11.73686
210.85       -24.27799
211.31       -46.16519
211.77       -117.8073
212.23        430.8443
212.69        100.5573
213.14        91.87682
213.60        165.0824
214.06       -746.9656
214.52       -121.8335
214.98       -84.22887
215.44       -82.47459
215.90        -113.621
216.36       -671.3495
216.81        176.0193
217.27        185.8868
217.73       -386.1414
218.19       -91.70084
218.65       -78.58575
219.11       -103.3926
219.57       -200.5416
220.02       -601.4503
220.48       -313.3623
220.94       -100.2117
221.40       -45.80993
221.86       -25.10581
222.32       -13.21684
222.77       -2.245604
223.23        11.45831
223.69        28.14376
224.15        37.21707
224.61        33.55426
225.06        24.88455
225.52        17.99094
225.98        15.38379
226.44        16.37132
226.90        19.89768
227.36        25.79144
227.81        31.04309
228.27        32.86286
228.73         32.6427
229.19         31.6118
229.65        30.43692
230.10        29.18966
230.56        27.71012
231.02        26.13133
231.48        25.44615
231.93        26.02805
232.39        27.33477
232.85        29.13136
233.31        31.31192
233.77        33.62109
234.22        36.00216
234.68        37.81542
235.14        38.36643
235.60        37.55023
236.05        35.24073
236.51        31.63775
236.97         28.8376
237.43         28.7486
237.88        31.38906
238.34        34.90184
238.80        36.71415
239.26        35.97104
239.71         32.8101
240.17        26.09957
240.63          16.449
241.08        8.121416
241.54         3.57541
242.00        3.125007
242.46        5.852543
242.91         12.0741
243.37        23.68307
243.83        44.65499
244.28        66.78372
244.74        71.23543
245.20        64.07888
245.66        54.56427
246.11        45.27388
246.57        34.37305
247.03        18.06811
247.48       -8.573682
247.94       -41.36565
248.40       -65.40093
248.85       -76.41022
249.31       -68.48905
249.77       -45.13313
250.22       -18.52614
250.68        5.041486
251.14        20.82218
251.59        26.12829
252.05        21.60161
252.51        3.157836
252.96       -45.62255
253.42        -116.053
253.88       -105.6581
254.33       -35.63872
254.79        8.632988
255.25        28.21139
255.70        36.68108
256.16        41.21532
256.62        43.51423
257.07        44.21914
257.53         44.3409
257.99        43.98772
258.44        43.54819
258.90        43.68707
259.35        44.10358
259.81        44.81327
260.27        45.41838
260.72        45.41695
261.18        45.02233
261.63        44.27808
262.09        43.52673
262.55        42.83269
263.00        42.14857
263.46         41.5061
263.91        40.84001
264.37        40.31009
264.83        39.86302
265.28        39.48677
265.74          39.103
266.19        38.38438
266.65        37.41992
267.11        36.25433
267.56        35.19389
268.02        34.80228
268.47        35.11242
268.93        35.89087
269.38        36.72694
269.84        36.89766
270.30        36.25468
270.75        35.03183
271.21        33.57073
271.66        32.27553
272.12        31.34887
272.57        30.61919
273.03        30.10764
273.48        29.79863
273.94        29.66086
274.39        29.67102
274.85        29.69965
275.31         29.4967
275.76        29.01629
276.22        28.36647
276.67        27.63905
277.13        27.06283
277.58         26.6311
278.04         26.3187
278.49        26.02698
278.95        25.71378
279.40        25.32358
279.86        24.92429
280.31        24.51502
280.77        24.16627
281.22        23.84682
281.68        23.58134
282.13        23.29437
282.59        22.95639
283.04         22.5453
283.50        22.12075
283.95        21.73545
284.41        21.51853
284.86        21.47077
285.32         21.5425
285.77         21.6649
286.22        21.77023
286.68        21.83377
287.13         21.8612
287.59        21.82437
288.04        21.63877
288.50        21.34189
288.95         20.9427
289.41        20.58589
289.86        20.41331
290.32        20.46334
290.77        20.67723
291.22        20.95289
291.68        21.12423
292.13         21.1534
292.59        21.12214
293.04        21.08877
293.50        21.19232
293.95        21.45094
294.40        21.82256
294.86        22.27545
295.31        22.77671
295.77        23.29279
296.22        23.82434
296.68        24.33072
297.13        24.73847
297.58        25.05234
298.04        25.31254
298.49        25.56192
298.95        25.90684
299.40        26.35297
299.85        26.86082
300.31        27.41919
300.76        28.01163
301.21        28.62093
301.67        29.26007
302.12        29.83251
302.58        30.21123
303.03        30.36495
303.48        30.35726
303.94        30.35007
304.39        30.52769
304.84         30.9438
305.30        31.52222
305.75        32.13667
306.20          32.605
306.66        32.87917
307.11        33.00068
307.57        33.03111
308.02        33.01071
308.47        32.98083
308.93        32.93214
309.38        32.86678
309.83         32.8429
310.29        32.87242
310.74        32.93948
311.19        33.01166
311.65        33.01855
312.10        32.94035
312.55        32.80226
313.00        32.64661
313.46        32.54085
313.91        32.49485
314.36        32.48261
314.82        32.47039
315.27        32.41775
315.72        32.30407
316.18        32.14955
316.63        31.95163
317.08        31.71166
317.53         31.4353
317.99        31.12701
318.44        30.80254
318.89        30.50547
319.35        30.25294
319.80        30.04036
320.25        29.85665
320.70        29.67418
321.16        29.47812
321.61        29.28177
322.06        29.09007
322.51        28.91566
322.97        28.75442
323.42        28.60898
323.87        28.45884
324.32        28.28368
324.78        28.07429
325.23        27.84679
325.68         27.6136
326.13        27.40148
326.59        27.20826
327.04        27.03789
327.49        26.86342
327.94        26.65014
328.39        26.38962
328.85         26.0859
329.30        25.77684
329.75        25.49757
330.20        25.26395
330.66        25.06373
331.11        24.89417
331.56        24.71841
332.01        24.53087
332.46        24.34769
332.92        24.17567
333.37        24.05434
333.82         23.9819
334.27        23.94514
334.72        23.94118
335.17        23.96933
335.63        24.00723
336.08        24.05698
336.53        24.08567
336.98        24.05484
337.43        23.95844
337.88        23.81759
338.34        23.63332
338.79        23.42635
339.24         23.2106
339.69        22.98466
340.14        22.81373
340.59        22.79647
341.05        22.93033
341.50        23.18497
341.95        23.43843
342.40        23.49228
342.85        23.30741
343.30        22.95724
343.75        22.55367
344.20         22.2733
344.66        22.17102
345.11        22.18205
345.56        22.28274
346.01        22.42674
346.46        22.57727
346.91        22.74375
347.36        22.86695
347.81        22.85513
348.26        22.70074
348.72        22.43842
349.17        22.12698
349.62        21.90585
350.07        21.80982
350.52        21.79859
350.97        21.82889
351.42        21.82221
351.87        21.75677
352.32          21.673
352.77        21.56229
353.22        21.41045
353.67        21.22387
354.13        20.99998
354.58        20.79863
355.03         20.7453
355.48        20.85552
355.93        21.10748
356.38          21.359
356.83        21.37038
357.28        21.10038
357.73        20.62656
358.18        20.15533
358.63        19.99469
359.08        20.19469
359.53        20.65204
359.98        21.15952
360.43        21.36569
360.88        21.17981
361.33        20.72748
361.78        20.18445
362.23        19.80729
362.68        19.66408
363.13        19.66833
363.58        19.74512
364.03        19.77927
364.48        19.72315
364.93        19.61301
365.38        19.46345
365.83        19.28744
366.28        19.09423
366.73        18.88017
367.18        18.63671
367.63        18.36049
368.08        18.06897
368.53        17.78083
368.98        17.54627
369.43        17.43202
369.88        17.43938
370.33        17.53661
370.78        17.66175
371.23        17.70535
371.68        17.62909
372.13        17.46441
372.58        17.23458
373.03        16.97705
373.48        16.71269
373.93        16.43289
374.38        16.17704
374.83        16.01195
375.28        15.95254
375.72        15.98679
376.17        16.05655
376.62          16.065
377.07        15.98673
377.52        15.83983
377.97        15.67457
378.42        15.57346
378.87        15.55265
379.32        15.58577
379.77        15.61202
380.22        15.54058
380.67        15.35677
381.11        15.09486
381.56        14.82929
382.01        14.68458
382.46        14.69151
382.91        14.81271
383.36        14.96298
383.81         15.0131
384.26        14.92911
384.71        14.74205
385.15        14.52566
385.60        14.41173
386.05        14.42292
386.50        14.52541
386.95        14.62456
387.40        14.57825
387.85        14.37147
388.29        14.04883
388.74        13.76034
389.19        13.66686
389.64        13.78837
390.09        14.05396
390.54        14.34055
390.98        14.45103
391.43        14.34537
391.88        14.10671
392.33        13.82222
392.78        13.61827
393.23        13.52826
393.67         13.4837
394.12        13.48874
394.57        13.56332
395.02        13.67364
395.47        13.73377
395.91        13.73413
396.36        13.72744
396.81        13.71906
397.26        13.66471
397.71        13.57998
398.15         13.5266
398.60        13.52829
399.05        13.50892
399.50        13.47753
399.95        13.54573
400.39        13.66692
400.84         13.6033
401.29        13.37142
401.74        13.21781
402.18        13.16432
402.63        13.06698
403.08        12.95141
403.53        12.91803
403.97        12.96789
404.42        13.07357
404.87        13.17504
405.32        13.17505
405.76        13.05399
406.21        12.85164
406.66        12.63654
407.11        12.51904
407.55        12.53152
408.00        12.64338
408.45        12.80174
408.90        12.89327
409.34        12.89074
409.79        12.85278
410.24        12.81282
410.68        12.78904
411.13        12.79647
411.58        12.83763
412.03         12.8827
412.47        12.87693
412.92         12.8088
413.37         12.6989
413.81        12.59626
414.26        12.58279
414.71        12.66645
415.15        12.83017
415.60        12.99766
416.05        13.05582
416.49        12.97713
416.94        12.79683
417.39        12.59938
417.83        12.51935
418.28        12.58754
418.73        12.75824
419.17        12.95503
419.62         13.0485
420.07        13.01207
420.51        12.89038
420.96        12.74959
421.41        12.66789
421.85        12.66375
422.30        12.71162
422.74        12.78992
423.19         12.8822
423.64        12.97305
424.08        13.07473
424.53        13.15184
424.98        13.16265
425.42        13.10358
425.87        12.99476
426.31        12.86796
426.76        12.78699
427.21        12.76385
427.65        12.77783
428.10        12.83993
428.54        12.96114
428.99        13.12988
429.44        13.35731
429.88        13.55002
430.33        13.57657
430.77        13.42879
431.22        13.16426
431.66        12.89918
432.11        12.83968
432.56        12.97801
433.00        13.22261
433.45        13.41336
433.89        13.23664
434.34        12.70592
434.78        12.68335
435.23        13.22104
435.67        13.41045
436.12        13.25148
436.57        13.23226
437.01        13.36254
437.46         13.3982
437.90        13.32919
438.35        13.24635
438.79        13.17032
439.24        13.09876
439.68        13.06483
440.13        13.15532
440.57        13.31661
441.02        13.40316
441.46        13.39585
441.91        13.28024
442.35        13.11913
442.80        13.23022
443.24        13.51594
443.69        13.43872
444.13        13.06056
444.58        12.93427
445.02        13.07242
445.47        13.18651
445.91        13.23974
446.36        13.31091
446.80        13.38733
447.24        13.44468
447.69          13.492
448.13        13.54731
448.58        13.61078
449.02        13.67013
449.47        13.71519
449.91        13.71991
450.36        13.68625
450.80        13.62622
451.25        13.54929
451.69        13.45944
452.13        13.36654
452.58        13.27368
453.02        13.20063
453.47        13.18663
453.91        13.23315
454.36        13.33243
454.80         13.4406
455.24        13.48376
455.69        13.44919
456.13        13.34783
456.58        13.24022
457.02        13.20141
457.46        13.25001
457.91        13.36153
458.35        13.47469
458.79        13.47253
459.24        13.34601
459.68        13.17127
460.13        13.04081
460.57        12.82548
461.01        12.91982
461.46        13.00555
461.90        13.14678
462.34        13.20742
462.79        13.23482
463.23        13.19076
463.68        13.12696
464.12        13.09468
464.56        13.10971
465.01        13.17155
465.45        13.22414
465.89        13.20822
466.34        13.12218
466.78        12.98207
467.22         12.8453
467.67        12.83213
468.11        12.91033
468.55        13.09231
468.99         13.2987
469.44        13.43282
469.88        13.47154
470.32        13.43855
470.77        13.37087
471.21        13.32688
471.65        13.32634
472.10        13.35073
472.54        13.38108
472.98        13.39813
473.42        13.39674
473.87        13.39464
474.31        13.38797
474.75        13.38197
475.20         13.3829
475.64        13.37923
476.08        13.37541
476.52        13.41344
476.97        13.50043
477.41        13.56171
477.85        13.55612
478.29        13.80216
478.74        13.70043
479.18        13.71172
479.62        13.68333
480.06        13.73783
480.50        13.88736
480.95        13.84311
481.39        14.05116
481.83        14.07771
482.27        14.06336
482.72         14.0262
483.16        13.99182
483.60         14.0157
484.04        14.09336
484.48        14.18024
484.93        14.33983
485.37        14.56635
485.81        14.73168
486.25        15.14048
486.69        14.45552
487.14        14.15866
487.58        14.78376
488.02        14.93742
488.46        14.87352
488.90        15.02806
489.34        15.00621
489.79        14.91429
490.23        15.23431
490.67        15.40789
491.11        15.56959
491.55        15.58232
491.99        15.49665
492.43         15.5273
492.88        15.68755
493.32        15.83663
493.76        15.95444
494.20        16.09663
494.64         16.2648
495.08        16.42539
495.52        16.57064
495.96        16.75238
496.41        16.95241
496.85        17.01551
497.29        16.98822
497.73         17.1755
498.17        17.53456
498.61        17.65976
499.05        17.56429
499.49         17.6029
499.93        17.78872
500.37        17.92264
500.82        17.99965
501.26        18.10009
501.70        18.22488
502.14        18.35293
502.58         18.4705
503.02        18.55667
503.46        18.60972
503.90           18.64
504.34        18.67253
504.78        18.74488
505.22        18.86443
505.66        19.01992
506.10        19.18161
506.54        19.29728
506.98         19.3523
507.42        19.37163
507.86        19.36159
508.30        19.37387
508.74        19.41585
509.18        19.47944
509.62        19.55146
510.06         19.6109
510.50        19.65113
510.94        19.67697
511.38        19.70306
511.82        19.75137
512.26        19.82316
512.70        19.90825
513.14        19.97982
513.58        19.99727
514.02        19.95515
514.46        19.87029
514.90        19.77468
515.34        19.71998
515.78        19.72096
516.22        19.76217
516.66        19.82565
517.10        19.88149
517.54        19.91909
517.98        19.94861
518.42        19.96902
518.86        19.97786
519.30        19.97684
519.74        19.96286
520.18        19.94731
520.62        19.95136
521.06        19.97676
521.50        20.01559
521.93        20.05172
522.37        20.05314
522.81        20.01532
523.25        19.95092
523.69        19.87175
524.13        19.79521
524.57        19.73116
525.01        19.67758
525.45        19.64019
525.89        19.62834
526.32        19.63898
526.76        19.66189
527.20         19.6875
527.64          19.699
528.08        19.69003
528.52        19.66936
528.96        19.62338
529.40        19.53235
529.83         19.3985
530.27        19.23463
530.71         19.0866
531.15        19.03169
531.59        19.08004
532.03        19.20385
532.46        19.33682
532.90        19.37442
533.34        19.29413
533.78        19.11815
534.22        18.90098
534.66        18.75752
535.09        18.69347
535.53        18.61854
535.97        18.53321
536.41        18.50562
536.85        18.53359
537.28        18.58224
537.72        18.63464
538.16        18.68032
538.60        18.71119
539.04        18.72386
539.47        18.73268
539.91        18.77448
540.35        18.85062
540.79        18.96087
541.22        19.08014
541.66        19.13913
542.10        19.18044
542.54        19.17945
542.97         19.1864
543.41        19.26782
543.85        19.43096
544.29        19.65565
544.72        19.89511
545.16        20.08646
545.60        20.21198
546.04        20.28934
546.47        20.35579
546.91        20.47605
547.35        20.66318
547.79         20.8873
548.22        21.09848
548.66        21.26959
549.10        21.39249
549.53        21.38482
549.97        21.47445
550.41        21.58342
550.84        21.78059
551.28         22.0458
551.72        22.33362
552.15         22.5481
552.59        22.67972
553.03        22.78381
553.46        22.87873
553.90        23.00665
554.34        23.17816
554.77        23.34049
555.21        23.45577
555.65        23.72116
556.08        23.68179
556.52        23.72608
556.96        23.74151
557.39        23.78473
557.83        23.87195
558.27         23.9546
558.70        24.03005
559.14        24.21097
559.57        24.27517
560.01        24.43822
560.45        24.58436
560.88        24.61373
561.32        24.57512
561.75        24.49789
562.19        24.46312
562.63        24.70035
563.06        25.10806
563.50        25.15385
563.93        24.88524
564.37        24.86836
564.80        25.10885
565.24        25.29283
565.68        25.39216
566.11        25.51302
566.55        25.65749
566.98        25.78673
567.42        25.91186
567.85        26.02968
568.29        26.15077
568.72        26.26605
569.16        26.40655
569.60        26.53133
570.03        26.61992
570.47         26.7963
570.90        27.07012
571.34        26.95167
571.77        27.23293
572.21        27.32733
572.64        27.49582
573.08        27.51361
573.51        27.94403
573.95        28.10164
574.38        27.90126
574.82        28.15497
