SpectraSmart Spectrum 2.9.0.0
--------- Device Information -----------
Spectrum Name :  反射率_0
Saving Time :  2024/05/01 17:17:29
Spectro-Module Model Name : SE2030-DUVN
Spectro-Module Serial Number : OS361AC55029948
Wavelength Start : 200
Wavelength End : 1025
Wavelength Unit : Wavelength(nm)
Spectrum Unit : Reflectance(%)
-----------Spectrum Setting ------------
Integration Time : 20ms
Average : 10
Boxcar : 0
Background removal :  enabled
linearity correction :  enabled
SC :  disabled
Intensity correction :  disabled
DWT denoise :  enabled
savitzky-golay :  disabled
FFT :  disabled
Running average :  disabled
Kalman :  disabled
High pass :  disabled
---------------BEGIN--------------------
Wavelength(nm)             Reflectance(%)
200.29               0
200.75        286.1812
201.21        1036.744
201.67       -382.8835
202.13       -128.0289
202.58       -52.38171
203.04       -10.98133
203.50        12.60718
203.96        20.72843
204.42        14.56485
204.88        -23.9657
205.34       -1116.047
205.80        217.2226
206.26        163.2465
206.72        167.1169
207.18        300.3305
207.64       -156.6846
208.10       -21.48198
208.55        1.961608
209.01        7.238178
209.47        6.916009
209.93        3.465313
210.39       -3.747719
210.85       -16.80226
211.31       -45.34393
211.77       -147.6545
212.23        660.1045
212.69        175.2373
213.14        159.5004
213.60        253.9505
214.06       -944.4133
214.52       -122.4757
214.98       -70.00407
215.44       -60.48046
215.90       -77.73283
216.36       -455.0229
216.81        120.7274
217.27        126.8813
217.73       -263.0121
218.19       -64.95049
218.65       -61.03143
219.11       -89.65348
219.57       -193.8281
220.02        -615.942
220.48       -307.6717
220.94       -84.12138
221.40       -27.04837
221.86       -6.714861
222.32        1.749808
222.77        6.409491
223.23        10.05472
223.69        14.43184
224.15        19.97339
224.61        24.33301
225.06        26.31144
225.52        27.48537
225.98        29.20044
226.44        31.95695
226.90        36.08435
227.36        40.79574
227.81        42.24994
228.27         39.4261
228.73        35.11151
229.19        31.78671
229.65         30.6683
230.10        31.46199
230.56        33.98833
231.02        37.56413
231.48        39.90425
231.93        39.83214
232.39        38.48779
232.85        37.17444
233.31        37.18888
233.77        38.43102
234.22         40.2486
234.68        42.07156
235.14        43.43507
235.60        44.31848
236.05        45.04061
236.51        45.66525
236.97        46.27886
237.43        46.69408
237.88        46.53349
238.34         45.6164
238.80        44.28214
239.26        42.34184
239.71        39.68332
240.17        34.90959
240.63        26.25677
241.08        16.02179
241.54        8.247273
242.00        5.200411
242.46        7.103222
242.91        14.38906
243.37        28.94696
243.83        55.76395
244.28        84.37447
244.74        90.86564
245.20        82.79895
245.66        71.72138
246.11        61.25515
246.57         49.3451
247.03        31.05715
247.48        1.314445
247.94       -34.34987
248.40       -58.89193
248.85       -67.15166
249.31       -56.99467
249.77       -36.32119
250.22        -15.1658
250.68        2.895163
251.14        15.24624
251.59        20.87945
252.05        21.02955
252.51        14.36519
252.96       -6.413367
253.42       -35.84333
253.88       -29.14449
254.33        2.930231
254.79        23.03859
255.25        32.23433
255.70        36.73094
256.16        39.71795
256.62        42.17192
257.07        44.47372
257.53        46.75686
257.99        48.61703
258.44        49.88794
258.90        50.81411
259.35        51.22132
259.81        51.47318
260.27        51.40871
260.72         50.8638
261.18        50.17222
261.63        49.24038
262.09        48.42043
262.55        47.75744
263.00        47.15577
263.46        46.65399
263.91        46.10061
264.37         45.5744
264.83         45.0139
265.28        44.44474
265.74        43.84979
266.19        42.96039
266.65        41.89264
267.11        40.67276
267.56        39.59613
268.02        39.21684
268.47        39.55694
268.93        40.38008
269.38        41.28279
269.84        41.55165
270.30        41.02925
270.75        39.94002
271.21         38.5756
271.66        37.26377
272.12        36.20807
272.57        35.26299
273.03        34.53641
273.48        34.14125
273.94        34.06522
274.39         34.2205
274.85        34.40451
275.31        34.24992
275.76        33.68909
276.22        32.89459
276.67        31.97611
277.13        31.19884
277.58        30.57023
278.04         30.0571
278.49        29.60871
278.95        29.26839
279.40        28.97308
279.86        28.75737
280.31        28.51948
280.77        28.20082
281.22        27.74964
281.68        27.24961
282.13        26.69846
282.59        26.18215
283.04        25.69695
283.50        25.26648
283.95        24.90335
284.41        24.68205
284.86        24.58685
285.32        24.59823
285.77        24.65629
286.22        24.70767
286.68        24.73266
287.13        24.72537
287.59        24.66464
288.04        24.48118
288.50        24.20763
288.95        23.83507
289.41        23.49095
289.86        23.28402
290.32        23.25231
290.77        23.35397
291.22        23.48866
291.68        23.49119
292.13        23.33471
292.59        23.10478
293.04        22.90356
293.50        22.93999
293.95        23.23574
294.40        23.72054
294.86        24.29199
295.31        24.80369
295.77        25.19517
296.22        25.50126
296.68        25.73387
297.13        25.89911
297.58        26.02727
298.04        26.13607
298.49        26.25185
298.95        26.45779
299.40        26.75093
299.85         27.1013
300.31        27.50172
300.76        27.93629
301.21         28.3833
301.67         28.8487
302.12        29.22596
302.58        29.37862
303.03        29.28276
303.48        29.01648
303.94        28.75688
304.39        28.70547
304.84        28.91989
305.30        29.32225
305.75        29.78855
306.20        30.13938
306.66        30.32355
307.11        30.37705
307.57        30.35436
308.02        30.28943
308.47        30.21564
308.93        30.12239
309.38        29.99824
309.83        29.88016
310.29        29.78016
310.74        29.69185
311.19        29.61021
311.65        29.50868
312.10        29.37691
312.55         29.2259
313.00        29.07235
313.46        28.94131
313.91        28.83208
314.36        28.73419
314.82        28.62976
315.27        28.50367
315.72        28.34709
316.18        28.17236
316.63        27.97844
317.08        27.76567
317.53        27.53693
317.99        27.29685
318.44        27.05176
318.89        26.83065
319.35        26.64136
319.80        26.47318
320.25         26.3187
320.70        26.15887
321.16        25.98184
321.61        25.80295
322.06        25.61062
322.51         25.3907
322.97        25.14001
323.42        24.86944
323.87        24.60852
324.32         24.4165
324.78        24.29966
325.23        24.25109
325.68        24.21434
326.13        24.10243
326.59        23.88762
327.04        23.60517
327.49        23.29596
327.94        23.04152
328.39        22.86692
328.85        22.74113
329.30        22.64644
329.75        22.52764
330.20        22.36822
330.66        22.18497
331.11        21.99781
331.56        21.81219
332.01        21.63824
332.46        21.47277
332.92        21.32419
333.37        21.23563
333.82        21.20468
334.27        21.22598
334.72        21.27699
335.17        21.31631
335.63        21.31763
336.08        21.29551
336.53        21.25806
336.98        21.23429
337.43        21.22998
337.88        21.23825
338.34         21.2244
338.79        21.14469
339.24         20.9912
339.69        20.78704
340.14        20.59472
340.59        20.50992
341.05        20.54388
341.50         20.6676
341.95        20.81782
342.40        20.89201
342.85        20.86217
343.30         20.7686
343.75         20.6387
344.20         20.5139
344.66         20.4189
345.11        20.33212
345.56        20.28957
346.01        20.34702
346.46        20.50122
346.91        20.72556
347.36        20.94429
347.81        21.04259
348.26         20.9972
348.72        20.85154
349.17        20.63964
349.62        20.45672
350.07        20.33166
350.52        20.23514
350.97        20.15965
351.42        20.08988
351.87        20.02193
352.32        19.98018
352.77        19.93493
353.22        19.83529
353.67        19.67941
354.13        19.48183
354.58        19.30729
355.03        19.28753
355.48        19.43895
355.93         19.7257
356.38        20.02135
356.83        20.11263
357.28        19.95698
357.73        19.62806
358.18        19.27696
358.63        19.13022
359.08         19.2303
359.53          19.495
359.98        19.80936
360.43        19.97902
360.88        19.94248
361.33        19.77054
361.78        19.51797
362.23        19.26039
362.68        19.03142
363.13        18.80674
363.58        18.61132
364.03        18.49312
364.48        18.45396
364.93         18.4797
365.38        18.52167
365.83        18.49695
366.28        18.38342
366.73        18.20485
367.18        17.98165
367.63         17.7534
368.08         17.5456
368.53        17.35463
368.98         17.1971
369.43        17.09618
369.88        17.04699
370.33        17.03495
370.78        17.04031
371.23        17.02558
371.68        16.97437
372.13        16.89923
372.58         16.7808
373.03        16.58961
373.48        16.33172
373.93        16.02026
374.38         15.7262
374.83        15.56873
375.28        15.57339
375.72        15.70199
376.17        15.87231
376.62        15.95417
377.07        15.91187
377.52        15.77888
377.97        15.60304
378.42        15.46246
378.87        15.37951
379.32        15.32881
379.77         15.2811
380.22        15.19375
380.67        15.05923
381.11        14.90132
381.56        14.74876
382.01        14.64862
382.46        14.61482
382.91        14.63248
383.36        14.67124
383.81        14.68702
384.26        14.66333
384.71        14.60329
385.15        14.52577
385.60         14.4779
386.05        14.46196
386.50        14.47044
386.95        14.45893
387.40        14.36128
387.85        14.17843
388.29        13.93002
388.74        13.71897
389.19        13.63925
389.64        13.70207
390.09        13.86377
390.54        14.04881
390.98        14.13447
391.43        14.09234
391.88        13.97006
392.33        13.81212
392.78        13.68754
393.23        13.61627
393.67        13.55123
394.12        13.50901
394.57        13.52663
395.02        13.57929
395.47        13.57627
395.91        13.52165
396.36        13.48925
396.81        13.48753
397.26        13.46871
397.71        13.42889
398.15        13.39719
398.60        13.39029
399.05        13.34186
399.50         13.2759
399.95        13.32351
400.39        13.44321
400.84        13.39483
401.29        13.18391
401.74        13.03564
402.18        12.96714
402.63        12.84317
403.08        12.70108
403.53        12.65756
403.97        12.71586
404.42        12.84031
404.87        12.96129
405.32        12.96636
405.76        12.83296
406.21        12.60975
406.66        12.36556
407.11         12.2114
407.55        12.18118
408.00        12.23861
408.45        12.34973
408.90        12.43514
409.34        12.47003
409.79        12.50207
410.24        12.51953
410.68        12.47292
411.13        12.36719
411.58        12.22421
412.03        12.07091
412.47        11.95601
412.92        11.89752
413.37         11.8832
413.81        11.90286
414.26        11.94892
414.71        12.00601
415.15        12.08187
415.60        12.13657
416.05        12.11811
416.49        12.01901
416.94        11.85611
417.39        11.68454
417.83        11.59464
418.28        11.60781
418.73        11.69573
419.17        11.81501
419.62        11.88507
420.07        11.88778
420.51        11.84739
420.96        11.79249
421.41        11.74714
421.85         11.7174
422.30        11.69445
422.74        11.68552
423.19        11.71497
423.64        11.77867
424.08        11.87802
424.53        11.95887
424.98        11.94685
425.42         11.8307
425.87        11.64292
426.31        11.44196
426.76        11.33056
427.21        11.32751
427.65        11.39869
428.10        11.52226
428.54        11.65645
428.99        11.77857
429.44        11.91927
429.88        12.02035
430.33        11.99803
430.77        11.85282
431.22        11.62317
431.66        11.40315
432.11        11.36398
432.56         11.4931
433.00        11.71433
433.45        11.88242
433.89        11.71359
434.34        11.22045
434.78        11.16491
435.23        11.59701
435.67          11.731
436.12        11.57167
436.57        11.54366
437.01        11.64411
437.46        11.64149
437.90        11.52576
438.35        11.38484
438.79        11.25353
439.24        11.15466
439.68        11.12133
440.13        11.21849
440.57        11.38671
441.02         11.4784
441.46        11.46858
441.91        11.34927
442.35         11.1836
442.80        11.25458
443.24        11.48134
443.69        11.40713
444.13        11.07411
444.58        10.93537
445.02        11.00022
445.47        11.03022
445.91        11.02253
446.36        11.08418
446.80        11.20891
447.24        11.36106
447.69        11.50698
448.13          11.598
448.58        11.62084
449.02        11.58629
449.47        11.52341
449.91        11.47034
450.36        11.44381
450.80        11.43307
451.25        11.42271
451.69        11.37945
452.13        11.30021
452.58        11.20181
453.02        11.10777
453.47        11.06084
453.91        11.06796
454.36        11.11877
454.80        11.18283
455.24          11.208
455.69         11.1855
456.13        11.12372
456.58        11.06425
457.02        11.05502
457.46        11.10711
457.91        11.20008
458.35        11.29097
458.79        11.29585
459.24        11.20845
459.68         11.0867
460.13        10.99336
460.57        10.79468
461.01        10.82274
461.46        10.82101
461.90        10.86663
462.34         10.8815
462.79        10.91423
463.23        10.92164
463.68        10.93328
464.12        10.96723
464.56        11.02513
465.01        11.11113
465.45        11.17543
465.89        11.16423
466.34         11.0785
466.78        10.93072
467.22        10.78006
467.67        10.74859
468.11        10.81423
468.55        10.98332
468.99        11.17676
469.44        11.29234
469.88        11.30583
470.32        11.24332
470.77        11.14617
471.21        11.07854
471.65        11.06322
472.10        11.08091
472.54        11.10951
472.98        11.12379
473.42        11.11724
473.87         11.1077
474.31         11.0982
474.75        11.10254
475.20        11.12638
475.64         11.1552
476.08        11.18298
476.52        11.23045
476.97        11.30043
477.41        11.33577
477.85        11.31097
478.29         11.5056
478.74        11.42435
479.18        11.44734
479.62        11.44253
480.06        11.50505
480.50        11.64228
480.95        11.61282
481.39        11.79331
481.83        11.82249
482.27        11.81761
482.72         11.7909
483.16         11.7607
483.60        11.76873
484.04        11.80379
484.48        11.85355
484.93        11.97761
485.37        12.11288
485.81         12.1288
486.25        12.58617
486.69        11.85048
487.14        11.59532
487.58        12.10251
488.02        12.21697
488.46        12.18893
488.90        12.41578
489.34        12.08026
489.79        12.06888
490.23        12.57791
490.67         12.8781
491.11        13.03274
491.55        12.99552
491.99        12.84192
492.43        12.81962
492.88        12.95505
493.32        13.06649
493.76        13.13687
494.20        13.24802
494.64        13.39998
495.08         13.5554
495.52        13.69184
495.96        13.82606
496.41        13.94034
496.85          13.919
497.29        13.82636
497.73        13.94968
498.17        14.26188
498.61        14.41844
499.05        14.41144
499.49        14.50332
499.93        14.69407
500.37        14.82664
500.82        14.89025
501.26        14.94033
501.70        14.98155
502.14        15.00191
502.58        15.01239
503.02        15.03123
503.46        15.06598
503.90        15.11714
504.34        15.18988
504.78        15.28757
505.22        15.40584
505.66           15.54
506.10        15.66986
506.54        15.76239
506.98        15.80888
507.42        15.81824
507.86        15.80587
508.30        15.79744
508.74        15.80396
509.18        15.82198
509.62        15.85301
510.06        15.89798
510.50        15.95527
510.94        16.02439
511.38        16.10017
511.82        16.17301
512.26         16.2365
512.70        16.28725
513.14        16.32043
513.58        16.33172
514.02        16.32122
514.46        16.29168
514.90        16.24752
515.34        16.19621
515.78        16.14401
516.22        16.09446
516.66        16.05444
517.10        16.03161
517.54        16.02773
517.98        16.04147
518.42        16.06777
518.86        16.09701
519.30         16.1243
519.74        16.14874
520.18        16.16883
520.62        16.18463
521.06        16.19479
521.50        16.19618
521.93         16.1892
522.37        16.17126
522.81        16.14551
523.25        16.11647
523.69        16.08353
524.13        16.04415
524.57        16.00151
525.01        15.95848
525.45        15.92701
525.89        15.92568
526.32        15.95425
526.76        16.00005
527.20        16.04585
527.64        16.06359
528.08        16.04514
528.52        16.00201
528.96        15.93606
529.40        15.85082
529.83        15.75204
530.27        15.64492
530.71        15.55215
531.15        15.51344
531.59        15.53287
532.03        15.59607
532.46        15.66653
532.90        15.68594
533.34        15.64257
533.78        15.54554
534.22        15.42296
534.66        15.34434
535.09        15.30863
535.53        15.24947
535.97        15.17876
536.41          15.171
536.85        15.22774
537.28        15.31179
537.72        15.39798
538.16        15.46156
538.60        15.49162
539.04        15.49243
539.47        15.48138
539.91        15.49677
540.35        15.54409
540.79        15.62206
541.22        15.71349
541.66        15.76662
542.10        15.81617
542.54        15.83861
542.97        15.86951
543.41        15.95488
543.85        16.09675
544.29        16.28017
544.72        16.46551
545.16        16.59932
545.60        16.66907
546.04        16.69109
546.47        16.70341
546.91        16.77199
547.35        16.91118
547.79        17.09398
548.22        17.27398
548.66        17.41915
549.10        17.51968
549.53        17.50971
549.97        17.57795
550.41        17.66347
550.84        17.82308
551.28        18.03828
551.72        18.27015
552.15        18.43792
552.59        18.53443
553.03        18.60828
553.46         18.6764
553.90        18.77561
554.34        18.91562
554.77         19.0517
555.21        19.15588
555.65        19.39408
556.08        19.39248
556.52        19.46433
556.96        19.50707
557.39        19.55193
557.83        19.60963
558.27        19.64567
558.70        19.66723
559.14        19.78191
559.57        19.81389
560.01        19.93645
560.45        20.05223
560.88        20.07522
561.32        20.04254
561.75        19.97828
562.19         19.9483
562.63        20.13932
563.06        20.46851
563.50        20.50378
563.93        20.27888
564.37        20.24864
564.80        20.41856
565.24        20.53629
565.68        20.59537
566.11        20.70676
566.55        20.87439
566.98        21.05752
567.42        21.24192
567.85        21.39175
568.29        21.51106
568.72        21.59453
569.16        21.67639
569.60        21.78575
570.03        21.92058
570.47        22.03097
570.90        22.27219
571.34         22.3107
571.77        22.46726
572.21        22.56944
572.64         22.7218
573.08        22.72403
573.51        23.08457
573.95        23.20189
574.38        23.28795
574.82        23.50612
