SpectraSmart Spectrum 2.9.0.0
--------- Device Information -----------
Spectrum Name :  反射率_0
Saving Time :  2024/05/01 17:21:54
Spectro-Module Model Name : SE2030-DUVN
Spectro-Module Serial Number : OS361AC55029948
Wavelength Start : 200
Wavelength End : 1025
Wavelength Unit : Wavelength(nm)
Spectrum Unit : Reflectance(%)
-----------Spectrum Setting ------------
Integration Time : 20ms
Average : 10
Boxcar : 0
Background removal :  enabled
linearity correction :  enabled
SC :  disabled
Intensity correction :  disabled
DWT denoise :  enabled
savitzky-golay :  disabled
FFT :  disabled
Running average :  disabled
Kalman :  disabled
High pass :  disabled
---------------BEGIN--------------------
Wavelength(nm)             Reflectance(%)
200.29               0
200.75        226.8878
201.21        915.2947
201.67       -359.9468
202.13       -125.8252
202.58       -54.39598
203.04        -14.2586
203.50        9.548056
203.96        19.47119
204.42        17.88571
204.88        -5.50844
205.34       -723.0728
205.80        159.4085
206.26        130.6219
206.72        151.2653
207.18        330.3707
207.64       -221.9448
208.10        -38.4945
208.55        5.058743
209.01        23.59798
209.47        30.13329
209.93        29.23306
210.39        22.26738
210.85        11.66242
211.31       -1.156924
211.77       -31.25562
212.23        178.5507
212.69        54.96599
213.14        63.94128
213.60        139.3481
214.06       -718.4316
214.52       -126.4554
214.98       -89.83765
215.44       -86.61713
215.90       -111.8058
216.36       -559.5358
216.81        102.7306
217.27        59.63716
217.73       -57.13444
218.19       -14.31263
218.65        -25.0678
219.11       -56.54607
219.57       -160.7815
220.02       -607.0585
220.48       -338.4174
220.94       -101.9733
221.40        -38.5213
221.86       -14.76597
222.32       -3.841302
222.77        3.270614
223.23        10.28038
223.69        18.04357
224.15        22.77359
224.61         22.2496
225.06        19.09356
225.52        16.67175
225.98        16.58632
226.44        18.73287
226.90        22.87415
227.36        28.65419
227.81        32.63653
228.27        32.61882
228.73        30.56006
229.19        28.27476
229.65        26.64394
230.10        25.55892
230.56         24.8574
231.02        24.41155
231.48        24.29596
231.93         24.5391
232.39        25.01997
232.85        26.08827
233.31        28.18957
233.77        30.99915
234.22        34.16471
234.68        36.76707
235.14        37.83741
235.60        37.22357
236.05          34.859
236.51        30.99191
236.97        27.94309
237.43        27.78706
237.88        30.48231
238.34        33.86931
238.80        34.83076
239.26        32.15461
239.71        25.52357
240.17        13.58253
240.63      -0.8923256
241.08       -10.36173
241.54       -12.32509
242.00       -9.126521
242.46       -4.145518
242.91        2.757591
243.37        13.98181
243.83        33.76491
244.28        56.06367
244.74        62.71264
245.20        57.48574
245.66        49.20044
246.11        40.83363
246.57        30.92741
247.03        16.21762
247.48       -7.974363
247.94       -38.43664
248.40       -61.62312
248.85       -72.94547
249.31       -65.43491
249.77       -41.31154
250.22       -13.07236
250.68        12.06432
251.14        29.55611
251.59        37.62337
252.05        37.83575
252.51        28.61065
252.96      -0.2043574
253.42        -45.0629
253.88       -44.37093
254.33       -4.890551
254.79        21.19117
255.25         32.1598
255.70        36.43624
256.16        38.87738
256.62        40.98281
257.07        43.42345
257.53        46.16769
257.99        48.53025
258.44        50.22375
258.90        51.43779
259.35        52.02057
259.81        52.38614
260.27        52.42407
260.72        52.02127
261.18        51.49225
261.63        50.69275
262.09         49.9293
262.55        49.18908
263.00        48.39629
263.46        47.64985
263.91        46.83532
264.37        46.08232
264.83        45.33854
265.28        44.60492
265.74        43.87558
266.19        42.89812
266.65        41.77758
267.11        40.53271
267.56        39.40557
268.02        38.86551
268.47        38.92788
268.93        39.39019
269.38        39.92303
269.84        39.93525
270.30        39.30078
270.75        38.20387
271.21        36.88655
271.66        35.59966
272.12        34.51949
272.57        33.52886
273.03        32.73423
273.48        32.24767
273.94        32.06902
274.39        32.11744
274.85        32.22261
275.31        32.07176
275.76        31.59836
276.22        30.94229
276.67         30.1811
277.13        29.53027
277.58        28.98412
278.04         28.5188
278.49         28.0839
278.95        27.71868
279.40         27.3733
279.86        27.09363
280.31        26.79702
280.77        26.44688
281.22        25.99858
281.68        25.51929
282.13        25.01827
282.59        24.59167
283.04        24.22897
283.50        23.94593
283.95        23.70717
284.41        23.50897
284.86        23.33376
285.32        23.19715
285.77        23.11029
286.22        23.11851
286.68        23.21959
287.13        23.37267
287.59        23.51536
288.04        23.50653
288.50        23.35218
288.95        23.07021
289.41        22.78768
289.86        22.61645
290.32        22.60307
290.77        22.69935
291.22        22.84166
291.68        22.92558
292.13        22.92726
292.59        22.91145
293.04        22.91871
293.50        23.05786
293.95        23.33425
294.40        23.71698
294.86        24.16443
295.31        24.62709
295.77        25.07342
296.22         25.5068
296.68        25.91501
297.13        26.26829
297.58        26.57834
298.04         26.8715
298.49        27.16009
298.95         27.5015
299.40        27.89063
299.85        28.30681
300.31        28.76054
300.76        29.26669
301.21         29.8141
301.67        30.39764
302.12        30.91755
302.58        31.24414
303.03        31.34295
303.48        31.28733
303.94        31.21608
304.39        31.27441
304.84         31.5174
305.30        31.88068
305.75        32.29238
306.20        32.65924
306.66        32.94321
307.11        33.14863
307.57        33.26765
308.02        33.23538
308.47        33.07246
308.93        32.80958
309.38        32.49516
309.83         32.2593
310.29        32.14072
310.74         32.1041
311.19        32.11366
311.65        32.09365
312.10        32.01641
312.55         31.9093
313.00        31.79636
313.46        31.71302
313.91        31.65951
314.36        31.61189
314.82        31.54747
315.27        31.44955
315.72        31.30441
316.18        31.12483
316.63        30.90146
317.08        30.62369
317.53         30.2952
317.99        29.92801
318.44        29.54396
318.89        29.19606
319.35        28.90553
319.80        28.66459
320.25        28.46296
320.70        28.27335
321.16        28.08028
321.61        27.89859
322.06        27.72451
322.51        27.55653
322.97        27.38699
323.42        27.21696
323.87        27.04266
324.32        26.87291
324.78        26.70211
325.23         26.5369
325.68        26.35825
326.13        26.14157
326.59        25.87644
327.04        25.58492
327.49        25.27884
327.94        24.98876
328.39        24.72582
328.85        24.47527
329.30        24.24783
329.75        24.03317
330.20        23.82736
330.66        23.62991
331.11         23.4389
331.56         23.2216
332.01        22.97788
332.46        22.72223
332.92         22.4726
333.37        22.28754
333.82        22.17345
334.27        22.11763
334.72        22.11615
335.17         22.1611
335.63        22.22631
336.08        22.31278
336.53        22.38157
336.98        22.38635
337.43        22.31388
337.88        22.17651
338.34        21.97754
338.79        21.74282
339.24        21.49015
339.69        21.22684
340.14        21.00025
340.59        20.87924
341.05        20.86475
341.50        20.93832
341.95        21.04192
342.40        21.07705
342.85        21.01864
343.30         20.9064
343.75        20.75817
344.20        20.60423
344.66        20.46623
345.11        20.31933
345.56        20.22539
346.01        20.28198
346.46        20.48977
346.91        20.81113
347.36        21.11307
347.81        21.19368
348.26        21.01858
348.72        20.65901
349.17        20.22927
349.62        19.95309
350.07        19.88723
350.52        19.96383
350.97        20.09027
351.42        20.11088
351.87        19.98802
352.32        19.79285
352.77        19.56882
353.22        19.37857
353.67        19.24368
354.13        19.13117
354.58        19.05936
355.03        19.09062
355.48        19.22374
355.93        19.45844
356.38        19.67532
356.83        19.67028
357.28        19.41726
357.73        18.98511
358.18        18.57187
358.63        18.47632
359.08        18.74426
359.53        19.27073
359.98        19.85773
360.43        20.16555
360.88        20.09632
361.33        19.76513
361.78        19.31053
362.23        18.93751
362.68        18.71091
363.13        18.56495
363.58        18.47801
364.03         18.4212
364.48         18.3733
364.93         18.3525
365.38        18.33039
365.83        18.25036
366.28        18.10254
366.73        17.89949
367.18        17.66893
367.63        17.46535
368.08        17.31326
368.53        17.20471
368.98        17.13654
369.43        17.10154
369.88        17.08726
370.33        17.08344
370.78        17.08341
371.23        17.07501
371.68        17.04814
372.13        17.00723
372.58        16.91788
373.03        16.72799
373.48         16.4412
373.93        16.08197
374.38        15.73935
374.83        15.56086
375.28        15.57973
375.72        15.74715
376.17         15.9683
376.62        16.09447
377.07        16.08182
377.52        15.96715
377.97        15.79899
378.42        15.65559
378.87        15.56351
379.32        15.50301
379.77        15.44524
380.22        15.34901
380.67        15.20908
381.11        15.04565
381.56        14.90609
382.01        14.86671
382.46        14.93871
382.91        15.09246
383.36        15.24863
383.81         15.2904
384.26         15.1889
384.71         14.9707
385.15        14.71019
385.60        14.54204
386.05        14.49443
386.50        14.54144
386.95        14.59719
387.40        14.52931
387.85        14.32481
388.29         14.0239
388.74        13.77182
389.19        13.72305
389.64        13.89275
390.09        14.20799
390.54        14.53771
390.98        14.67291
391.43        14.57082
391.88        14.31737
392.33        14.00711
392.78        13.77797
393.23        13.66662
393.67        13.60203
394.12        13.58708
394.57        13.63886
395.02        13.72295
395.47        13.75649
395.91        13.73155
396.36        13.70164
396.81         13.6744
397.26        13.60714
397.71          13.518
398.15        13.47265
398.60        13.49247
399.05        13.49459
399.50        13.48506
399.95        13.57339
400.39        13.70995
400.84        13.65558
401.29        13.41526
401.74        13.21811
402.18        13.08622
402.63        12.88776
403.08        12.67178
403.53        12.57079
403.97        12.59382
404.42        12.70347
404.87        12.83239
405.32        12.86978
405.76        12.78731
406.21        12.62683
406.66        12.44206
407.11         12.3212
407.55        12.29219
408.00        12.32544
408.45        12.39159
408.90         12.4229
409.34        12.40445
409.79        12.38365
410.24        12.36326
410.68        12.31379
411.13        12.24102
411.58        12.16183
412.03        12.08016
412.47        12.00215
412.92        11.93343
413.37         11.8734
413.81        11.83489
414.26         11.8455
414.71        11.89975
415.15        11.99678
415.60        12.08283
416.05        12.08297
416.49        11.98183
416.94        11.80085
417.39         11.6101
417.83        11.52294
418.28        11.56305
418.73        11.69299
419.17        11.84238
419.62        11.88956
420.07        11.81196
420.51        11.65226
420.96        11.47509
421.41        11.35854
421.85        11.32128
422.30        11.33722
422.74        11.38771
423.19        11.45748
423.64        11.53148
424.08        11.62227
424.53        11.68849
424.98        11.67748
425.42        11.58362
425.87        11.42866
426.31        11.25952
426.76        11.16411
427.21         11.1568
427.65        11.20856
428.10        11.30356
428.54        11.41022
428.99        11.50941
429.44        11.62813
429.88         11.7067
430.33        11.65826
430.77        11.48303
431.22        11.22319
431.66        10.97125
432.11        10.89443
432.56        10.98338
433.00        11.16569
433.45        11.31185
433.89        11.16499
434.34        10.73535
434.78        10.74415
435.23        11.23185
435.67        11.42085
436.12         11.3037
436.57        11.29444
437.01         11.3998
437.46        11.40892
437.90        11.31483
438.35        11.20004
438.79        11.08239
439.24        10.96005
439.68        10.86479
440.13        10.87019
440.57        10.94758
441.02        11.00211
441.46         11.0202
441.91        10.97804
442.35        10.89931
442.80        11.01099
443.24        11.22484
443.69        11.10527
444.13        10.72739
444.58        10.58134
445.02        10.68495
445.47        10.79213
445.91        10.86124
446.36         10.9383
446.80        11.00751
447.24        11.05514
447.69        11.09305
448.13        11.14306
448.58        11.20616
449.02        11.26769
449.47        11.31521
449.91        11.32264
450.36        11.28988
450.80        11.22819
451.25        11.14767
451.69        11.05436
452.13        10.95856
452.58        10.86487
453.02        10.78772
453.47         10.7571
453.91        10.77437
454.36        10.83246
454.80        10.90419
455.24        10.94108
455.69        10.93253
456.13        10.88258
456.58        10.82277
457.02        10.78725
457.46        10.78793
457.91        10.81423
458.35        10.83759
458.79        10.79694
459.24        10.69344
459.68        10.57645
460.13        10.50537
460.57         10.3505
461.01        10.42529
461.46        10.48136
461.90        10.58023
462.34         10.6251
462.79        10.65873
463.23        10.64463
463.68        10.62231
464.12        10.62917
464.56        10.67453
465.01        10.75716
465.45        10.82832
465.89        10.83473
466.34         10.7752
466.78        10.66248
467.22        10.54698
467.67        10.53358
468.11        10.59689
468.55        10.74718
468.99        10.91517
469.44         11.0149
469.88        11.02725
470.32        10.97403
470.77        10.89423
471.21        10.84702
471.65        10.85301
472.10        10.89582
472.54        10.95045
472.98        10.98647
473.42        10.99702
473.87        11.00008
474.31        11.00532
474.75        11.03768
475.20        11.10344
475.64        11.18307
476.08        11.26069
476.52        11.34202
476.97        11.42648
477.41        11.46133
477.85        11.42783
478.29        11.61953
478.74        11.54086
479.18        11.57389
479.62        11.58339
480.06        11.66296
480.50         11.8183
480.95        11.80298
481.39        12.00275
481.83        12.05612
482.27        12.08259
482.72        12.09244
483.16        12.09296
483.60        12.11329
484.04        12.14341
484.48        12.16763
484.93        12.26582
485.37        12.44145
485.81        12.55273
486.25        13.06382
486.69         12.2313
487.14        12.06269
487.58        12.89639
488.02         12.9743
488.46        12.82469
488.90        13.12642
489.34        12.78263
489.79        12.82346
490.23        13.33203
490.67        13.58329
491.11        13.65896
491.55        13.58635
491.99        13.44691
492.43         13.4177
492.88         13.5266
493.32        13.63848
493.76        13.74168
494.20         13.9047
494.64        14.12519
495.08        14.36364
495.52        14.58821
495.96        14.80009
496.41        14.97148
496.85        14.99149
497.29        14.92114
497.73        15.02466
498.17        15.29134
498.61        15.44195
499.05        15.46008
499.49        15.53817
499.93        15.67519
500.37        15.75518
500.82        15.79206
501.26        15.85991
501.70        15.96697
502.14        16.09294
502.58        16.21292
503.02        16.28953
503.46        16.31767
503.90        16.31241
504.34        16.31161
504.78        16.37394
505.22        16.51075
505.66        16.70194
506.10        16.90141
506.54        17.03316
506.98        17.07674
507.42         17.0555
507.86        17.00717
508.30        16.99083
508.74        17.02495
509.18        17.09351
509.62        17.17726
510.06        17.24495
510.50        17.28578
510.94        17.30946
511.38        17.32994
511.82        17.36693
512.26        17.42367
512.70        17.49179
513.14         17.5512
513.58        17.57251
514.02        17.55215
514.46        17.50224
514.90        17.44964
515.34        17.43724
515.78        17.47444
516.22        17.54574
516.66        17.62811
517.10        17.68526
517.54        17.70585
517.98        17.70101
518.42        17.67788
518.86        17.64817
519.30        17.61897
519.74        17.58701
520.18        17.55704
520.62        17.53806
521.06        17.52997
521.50        17.52898
521.93        17.53159
522.37        17.52534
522.81        17.50924
523.25        17.49003
523.69        17.46072
524.13        17.41024
524.57          17.342
525.01        17.26031
525.45        17.19276
525.89        17.18339
526.32        17.23576
526.76        17.32971
527.20        17.42783
527.64        17.46797
528.08        17.43562
528.52        17.35579
528.96         17.2488
529.40        17.14723
529.83        17.06356
530.27        16.99025
530.71        16.94339
531.15        16.95338
531.59        17.01746
532.03        17.12394
532.46        17.22203
532.90        17.23145
533.34        17.13915
533.78        16.96046
534.22        16.75068
534.66        16.62251
535.09        16.58331
535.53        16.55435
535.97        16.52406
536.41        16.53275
536.85        16.57421
537.28        16.62002
537.72          16.672
538.16        16.74923
538.60        16.84669
539.04        16.94903
539.47        17.04046
539.91        17.11198
540.35        17.15717
540.79        17.19045
541.22        17.21807
541.66        17.22326
542.10        17.25741
542.54        17.28606
542.97        17.33297
543.41        17.42423
543.85        17.55724
544.29        17.72454
544.72        17.90135
545.16        18.05499
545.60        18.17377
546.04        18.26804
546.47        18.35258
546.91         18.4454
547.35        18.55918
547.79        18.70631
548.22        18.85259
548.66         18.9654
549.10        19.04219
549.53         19.0185
549.97        19.09683
550.41        19.20043
550.84        19.38698
551.28        19.63883
551.72        19.90842
552.15        20.09865
552.59        20.19885
553.03        20.26251
553.46        20.31101
553.90        20.38991
554.34        20.51369
554.77        20.63629
555.21        20.72856
555.65        20.97138
556.08        20.96124
556.52        21.03482
556.96        21.08811
557.39        21.16459
557.83        21.27457
558.27        21.37676
558.70        21.45621
559.14         21.5948
559.57        21.59459
560.01        21.65486
560.45        21.70151
560.88        21.69079
561.32        21.67291
561.75        21.65987
562.19        21.69063
562.63        21.91883
563.06         22.2428
563.50        22.20638
563.93        21.88357
564.37        21.81888
564.80        22.02754
565.24        22.22175
565.68        22.35411
566.11        22.48299
566.55        22.60233
566.98        22.68939
567.42        22.77571
567.85         22.8938
568.29        23.06076
568.72        23.24117
569.16        23.42268
569.60        23.58205
570.03        23.70479
570.47        23.72729
570.90        23.84462
571.34        23.89223
571.77        23.96015
572.21        24.08534
572.64         24.3045
573.08        24.29386
573.51        24.53272
573.95        24.88926
574.38        24.71077
574.82        24.85158
