SpectraSmart Spectrum 2.9.0.0
--------- Device Information -----------
Spectrum Name :  反射率_0
Saving Time :  2024/05/01 17:00:41
Spectro-Module Model Name : SE2030-DUVN
Spectro-Module Serial Number : OS361AC55029948
Wavelength Start : 200
Wavelength End : 1025
Wavelength Unit : Wavelength(nm)
Spectrum Unit : Reflectance(%)
-----------Spectrum Setting ------------
Integration Time : 20ms
Average : 10
Boxcar : 0
Background removal :  enabled
linearity correction :  enabled
SC :  disabled
Intensity correction :  disabled
DWT denoise :  enabled
savitzky-golay :  disabled
FFT :  disabled
Running average :  disabled
Kalman :  disabled
High pass :  disabled
---------------BEGIN--------------------
Wavelength(nm)             Reflectance(%)
200.29               0
200.75        207.9601
201.21        904.1122
201.67       -379.7047
202.13       -137.6752
202.58       -60.04994
203.04        -14.7027
203.50        12.29867
203.96        22.13033
204.42        16.31877
204.88       -23.13377
205.34       -1115.361
205.80        204.3825
206.26         132.651
206.72        92.66645
207.18        -10.4645
207.64        233.0728
208.10        131.2093
208.55        98.57727
209.01        78.85069
209.47        67.94083
209.93         62.2718
210.39        57.51533
210.85        52.33827
211.31        43.18059
211.77         11.3967
212.23        249.6323
212.69         110.413
213.14        119.3134
213.60        200.1621
214.06       -739.3284
214.52       -91.86495
214.98       -51.38372
215.44       -46.84489
215.90       -68.81329
216.36       -508.7394
216.81        182.1914
217.27        247.8799
217.73       -595.0118
218.19       -143.6131
218.65       -112.5939
219.11       -126.7775
219.57       -199.0058
220.02       -452.3594
220.48       -163.7392
220.94       -29.54704
221.40       -1.630905
221.86        7.887617
222.32        14.23098
222.77        21.48617
223.23        31.49122
223.69        43.72816
224.15        49.25961
224.61        44.74397
225.06        36.71117
225.52        31.28203
225.98        30.71469
226.44        34.50771
226.90        42.31879
227.36        52.82152
227.81        58.44879
228.27        55.81905
228.73        49.69428
229.19        44.43137
229.65        42.36276
230.10        43.12835
230.56        46.04362
231.02        50.21562
231.48        52.90158
231.93        52.64755
232.39        50.97072
232.85        49.23503
233.31        48.70008
233.77        49.34368
234.22        50.54879
234.68        51.87111
235.14        52.95627
235.60        53.78326
236.05        54.64344
236.51        55.64381
236.97        56.99021
237.43         58.4405
237.88        59.57118
238.34        59.66285
238.80        58.60692
239.26        56.11622
239.71        51.69237
240.17        44.12204
240.63         34.5421
241.08        27.45412
241.54        25.43812
242.00        27.35298
242.46        30.91311
242.91        36.54172
243.37        45.82453
243.83        62.50322
244.28        82.11571
244.74        88.71069
245.20        84.83054
245.66         78.2391
246.11        71.88502
246.57        64.64178
247.03        53.44687
247.48        33.13927
247.94        1.922337
248.40       -30.13892
248.85       -54.78642
249.31       -60.36575
249.77       -44.91219
250.22       -20.62953
250.68        3.698495
251.14         21.8336
251.59          30.834
252.05        32.34964
252.51        25.68854
252.96        4.049244
253.42       -22.62164
253.88       -6.760829
254.33        29.04959
254.79         47.2458
255.25        51.96286
255.70        51.28479
256.16          49.651
256.62        48.90339
257.07        50.17184
257.53        52.91134
257.99        55.75592
258.44        57.81334
258.90        58.81039
259.35         58.6487
259.81        58.06814
260.27        57.24376
260.72        56.47106
261.18        56.08781
261.63        55.65561
262.09        55.36285
262.55        55.05888
263.00        54.61016
263.46        54.19767
263.91        53.59108
264.37        52.80493
264.83        51.82617
265.28        50.73484
265.74        49.72929
266.19        48.81703
266.65        48.12205
267.11        47.52508
267.56        47.11062
268.02        47.11079
268.47        47.46145
268.93        48.04964
269.38        48.54037
269.84        48.34174
270.30        47.37898
270.75        45.85075
271.21        44.17104
271.66        42.84512
272.12        42.07681
272.57        41.64607
273.03        41.46765
273.48         41.3326
273.94        41.17352
274.39        41.01293
274.85        40.78521
275.31        40.30831
275.76        39.56697
276.22        38.67162
276.67        37.72788
277.13        37.02283
277.58        36.52924
278.04        36.21202
278.49        35.92027
278.95        35.55275
279.40        35.02948
279.86        34.45916
280.31        33.83842
280.77        33.26753
281.22        32.71575
281.68        32.21993
282.13        31.72363
282.59        31.25388
283.04        30.77629
283.50        30.33776
283.95        29.94024
284.41        29.65015
284.86        29.45143
285.32        29.33238
285.77        29.24662
286.22        29.17178
286.68        29.09584
287.13        29.00948
287.59        28.88912
288.04          28.657
288.50        28.34672
288.95        27.94661
289.41        27.59221
289.86        27.39322
290.32        27.38675
290.77        27.51916
291.22        27.67592
291.68         27.6685
292.13         27.4674
292.59        27.17469
293.04        26.90505
293.50        26.89126
293.95        27.16205
294.40        27.63663
294.86        28.22509
295.31        28.79833
295.77        29.29141
296.22        29.73049
296.68         30.0825
297.13        30.28034
297.58        30.34895
298.04        30.33348
298.49        30.32133
298.95        30.49638
299.40        30.87671
299.85         31.3994
300.31         32.0116
300.76        32.62361
301.21        33.19695
301.67        33.76249
302.12        34.22807
302.58        34.48107
303.03        34.50189
303.48        34.35624
303.94        34.22502
304.39        34.31232
304.84        34.67596
305.30         35.2308
305.75           35.84
306.20        36.30691
306.66        36.57456
307.11        36.68159
307.57        36.67918
308.02        36.58683
308.47        36.44807
308.93        36.26421
309.38        36.05577
309.83        35.91279
310.29        35.86021
310.74        35.87761
311.19         35.9304
311.65        35.94123
312.10        35.88458
312.55        35.78536
313.00        35.68118
313.46        35.63268
313.91        35.64293
314.36        35.67948
314.82        35.70073
315.27        35.65815
315.72        35.52925
316.18        35.34036
316.63        35.09377
317.08        34.79908
317.53        34.47121
317.99        34.12257
318.44        33.77989
318.89        33.50048
319.35        33.30561
319.80        33.18434
320.25        33.12654
320.70        33.10661
321.16        33.09977
321.61        33.10957
322.06        33.10916
322.51        33.06339
322.97        32.95558
323.42        32.80238
323.87        32.60992
324.32        32.40721
324.78        32.20398
325.23        32.00878
325.68        31.82987
326.13        31.68385
326.59        31.56513
327.04        31.49004
327.49        31.42605
327.94        31.32576
328.39        31.17725
328.85        30.97867
329.30        30.78368
329.75        30.65084
330.20        30.59427
330.66        30.58374
331.11        30.58547
331.56        30.50811
332.01        30.33139
332.46        30.08635
332.92        29.80633
333.37        29.58169
333.82        29.43115
334.27        29.33964
334.72        29.30199
335.17        29.30731
335.63        29.33451
336.08        29.40113
336.53        29.48344
336.98         29.5569
337.43        29.61143
337.88        29.64774
338.34        29.64925
338.79          29.615
339.24         29.5421
339.69         29.4347
340.14        29.33288
340.59        29.30055
341.05        29.33907
341.50        29.43115
341.95        29.52748
342.40        29.54606
342.85        29.47054
343.30        29.34352
343.75        29.18799
344.20        29.03698
344.66        28.91404
345.11        28.79914
345.56        28.74989
346.01         28.8546
346.46        29.10913
346.91        29.47222
347.36         29.8195
347.81        29.96367
348.26        29.87117
348.72        29.61033
349.17        29.26959
349.62          29.035
350.07        28.95712
350.52        28.97739
350.97        29.04508
351.42        29.07221
351.87         29.0332
352.32        28.97764
352.77        28.89222
353.22        28.75264
353.67        28.56423
354.13        28.32436
354.58        28.10459
355.03        28.05748
355.48        28.20056
355.93         28.5045
356.38        28.79931
356.83         28.7978
357.28        28.45392
357.73        27.86919
358.18        27.28611
358.63        27.06471
359.08        27.26655
359.53        27.76772
359.98        28.34864
360.43        28.63604
360.88        28.52213
361.33        28.13495
361.78         27.6289
362.23        27.22822
362.68        27.00219
363.13        26.87863
363.58        26.81706
364.03        26.76233
364.48        26.68431
364.93        26.60054
365.38        26.51151
365.83        26.40509
366.28        26.27687
366.73        26.13044
367.18        25.93571
367.63        25.65399
368.08        25.30117
368.53        24.90698
368.98        24.56126
369.43        24.39349
369.88        24.41629
370.33        24.57765
370.78        24.78441
371.23         24.8689
371.68        24.77287
372.13         24.5495
372.58        24.23321
373.03        23.87625
373.48        23.51102
373.93        23.12573
374.38        22.78049
374.83        22.57953
375.28        22.53995
375.72           22.63
376.17        22.76542
376.62        22.80288
377.07        22.70335
377.52        22.50183
377.97         22.2471
378.42        22.02068
378.87         21.8525
379.32        21.72443
379.77        21.61644
380.22        21.49894
380.67        21.36607
381.11        21.23268
381.56        21.12863
382.01        21.10302
382.46        21.15957
382.91        21.27523
383.36        21.38545
383.81        21.39656
384.26        21.28687
384.71        21.07788
385.15        20.83034
385.60        20.66246
386.05        20.59415
386.50        20.59725
386.95        20.60365
387.40        20.50808
387.85        20.29949
388.29        20.01021
388.74        19.75099
389.19        19.61217
389.64         19.6087
390.09        19.69522
390.54        19.81256
390.98         19.8653
391.43        19.83307
391.88        19.75114
392.33        19.64271
392.78        19.54806
393.23        19.48182
393.67        19.39778
394.12        19.32932
394.57        19.34596
395.02        19.41928
395.47        19.41101
395.91        19.33372
396.36        19.31234
396.81        19.35577
397.26        19.38932
397.71        19.38813
398.15         19.3626
398.60        19.33442
399.05        19.22617
399.50        19.08606
399.95        19.12162
400.39        19.27827
400.84         19.1993
401.29        18.90743
401.74        18.74913
402.18        18.74785
402.63        18.70091
403.08        18.60778
403.53        18.55363
403.97        18.53506
404.42        18.53269
404.87        18.52068
405.32        18.45797
405.76        18.33726
406.21        18.18301
406.66        18.03436
407.11         17.9541
407.55        17.96081
408.00        18.03511
408.45        18.14101
408.90        18.18779
409.34        18.15936
409.79        18.11893
410.24        18.08054
410.68        18.02248
411.13        17.95678
411.58        17.90552
412.03        17.86061
412.47        17.80221
412.92        17.72878
413.37        17.64972
413.81        17.59717
414.26        17.63239
414.71        17.75275
415.15         17.9458
415.60        18.13087
416.05        18.19132
416.49        18.10033
416.94        17.89273
417.39        17.65828
417.83        17.54147
418.28        17.57703
418.73        17.71777
419.17        17.89234
419.62        17.97778
420.07        17.94832
420.51        17.84969
420.96        17.73621
421.41         17.6626
421.85        17.64341
422.30        17.66117
422.74        17.71639
423.19        17.83353
423.64        18.00036
424.08         18.2168
424.53        18.40932
424.98        18.47491
425.42        18.39289
425.87        18.20031
426.31        17.96438
426.76        17.80357
427.21        17.74563
427.65        17.75512
428.10        17.82921
428.54        17.95308
428.99        18.11262
429.44        18.33729
429.88        18.52764
430.33        18.54526
430.77        18.38209
431.22        18.10079
431.66        17.83013
432.11        17.80305
432.56        17.99547
433.00         18.2812
433.45        18.46823
433.89        18.20809
434.34        17.52145
434.78        17.52033
435.23        18.26964
435.67        18.54819
436.12        18.35067
436.57        18.32658
437.01        18.50156
437.46        18.56977
437.90        18.52148
438.35         18.4733
438.79        18.43091
439.24        18.35667
439.68        18.28905
440.13        18.35743
440.57        18.52024
441.02        18.61922
441.46        18.63298
441.91        18.56433
442.35        18.44415
442.80        18.54992
443.24        18.77854
443.69        18.61611
444.13        18.15436
444.58        17.98225
445.02        18.11823
445.47        18.26233
445.91        18.37214
446.36        18.51663
446.80        18.67138
447.24        18.81414
447.69         18.9224
448.13        18.96289
448.58        18.93438
449.02        18.84227
449.47         18.7304
449.91        18.65538
450.36         18.6397
450.80        18.66896
451.25         18.7123
451.69        18.70497
452.13         18.6365
452.58        18.52919
453.02        18.42086
453.47        18.38223
453.91        18.42294
454.36        18.52391
454.80        18.63104
455.24        18.65831
455.69        18.59348
456.13        18.45569
456.58        18.31715
457.02        18.26136
457.46         18.3101
457.91        18.43272
458.35        18.56622
458.79        18.58443
459.24        18.47447
459.68        18.32764
460.13         18.2321
460.57        17.95179
461.01        18.02821
461.46        18.03822
461.90        18.11106
462.34        18.12644
462.79        18.16993
463.23        18.17409
463.68        18.17917
464.12        18.20428
464.56        18.25306
465.01         18.3377
465.45        18.40576
465.89        18.41547
466.34        18.36749
466.78        18.26943
467.22        18.16233
467.67        18.14928
468.11        18.17305
468.55        18.27681
468.99        18.39888
469.44        18.47913
469.88        18.50457
470.32        18.48839
470.77        18.45549
471.21        18.44409
471.65        18.46428
472.10        18.50549
472.54         18.5447
472.98        18.55808
473.42        18.54315
473.87        18.52052
474.31        18.49644
474.75        18.49785
475.20          18.533
475.64         18.5825
476.08        18.63915
476.52        18.72367
476.97        18.83671
477.41        18.94484
477.85        18.88527
478.29        19.19537
478.74        19.01349
479.18        18.98202
479.62        18.90069
480.06        18.95936
480.50         19.1772
480.95        19.14944
481.39        19.47078
481.83        19.51037
482.27        19.45708
482.72        19.34602
483.16        19.23295
483.60        19.21564
484.04        19.28047
484.48        19.39176
484.93        19.65033
485.37        19.91589
485.81        19.96919
486.25        20.79803
486.69        19.80014
487.14        19.29081
487.58        19.70924
488.02         20.3249
488.46        20.11249
488.90        20.56528
489.34        20.30874
489.79        20.12248
490.23        20.56862
490.67        20.86953
491.11        21.19004
491.55        21.22698
491.99        21.04819
492.43        21.05225
492.88        21.26027
493.32        21.40071
493.76        21.46276
494.20        21.59278
494.64        21.79806
495.08        22.01153
495.52        22.20395
495.96        22.40813
496.41        22.59087
496.85        22.57966
497.29        22.45058
497.73        22.58034
498.17        22.93681
498.61        23.08096
499.05        23.01092
499.49        23.07082
499.93        23.26574
500.37        23.39711
500.82        23.46656
501.26        23.56708
501.70        23.70132
502.14        23.84294
502.58        23.96968
503.02        24.04859
503.46        24.07709
503.90        24.07196
504.34        24.07012
504.78        24.12772
505.22        24.25709
505.66        24.43983
506.10         24.6377
506.54        24.78632
506.98        24.86598
507.42        24.89535
507.86         24.8974
508.30        24.90877
508.74        24.94253
509.18        24.98771
509.62        25.03975
510.06        25.09213
510.50        25.14204
510.94        25.19474
511.38        25.24834
511.82        25.29753
512.26        25.33892
512.70        25.36807
513.14        25.38818
513.58        25.40626
514.02        25.42411
514.46        25.44395
514.90        25.45304
515.34        25.43047
515.78        25.37723
516.22        25.30304
516.66        25.24141
517.10        25.24307
517.54        25.31606
517.98        25.44349
518.42         25.5849
518.86        25.67257
519.30        25.68835
519.74        25.65163
520.18        25.59274
520.62        25.56203
521.06        25.57178
521.50         25.6012
521.93        25.63685
522.37         25.6522
522.81        25.64178
523.25        25.62105
523.69        25.58401
524.13        25.51804
524.57         25.4286
525.01        25.31993
525.45        25.22632
525.89        25.20336
526.32        25.25533
526.76        25.35737
527.20         25.4631
527.64         25.4963
528.08        25.43889
528.52        25.32209
528.96        25.16954
529.40        25.01846
529.83        24.88503
530.27         24.7643
530.71        24.67934
531.15          24.673
531.59        24.74379
532.03        24.87465
532.46        25.00408
532.90        25.03703
533.34        24.95413
533.78        24.76743
534.22        24.53438
534.66        24.38566
535.09        24.32377
535.53        24.24144
535.97        24.13814
536.41        24.09913
536.85        24.12323
537.28        24.16226
537.72        24.21209
538.16        24.28741
538.60        24.38018
539.04        24.47742
539.47        24.56406
539.91        24.63619
540.35        24.68633
540.79        24.72865
541.22        24.77084
541.66        24.78867
542.10        24.85199
542.54        24.91036
542.97        24.98594
543.41        25.09669
543.85        25.23863
544.29        25.40798
544.72        25.58808
545.16        25.76555
545.60        25.93004
546.04        26.07996
546.47        26.22203
546.91        26.37281
547.35        26.53537
547.79        26.69903
548.22         26.8328
548.66        26.94895
549.10        27.04916
549.53        27.01182
549.97        27.11617
550.41        27.25221
550.84        27.49905
551.28         27.8362
551.72         28.1933
552.15        28.42664
552.59         28.5238
553.03        28.56257
553.46        28.58977
553.90        28.69556
554.34        28.90141
554.77        29.13049
555.21        29.31768
555.65        29.68016
556.08         29.6385
556.52        29.68543
556.96        29.68788
557.39         29.7288
557.83        29.83114
558.27        29.92851
558.70        30.00964
559.14        30.20445
559.57         30.2353
560.01        30.37688
560.45        30.49702
560.88        30.48879
561.32        30.41598
561.75        30.30932
562.19         30.2599
562.63        30.53621
563.06        31.00825
563.50        31.02343
563.93        30.64915
564.37          30.593
564.80        30.86554
565.24        31.07904
565.68        31.19566
566.11        31.34229
566.55        31.52028
566.98        31.67524
567.42        31.82798
567.85        31.99473
568.29        32.17664
568.72        32.34087
569.16        32.51255
569.60        32.63593
570.03        32.68176
570.47        32.92619
570.90        33.01414
571.34          33.009
571.77        33.15474
572.21        33.27013
572.64        33.48555
573.08        33.41891
573.51        33.77493
573.95        34.09226
574.38        33.90079
574.82        34.23217
