SpectraSmart Spectrum 2.9.0.0
--------- Device Information -----------
Spectrum Name :  反射率_0
Saving Time :  2024/05/01 17:24:53
Spectro-Module Model Name : SE2030-DUVN
Spectro-Module Serial Number : OS361AC55029948
Wavelength Start : 200
Wavelength End : 1025
Wavelength Unit : Wavelength(nm)
Spectrum Unit : Reflectance(%)
-----------Spectrum Setting ------------
Integration Time : 20ms
Average : 10
Boxcar : 0
Background removal :  enabled
linearity correction :  enabled
SC :  disabled
Intensity correction :  disabled
DWT denoise :  enabled
savitzky-golay :  disabled
FFT :  disabled
Running average :  disabled
Kalman :  disabled
High pass :  disabled
---------------BEGIN--------------------
Wavelength(nm)             Reflectance(%)
200.29               0
200.75        334.9899
201.21        1355.143
201.67       -550.3913
202.13       -200.9111
202.58        -93.7415
203.04       -33.47067
203.50        2.068329
203.96        16.32862
204.42        12.54489
204.88       -26.70554
205.34       -1178.566
205.80        226.1177
206.26        165.7697
206.72        163.4217
207.18        266.0724
207.64       -91.28645
208.10        15.24562
208.55        35.80373
209.01        41.25949
209.47        39.96687
209.93        34.48801
210.39        24.17771
210.85        10.99036
211.31       -4.225733
211.77       -38.36376
212.23        189.5135
212.69        51.55427
213.14         53.8316
213.60        109.2653
214.06         -541.68
214.52       -92.20763
214.98       -61.89505
215.44        -53.5212
215.90       -53.18413
216.36       -117.7346
216.81       -14.32838
217.27       -8.826678
217.73       -111.0884
218.19       -58.93405
218.65        -59.4631
219.11       -69.54025
219.57       -100.5233
220.02       -187.5204
220.48        -50.5527
220.94       -4.840779
221.40        3.269871
221.86        7.126263
222.32        12.73482
222.77        21.87301
223.23        36.09774
223.69        54.78704
224.15        64.99762
224.61        60.54233
225.06        50.29299
225.52        42.91092
225.98        41.73579
226.44        46.17228
226.90        55.64001
227.36        68.48873
227.81        75.42374
228.27        72.40449
228.73        65.35458
229.19         59.6549
229.65        58.42953
230.10        61.37006
230.56        67.53099
231.02        75.76376
231.48        81.66539
231.93         82.4468
232.39         80.5369
232.85        77.34423
233.31        74.13159
233.77        71.40638
234.22         68.7634
234.68        66.95232
235.14        67.00542
235.60        69.16333
236.05        74.05717
236.51        81.23509
236.97        87.08647
237.43        87.81773
237.88        82.84689
238.34        75.14918
238.80        70.34765
239.26        69.81636
239.71          73.842
240.17        80.55891
240.63        80.31731
241.08        66.58504
241.54        45.98777
242.00        29.55936
242.46        23.64363
242.91        28.39886
243.37        44.64187
243.83        75.94804
244.28        103.1344
244.74         100.115
245.20        82.75408
245.66        66.51693
246.11        55.19539
246.57        45.87933
247.03        34.40955
247.48        15.27483
247.94       -14.13023
248.40       -44.95224
248.85        -69.0945
249.31       -72.60475
249.77        -51.3732
250.22       -19.99981
250.68        10.37931
251.14        32.56356
251.59         43.4358
252.05        45.16072
252.51        37.32261
252.96        12.18079
253.42       -19.56456
253.88       -2.399664
254.33        37.72365
254.79        59.15102
255.25        66.33607
255.70        67.44979
256.16        67.37334
256.62         66.9851
257.07        66.65771
257.53        66.98453
257.99        67.40234
258.44        67.76608
258.90        68.56019
259.35        69.35036
259.81        70.33954
260.27        71.17015
260.72        71.40595
261.18        71.31804
261.63         70.7644
262.09         70.1127
262.55        69.28114
263.00        68.21153
263.46        67.11141
263.91         65.9402
264.37        65.06131
264.83        64.40208
265.28        63.89192
265.74         63.4383
266.19        62.57108
266.65        61.40998
267.11        60.02432
267.56        58.78968
268.02        58.40393
268.47        58.89518
268.93        59.96155
269.38        61.10012
269.84        61.45782
270.30        60.83294
270.75        59.49151
271.21        57.78017
271.66        56.08656
272.12        54.65219
272.57        53.30307
273.03         52.1817
273.48         51.4227
273.94        51.04763
274.39         50.9707
274.85        50.97026
275.31        50.59876
275.76        49.77128
276.22        48.69498
276.67        47.52897
277.13        46.67022
277.58        46.09115
278.04        45.70907
278.49        45.33012
278.95        44.82817
279.40        44.10544
279.86        43.30827
280.31        42.42729
280.77        41.57568
281.22        40.72269
281.68        39.92963
282.13        39.15111
282.59          38.453
283.04        37.79521
283.50        37.21889
283.95        36.71193
284.41        36.33379
284.86        36.05573
285.32        35.87352
285.77        35.71935
286.22        35.55381
286.68        35.36168
287.13        35.13609
287.59        34.87507
288.04        34.53588
288.50         34.1656
288.95        33.73569
289.41        33.36877
289.86        33.14041
290.32        33.08368
290.77        33.14354
291.22        33.21235
291.68        33.11154
292.13        32.80725
292.59        32.39452
293.04        31.98072
293.50        31.79178
293.95        31.86074
294.40        32.12774
294.86        32.50674
295.31        32.87031
295.77        33.16676
296.22        33.42317
296.68        33.65095
297.13        33.84311
297.58         34.0234
298.04        34.20847
298.49        34.39993
298.95        34.65178
299.40        34.95046
299.85        35.26997
300.31        35.64063
300.76        36.09307
301.21        36.62222
301.67        37.23077
302.12        37.76093
302.58        38.00162
303.03        37.91015
303.48        37.58212
303.94        37.28364
304.39        37.32931
304.84        37.79007
305.30         38.5447
305.75        39.33699
306.20        39.79012
306.66        39.82505
307.11        39.54607
307.57        39.16337
308.02         38.9268
308.47        38.91946
308.93        39.06144
309.38         39.2202
309.83        39.25116
310.29        39.12438
310.74        38.89457
311.19        38.64462
311.65        38.47924
312.10        38.41755
312.55        38.42122
313.00        38.44878
313.46        38.43901
313.91        38.36676
314.36        38.25517
314.82        38.11502
315.27        37.97597
315.72        37.84185
316.18        37.70497
316.63        37.55396
317.08        37.38782
317.53        37.20199
317.99        37.00151
318.44        36.77765
318.89        36.52601
319.35        36.25632
319.80        35.98296
320.25        35.72205
320.70        35.49318
321.16        35.29774
321.61        35.13559
322.06        35.01548
322.51        34.95602
322.97        34.94109
323.42          34.968
323.87        34.97486
324.32        34.87307
324.78        34.63932
325.23        34.31511
325.68        33.94954
326.13        33.63358
326.59        33.38908
327.04        33.20745
327.49        33.06853
327.94         32.9463
328.39        32.82508
328.85        32.70458
329.30        32.58447
329.75         32.4211
330.20        32.20829
330.66         31.9448
331.11        31.67441
331.56        31.43772
332.01        31.25437
332.46        31.12069
332.92        31.01531
333.37        30.93475
333.82        30.86174
334.27        30.80281
334.72         30.7701
335.17        30.78569
335.63        30.83481
336.08        30.91125
336.53        30.97739
336.98        30.99333
337.43        30.95003
337.88        30.87107
338.34        30.74393
338.79        30.57165
339.24        30.36213
339.69        30.11727
340.14        29.92454
340.59        29.91916
341.05        30.10635
341.50        30.44816
341.95        30.79502
342.40         30.9025
342.85        30.72276
343.30        30.34514
343.75        29.91489
344.20        29.66072
344.66          29.647
345.11        29.78928
345.56        30.03289
346.01        30.27981
346.46        30.47755
346.91        30.65369
347.36        30.76393
347.81        30.73978
348.26        30.58266
348.72         30.3168
349.17         30.0075
349.62        29.80858
350.07        29.75235
350.52        29.79434
350.97        29.86603
351.42        29.84558
351.87        29.70641
352.32        29.50941
352.77        29.27549
353.22         29.0352
353.67        28.80938
354.13        28.58374
354.58        28.40938
355.03        28.40622
355.48        28.57925
355.93        28.90295
356.38        29.21947
356.83        29.25959
357.28        28.97942
357.73        28.47554
358.18        27.95878
358.63        27.74614
359.08        27.89476
359.53        28.28902
359.98        28.76824
360.43        29.05779
360.88        29.06474
361.33        28.88269
361.78        28.57228
362.23        28.21868
362.68        27.86624
363.13        27.48577
363.58        27.13056
364.03        26.90068
364.48        26.80767
364.93        26.82367
365.38        26.86644
365.83         26.7944
366.28        26.57247
366.73        26.24818
367.18        25.86103
367.63        25.48356
368.08        25.15998
368.53         24.8796
368.98        24.67201
369.43        24.57938
369.88        24.59409
370.33        24.69474
370.78        24.83018
371.23        24.90407
371.68        24.87828
372.13        24.77463
372.58         24.5961
373.03        24.35316
373.48        24.06242
373.93         23.7238
374.38        23.39793
374.83        23.18826
375.28          23.118
375.72        23.15996
376.17        23.24157
376.62        23.23787
377.07        23.11714
377.52         22.9114
377.97        22.67454
378.42        22.49394
378.87        22.39288
379.32        22.34474
379.77        22.30812
380.22         22.2207
380.67        22.07216
381.11        21.89229
381.56        21.72417
382.01        21.64056
382.46        21.65808
382.91        21.74727
383.36           21.86
383.81         21.9274
384.26        21.92316
384.71        21.85542
385.15        21.74282
385.60        21.63661
386.05        21.54406
386.50        21.46201
386.95        21.35622
387.40        21.17609
387.85        20.92913
388.29        20.63089
388.74        20.39078
389.19        20.29567
389.64        20.35318
390.09        20.51851
390.54        20.70892
390.98        20.78924
391.43        20.73197
391.88        20.58211
392.33        20.39001
392.78        20.23702
393.23        20.14523
393.67        20.05575
394.12        19.98239
394.57        19.96489
395.02        19.96846
395.47        19.86516
395.91        19.69253
396.36        19.61448
396.81        19.65097
397.26        19.71671
397.71        19.76916
398.15        19.79248
398.60        19.79979
399.05        19.71535
399.50        19.60002
399.95        19.68567
400.39        19.91988
400.84         19.9276
401.29        19.70689
401.74        19.57815
402.18        19.55657
402.63        19.44277
403.08        19.26808
403.53        19.16938
403.97        19.15497
404.42        19.19192
404.87        19.22862
405.32        19.18306
405.76        19.03705
406.21        18.82682
406.66        18.61372
407.11         18.4947
407.55        18.49648
408.00        18.59019
408.45        18.71622
408.90         18.7428
409.34        18.64962
409.79        18.52214
410.24        18.40471
410.68        18.31834
411.13        18.28124
411.58        18.29376
412.03        18.33211
412.47        18.34724
412.92         18.3211
413.37        18.27422
413.81        18.21766
414.26        18.18174
414.71        18.16634
415.15        18.16666
415.60        18.16169
416.05        18.13911
416.49        18.09507
416.94        18.03522
417.39        17.97255
417.83        17.92529
418.28        17.89873
418.73        17.88618
419.17         17.8785
419.62        17.85449
420.07        17.81422
420.51        17.76238
420.96        17.71971
421.41        17.69245
421.85        17.67696
422.30        17.67636
422.74        17.68683
423.19        17.72081
423.64        17.77175
424.08        17.84399
424.53          17.896
424.98        17.88511
425.42         17.8084
425.87        17.68705
426.31        17.55888
426.76        17.49355
427.21        17.49947
427.65        17.54833
428.10        17.63484
428.54        17.74505
428.99        17.86768
429.44           18.03
429.88        18.14555
430.33        18.09535
430.77        17.88063
431.22        17.56633
431.66        17.27133
432.11        17.22929
432.56        17.42092
433.00        17.66006
433.45        17.78446
433.89        17.65524
434.34        17.20352
434.78        17.16954
435.23        17.65668
435.67        17.81778
436.12        17.67706
436.57        17.66486
437.01        17.78487
437.46        17.79881
437.90        17.69595
438.35          17.574
438.79         17.4644
439.24        17.36888
439.68        17.32954
440.13        17.46204
440.57         17.6888
441.02        17.80173
441.46        17.77151
441.91        17.59613
442.35        17.36126
442.80        17.46252
443.24        17.78405
443.69        17.67614
444.13        17.20888
444.58        17.03927
445.02        17.17981
445.47        17.28617
445.91        17.32335
446.36        17.39967
446.80        17.49963
447.24        17.58821
447.69        17.66224
448.13        17.71933
448.58        17.75819
449.02        17.77585
449.47        17.77384
449.91        17.74172
450.36        17.68841
450.80        17.61814
451.25        17.54609
451.69         17.4823
452.13        17.43357
452.58        17.40051
453.02        17.37867
453.47        17.37105
453.91        17.37335
454.36        17.39098
454.80        17.40986
455.24        17.40576
455.69        17.37871
456.13        17.32232
456.58        17.27581
457.02        17.27597
457.46        17.33258
457.91        17.43408
458.35        17.52938
458.79        17.51182
459.24        17.37761
459.68        17.20716
460.13        17.09693
460.57        16.84673
461.01        16.96534
461.46        17.04951
461.90        17.19482
462.34        17.24298
462.79        17.26495
463.23        17.20838
463.68         17.1393
464.12         17.1231
464.56        17.17628
465.01        17.29586
465.45        17.40985
465.89        17.44707
466.34        17.40259
466.78        17.29428
467.22        17.17799
467.67        17.17894
468.11         17.2482
468.55        17.41407
468.99         17.5986
469.44        17.71653
469.88        17.74832
470.32        17.71558
470.77        17.65396
471.21        17.61889
471.65        17.62824
472.10        17.66775
472.54        17.71259
472.98        17.73609
473.42         17.7327
473.87        17.72116
474.31        17.70833
474.75        17.72128
475.20        17.76828
475.64        17.82673
476.08        17.87746
476.52        17.93719
476.97        18.00919
477.41        18.00668
477.85        17.90499
478.29        18.17024
478.74        18.02496
479.18        18.06432
479.62         18.0677
480.06        18.16423
480.50         18.3616
480.95        18.28976
481.39         18.5483
481.83        18.58322
482.27        18.58224
482.72        18.55571
483.16        18.52998
483.60        18.56261
484.04        18.63778
484.48        18.71633
484.93        18.88941
485.37        19.10091
485.81         19.1591
486.25         19.7166
486.69        18.83579
487.14         18.3639
487.58        18.81044
488.02          19.579
488.46        19.20077
488.90        19.49239
489.34         19.4335
489.79        19.31324
490.23        19.75992
490.67        19.94547
491.11        20.08574
491.55        20.11728
491.99        20.08218
492.43        20.11288
492.88        20.21396
493.32        20.27853
493.76        20.31441
494.20        20.41542
494.64        20.59286
495.08        20.79735
495.52        20.98928
495.96        21.18466
496.41        21.34943
496.85        21.30542
497.29        21.14219
497.73        21.28373
498.17        21.68486
498.61        21.82792
499.05        21.71105
499.49        21.74316
499.93        21.93041
500.37        22.03716
500.82        22.06332
501.26        22.11848
501.70        22.20848
502.14        22.30397
502.58        22.39295
503.02        22.45786
503.46        22.49729
503.90        22.52322
504.34        22.55775
504.78        22.63175
505.22        22.75118
505.66        22.90534
506.10        23.06676
506.54        23.19001
506.98        23.26141
507.42        23.29241
507.86        23.30345
508.30        23.32757
508.74        23.37468
509.18        23.43557
509.62        23.49789
510.06        23.54177
510.50        23.56223
510.94         23.5675
511.38        23.56895
511.82        23.58323
512.26        23.61277
512.70        23.64877
513.14        23.68087
513.58        23.69378
514.02        23.68417
514.46         23.6604
514.90        23.62571
515.34        23.58476
515.78        23.54369
516.22        23.50374
516.66        23.47839
517.10        23.48753
517.54        23.53305
517.98        23.60833
518.42        23.69383
518.86        23.75595
519.30         23.7847
519.74        23.78723
520.18        23.77555
520.62        23.77188
521.06        23.78034
521.50        23.78906
521.93        23.79421
522.37        23.78469
522.81        23.76109
523.25        23.73498
523.69        23.69752
524.13        23.63199
524.57        23.54321
525.01        23.43836
525.45         23.3553
525.89        23.35408
526.32        23.43895
526.76        23.58175
527.20        23.73023
527.64        23.79916
528.08        23.76716
528.52        23.66684
528.96        23.52504
529.40        23.38485
529.83        23.26465
530.27        23.15803
530.71        23.08697
531.15         23.0919
531.59        23.17172
532.03        23.31215
532.46        23.45446
532.90        23.50651
533.34        23.44925
533.78         23.2932
534.22        23.09383
534.66        22.97768
535.09        22.94595
535.53        22.89379
535.97        22.81604
536.41        22.78651
536.85        22.80327
537.28        22.82577
537.72        22.85068
538.16        22.89269
538.60        22.94816
539.04        23.00664
539.47        23.06576
539.91        23.13951
540.35        23.22136
540.79        23.31652
541.22         23.4145
541.66        23.46359
542.10         23.5219
542.54        23.54995
542.97        23.57883
543.41        23.64248
543.85        23.74429
544.29         23.8774
544.72        24.02658
545.16        24.17959
545.60        24.32568
546.04        24.46293
546.47        24.59645
546.91         24.7389
547.35        24.89042
547.79         25.0402
548.22         25.1539
548.66        25.23515
549.10        25.28608
549.53        25.19794
549.97        25.24041
550.41        25.32584
550.84        25.53201
551.28        25.83337
551.72        26.16256
552.15        26.38253
552.59        26.47659
553.03        26.51662
553.46        26.53325
553.90        26.59047
554.34         26.7071
554.77        26.81986
555.21        26.88896
555.65        27.14601
556.08        27.07023
556.52        27.10409
556.96        27.11334
557.39        27.15303
557.83        27.23779
558.27        27.31318
558.70        27.37276
559.14        27.54244
559.57        27.57091
560.01            27.7
560.45        27.80811
560.88        27.80706
561.32        27.74771
561.75         27.6405
562.19        27.57623
562.63        27.81249
563.06        28.24189
563.50        28.30013
563.93        28.02545
564.37        27.98518
564.80        28.19037
565.24        28.32885
565.68        28.37792
566.11        28.42987
566.55         28.5041
566.98        28.60535
567.42        28.74793
567.85        28.89349
568.29        29.05111
568.72        29.21154
569.16        29.37137
569.60        29.50513
570.03        29.55822
570.47        29.53807
570.90        29.68052
571.34        29.57488
571.77        29.73735
572.21        29.80526
572.64        29.94566
573.08        30.01415
573.51        30.59674
573.95        30.64297
574.38        30.43606
574.82        30.47987
