SpectraSmart Spectrum 2.9.0.0
--------- Device Information -----------
Spectrum Name :  反射率_0
Saving Time :  2024/05/01 16:44:50
Spectro-Module Model Name : SE2030-DUVN
Spectro-Module Serial Number : OS361AC55029948
Wavelength Start : 200
Wavelength End : 1025
Wavelength Unit : Wavelength(nm)
Spectrum Unit : Reflectance(%)
-----------Spectrum Setting ------------
Integration Time : 20ms
Average : 10
Boxcar : 0
Background removal :  enabled
linearity correction :  enabled
SC :  disabled
Intensity correction :  disabled
DWT denoise :  enabled
savitzky-golay :  disabled
FFT :  disabled
Running average :  disabled
Kalman :  disabled
High pass :  disabled
---------------BEGIN--------------------
Wavelength(nm)             Reflectance(%)
200.29               0
200.75        119.9687
201.21        451.7908
201.67       -166.7767
202.13       -48.75294
202.58       -9.531292
203.04        14.03779
203.50        28.20369
203.96        33.07758
204.42        29.28487
204.88        6.525616
205.34       -596.5148
205.80        124.2039
206.26        75.17664
206.72        30.26676
207.18       -145.9784
207.64        332.4469
208.10        155.1897
208.55         106.742
209.01         79.7877
209.47        63.86829
209.93        54.02008
210.39        45.72763
210.85        37.55671
211.31        25.81618
211.77       -9.481715
212.23        247.4506
212.69        92.58305
213.14        91.15566
213.60        137.1786
214.06       -416.7354
214.52       -34.26679
214.98       -6.886255
215.44        4.434328
215.90        18.87487
216.36        203.1381
216.81       -98.77469
217.27       -170.7401
217.73        462.2647
218.19        115.6171
218.65        89.00098
219.11        95.72301
219.57        144.4956
220.02        342.5872
220.48        172.2901
220.94        67.27465
221.40        43.02376
221.86         36.6082
222.32         37.5971
222.77        43.48508
223.23        54.60765
223.69        70.18636
224.15        79.07343
224.61        75.73466
225.06        67.36227
225.52        61.41417
225.98        60.57401
226.44        64.45343
226.90        72.66245
227.36         83.8838
227.81        90.30922
228.27        88.28717
228.73        82.58263
229.19        78.05807
229.65        77.74394
230.10        81.43175
230.56        88.38003
231.02        96.93405
231.48        101.5829
231.93         99.6867
232.39        94.69176
232.85        89.15465
233.31         85.2595
233.77        83.26002
234.22        82.22022
234.68        82.25919
235.14         83.6674
235.60        86.60885
236.05        91.96632
236.51        99.58949
236.97        106.8936
237.43         110.471
237.88        109.1194
238.34        104.4173
238.80        100.9401
239.26        99.89618
239.71        101.3004
240.17        103.0231
240.63        98.68507
241.08        85.41466
241.54         69.0032
242.00        57.41815
242.46        54.37297
242.91         59.9939
243.37        75.77193
243.83        104.0049
244.28         124.361
244.74        115.4233
245.20        95.14984
245.66        78.33742
246.11        68.10011
246.57        61.34184
247.03        54.31225
247.48        42.90345
247.94        23.20842
248.40      -0.5266268
248.85       -20.85099
249.31         -27.261
249.77       -16.80862
250.22        1.529763
250.68        20.10846
251.14        34.62695
251.59        43.85973
252.05        50.09087
252.51        56.24935
252.96        66.09237
253.42        85.97009
253.88         98.4984
254.33        90.41051
254.79        81.53539
255.25        76.40234
255.70        73.34148
256.16        72.05006
256.62        71.82327
257.07        72.28158
257.53        73.51575
257.99        74.77675
258.44        75.80587
258.90        77.02071
259.35        77.98927
259.81        79.10321
260.27        79.77094
260.72        79.29756
261.18        78.15958
261.63        76.38811
262.09        74.94833
262.55        74.35287
263.00        74.37717
263.46        74.87519
263.91        75.15318
264.37        74.81996
264.83        73.78347
265.28        72.32176
265.74         70.8561
266.19        69.56562
266.65        68.66662
267.11        67.95362
267.56        67.47567
268.02        67.44663
268.47        67.77836
268.93        68.37888
269.38        68.91256
269.84        68.78638
270.30        67.89753
270.75        66.39813
271.21         64.6639
271.66        63.13362
272.12        62.00732
272.57        61.07846
273.03        60.29371
273.48        59.46566
273.94        58.59822
274.39        57.73802
274.85         56.9066
275.31        55.98498
275.76        54.96052
276.22        53.94151
276.67        52.97021
277.13        52.30129
277.58        51.84825
278.04        51.57096
278.49        51.28157
278.95        50.87085
279.40        50.23042
279.86        49.49268
280.31        48.61167
280.77        47.68532
281.22        46.67834
281.68        45.67769
282.13        44.68425
282.59        43.84181
283.04        43.11584
283.50         42.5405
283.95        42.03803
284.41        41.57667
284.86         41.1137
285.32        40.68303
285.77        40.29857
286.22        40.04564
286.68        39.91927
287.13        39.86406
287.59        39.77372
288.04        39.43793
288.50          38.874
288.95        38.11051
289.41        37.38086
289.86        36.90366
290.32        36.74205
290.77        36.78736
291.22        36.86052
291.68        36.67195
292.13        36.16613
292.59         35.4878
293.04        34.79708
293.50        34.40329
293.95        34.35542
294.40        34.54889
294.86        34.87738
295.31         35.1841
295.77         35.3995
296.22        35.56651
296.68           35.65
297.13        35.56738
297.58        35.34315
298.04        35.01682
298.49        34.70134
298.95        34.63087
299.40        34.82622
299.85        35.20832
300.31        35.67088
300.76        36.03625
301.21         36.2536
301.67        36.38372
302.12        36.39841
302.58        36.29461
303.03         36.0811
303.48        35.78955
303.94        35.54934
304.39        35.48346
304.84        35.62795
305.30        35.92235
305.75        36.25488
306.20         36.4702
306.66        36.52783
307.11        36.45473
307.57        36.29006
308.02        36.03719
308.47        35.73405
308.93        35.38667
309.38        35.03107
309.83        34.77774
310.29        34.65389
310.74        34.63318
311.19        34.65059
311.65        34.58385
312.10        34.39997
312.55        34.13442
313.00        33.86942
313.46        33.73547
313.91        33.74945
314.36        33.86103
314.82        33.97086
315.27         33.9353
315.72        33.71414
316.18        33.36491
316.63        32.96005
317.08        32.61386
317.53        32.35859
317.99        32.16663
318.44        31.99778
318.89        31.80112
319.35        31.56606
319.80         31.3167
320.25        31.08677
320.70        30.91925
321.16        30.81623
321.61        30.76477
322.06         30.7277
322.51        30.65322
322.97        30.51849
323.42        30.34643
323.87        30.15286
324.32        29.97685
324.78         29.8258
325.23         29.6986
325.68        29.57458
326.13        29.42845
326.59        29.24598
327.04        29.05124
327.49        28.85019
327.94        28.66112
328.39         28.4917
328.85        28.32995
329.30        28.18686
329.75         28.0483
330.20        27.91216
330.66        27.77467
331.11        27.65423
331.56        27.54857
332.01        27.45892
332.46        27.38487
332.92        27.30905
333.37        27.23633
333.82        27.15713
334.27        27.07808
334.72        27.01542
335.17         26.9987
335.63        27.02299
336.08        27.08768
336.53        27.17051
336.98        27.25027
337.43        27.31652
337.88        27.37812
338.34        27.40208
338.79        27.35484
339.24        27.22722
339.69        27.02594
340.14        26.82856
340.59         26.7586
341.05        26.83046
341.50        27.01883
341.95         27.2143
342.40        27.23582
342.85        27.05342
343.30        26.74172
343.75        26.41921
344.20        26.26889
344.66        26.33684
345.11         26.5448
345.56         26.8373
346.01        27.11746
346.46        27.33243
346.91        27.50471
347.36        27.59077
347.81        27.52678
348.26         27.3202
348.72        27.00244
349.17        26.64852
349.62        26.42339
350.07        26.36458
350.52        26.42677
350.97        26.54233
351.42        26.58805
351.87        26.53214
352.32        26.43107
352.77        26.29206
353.22        26.12709
353.67        25.95141
354.13        25.75084
354.58        25.58747
355.03        25.59828
355.48         25.7913
355.93        26.13451
356.38         26.4575
356.83        26.47193
357.28        26.12979
357.73        25.53542
358.18        24.91586
358.63        24.60754
359.08        24.67578
359.53         25.0099
359.98        25.43817
360.43        25.66655
360.88         25.6051
361.33        25.35595
361.78         25.0187
362.23        24.73552
362.68        24.55356
363.13        24.41994
363.58        24.32413
364.03         24.2617
364.48        24.21644
364.93        24.18842
365.38        24.15277
365.83        24.06119
366.28        23.90237
366.73        23.69384
367.18        23.43445
367.63        23.13056
368.08        22.80644
368.53         22.4746
368.98        22.19265
369.43        22.04132
369.88        22.02425
370.33        22.10942
370.78        22.22856
371.23        22.25783
371.68        22.15727
372.13        21.96611
372.58        21.71374
373.03        21.44694
373.48        21.18741
373.93        20.91782
374.38        20.67944
374.83        20.54307
375.28        20.51897
375.72        20.59189
376.17        20.68232
376.62        20.65792
377.07        20.49226
377.52        20.21845
377.97        19.92359
378.42        19.74846
378.87        19.72079
379.32        19.79355
379.77         19.8775
380.22        19.83636
380.67        19.64358
381.11        19.35198
381.56        19.04143
382.01        18.84666
382.46        18.80607
382.91        18.87477
383.36        18.98806
383.81        19.05004
384.26        19.02687
384.71        18.93874
385.15        18.81429
385.60        18.71555
386.05        18.65211
386.50        18.61296
386.95        18.55329
387.40        18.40938
387.85        18.18342
388.29        17.89252
388.74        17.65139
389.19        17.56099
389.64         17.6302
390.09        17.81104
390.54        18.00696
390.98        18.06175
391.43        17.94789
391.88        17.72664
392.33        17.47198
392.78        17.29494
393.23        17.22286
393.67        17.19023
394.12        17.19499
394.57        17.25083
395.02        17.31938
395.47        17.29296
395.91        17.19979
396.36        17.17509
396.81        17.23417
397.26        17.29993
397.71         17.3365
398.15        17.33613
398.60        17.31311
399.05         17.2009
399.50        17.05652
399.95        17.08402
400.39        17.23717
400.84        17.19456
401.29        16.95213
401.74         16.7794
402.18        16.69266
402.63        16.52911
403.08        16.33383
403.53        16.24909
403.97         16.2832
404.42         16.3938
404.87        16.51774
405.32        16.55439
405.76        16.47751
406.21        16.32796
406.66        16.15651
407.11         16.0455
407.55        16.02215
408.00        16.05933
408.45        16.12874
408.90        16.15826
409.34        16.13508
409.79        16.11672
410.24        16.10455
410.68        16.05967
411.13          15.988
411.58        15.91116
412.03        15.83417
412.47         15.7622
412.92        15.70013
413.37        15.65032
413.81        15.62152
414.26        15.63895
414.71        15.69505
415.15        15.78685
415.60        15.86946
416.05        15.88513
416.49        15.82094
416.94        15.69565
417.39        15.55321
417.83        15.46497
418.28        15.44989
418.73        15.48351
419.17        15.54047
419.62        15.57186
420.07        15.56601
420.51        15.53737
420.96        15.49935
421.41        15.44782
421.85         15.3836
422.30        15.31372
422.74        15.25567
423.19        15.25229
423.64        15.30365
424.08        15.40441
424.53        15.50068
424.98        15.52283
425.42        15.45674
425.87        15.33156
426.31        15.18764
426.76          15.099
427.21        15.07948
427.65        15.10254
428.10        15.16916
428.54        15.27642
428.99        15.41339
429.44        15.59952
429.88        15.75062
430.33        15.74919
430.77        15.58752
431.22        15.32057
431.66        15.05331
432.11        14.97338
432.56        15.05878
433.00        15.21684
433.45        15.29697
433.89        15.00706
434.34        14.38505
434.78        14.38592
435.23        15.04743
435.67         15.3017
436.12        15.13351
436.57        15.11124
437.01        15.25177
437.46        15.28568
437.90        15.20438
438.35        15.10368
438.79        15.00891
439.24        14.92181
439.68        14.88116
440.13        14.98916
440.57        15.17525
441.02        15.25865
441.46        15.21601
441.91        15.03491
442.35        14.80969
442.80        14.92865
443.24        15.28636
443.69         15.2697
444.13        14.90847
444.58        14.77468
445.02        14.87351
445.47        14.88809
445.91        14.83205
446.36        14.88009
446.80        15.03107
447.24        15.23099
447.69        15.41882
448.13         15.5015
448.58         15.4608
449.02          15.326
449.47        15.16243
449.91        15.06059
450.36        15.04958
450.80        15.09858
451.25        15.16539
451.69        15.17188
452.13        15.10272
452.58        14.99059
453.02        14.86771
453.47        14.79272
453.91         14.7783
454.36        14.80626
454.80        14.85307
455.24        14.88079
455.69        14.88032
456.13        14.85443
456.58        14.82594
457.02         14.8075
457.46        14.80804
457.91        14.82272
458.35        14.83211
458.79        14.78507
459.24         14.6866
459.68        14.59211
460.13        14.56049
460.57        14.38292
461.01        14.48643
461.46         14.5385
461.90        14.63804
462.34        14.67743
462.79        14.72234
463.23        14.71277
463.68        14.69353
464.12        14.70275
464.56         14.7474
465.01        14.83309
465.45        14.89367
465.89        14.85769
466.34        14.72438
466.78        14.51375
467.22        14.29792
467.67        14.22758
468.11        14.27515
468.55        14.45232
468.99        14.66851
469.44        14.81005
469.88        14.84704
470.32        14.80626
470.77        14.72712
471.21        14.67251
471.65        14.66258
472.10        14.67671
472.54        14.69038
472.98        14.67726
473.42        14.63406
473.87        14.58545
474.31         14.5382
474.75        14.51336
475.20        14.51811
475.64        14.53709
476.08        14.56958
476.52        14.63522
476.97        14.73265
477.41        14.85313
477.85        14.82205
478.29        15.07153
478.74        14.91155
479.18        14.85272
479.62        14.74894
480.06        14.76818
480.50        14.92975
480.95        14.91009
481.39         15.1678
481.83        15.20182
482.27        15.15832
482.72        15.07139
483.16        14.97774
483.60        14.96066
484.04        15.02459
484.48        15.07501
484.93         15.2002
485.37        15.48369
485.81        15.73914
486.25        16.12459
486.69        15.48787
487.14        14.99592
487.58        15.18423
488.02        15.80177
488.46        15.59571
488.90        15.68562
489.34        15.51522
489.79        15.34844
490.23        15.78545
490.67         16.0324
491.11        16.21064
491.55        16.15862
491.99        15.93918
492.43        15.86518
492.88        15.96198
493.32        16.01872
493.76        16.02608
494.20         16.0938
494.64        16.22523
495.08        16.37194
495.52        16.51019
495.96        16.65756
496.41          16.787
496.85        16.77655
497.29         16.6839
497.73        16.77578
498.17          17.036
498.61        17.17419
499.05        17.17325
499.49         17.2324
499.93        17.35008
500.37        17.40574
500.82        17.41489
501.26        17.45679
501.70        17.54035
502.14        17.64362
502.58        17.74169
503.02        17.79622
503.46        17.80174
503.90        17.77514
504.34        17.75036
504.78        17.77958
505.22         17.8741
505.66        18.01533
506.10        18.16852
506.54        18.27667
506.98        18.32229
507.42        18.32269
507.86        18.29926
508.30        18.28477
508.74        18.29273
509.18        18.31693
509.62        18.35275
510.06        18.39344
510.50        18.43602
510.94        18.48142
511.38        18.53739
511.82        18.61426
512.26        18.70805
512.70         18.8093
513.14        18.89091
513.58        18.91326
514.02        18.87024
514.46        18.77629
514.90        18.66295
515.34        18.58166
515.78        18.54987
516.22        18.55768
516.66        18.58789
517.10        18.61064
517.54        18.61657
517.98        18.61367
518.42         18.6131
518.86        18.63171
519.30        18.67097
519.74        18.72059
520.18        18.76131
520.62        18.76683
521.06        18.73139
521.50        18.66245
521.93        18.58236
522.37        18.52241
522.81        18.49478
523.25        18.49408
523.69        18.49955
524.13        18.47711
524.57         18.4219
525.01        18.34623
525.45        18.27895
525.89         18.2644
526.32        18.30891
526.76        18.39254
527.20        18.48148
527.64        18.52183
528.08        18.49977
528.52        18.43452
528.96        18.34804
529.40        18.27486
529.83        18.22465
530.27        18.19061
530.71        18.17015
531.15        18.16471
531.59        18.16998
532.03         18.1849
532.46        18.19382
532.90        18.17294
533.34        18.12124
533.78        18.03574
534.22        17.93327
534.66        17.87113
535.09        17.83962
535.53        17.76715
535.97        17.67256
536.41        17.64905
536.85        17.70078
537.28        17.78289
537.72        17.86029
538.16        17.89577
538.60        17.87836
539.04        17.81878
539.47        17.75405
539.91        17.75284
540.35        17.82405
540.79        17.95607
541.22        18.10917
541.66        18.19167
542.10        18.23545
542.54        18.22462
542.97        18.21116
543.41        18.26567
543.85        18.39715
544.29        18.58086
544.72        18.77448
545.16        18.92262
545.60        19.00832
546.04         19.0489
546.47        19.07209
546.91        19.12652
547.35        19.22552
547.79        19.34865
548.22        19.46327
548.66        19.56277
549.10        19.64293
549.53         19.6219
549.97         19.7005
550.41        19.79309
550.84        19.95739
551.28        20.17773
551.72        20.41366
552.15        20.58004
552.59        20.66956
553.03        20.73159
553.46        20.78407
553.90        20.86728
554.34        20.99241
554.77        21.11374
555.21        21.19689
555.65        21.41956
556.08        21.37015
556.52        21.39636
556.96        21.40081
557.39        21.44078
557.83        21.52996
558.27        21.62374
558.70         21.7033
559.14        21.84435
559.57        21.84459
560.01        21.90851
560.45        21.96095
560.88        21.95755
561.32        21.94825
561.75        21.94174
562.19        21.97998
562.63        22.22355
563.06        22.56916
563.50        22.55262
563.93        22.23775
564.37        22.16148
564.80        22.33791
565.24        22.48053
565.68        22.55897
566.11        22.65905
566.55        22.77988
566.98        22.89041
567.42        23.00573
567.85        23.13167
568.29        23.27907
568.72        23.42432
569.16        23.57447
569.60        23.70701
570.03        23.80828
570.47        23.85965
570.90        24.05692
571.34         23.9911
571.77        24.17165
572.21         24.2649
572.64        24.42137
573.08        24.43735
573.51        24.83323
573.95        24.86933
574.38        24.90814
574.82        24.98396
