SpectraSmart Spectrum 2.9.0.0
--------- Device Information -----------
Spectrum Name :  反射率_0
Saving Time :  2024/05/01 17:21:02
Spectro-Module Model Name : SE2030-DUVN
Spectro-Module Serial Number : OS361AC55029948
Wavelength Start : 200
Wavelength End : 1025
Wavelength Unit : Wavelength(nm)
Spectrum Unit : Reflectance(%)
-----------Spectrum Setting ------------
Integration Time : 20ms
Average : 10
Boxcar : 0
Background removal :  enabled
linearity correction :  enabled
SC :  disabled
Intensity correction :  disabled
DWT denoise :  enabled
savitzky-golay :  disabled
FFT :  disabled
Running average :  disabled
Kalman :  disabled
High pass :  disabled
---------------BEGIN--------------------
Wavelength(nm)             Reflectance(%)
200.29               0
200.75        273.2668
201.21        1085.185
201.67       -439.6923
202.13       -166.9117
202.58       -87.05196
203.04       -43.89524
203.50       -19.77768
203.96       -12.74311
204.42       -22.45836
204.88       -72.98827
205.34       -1477.035
205.80         236.622
206.26        166.8037
206.72        169.3685
207.18        315.7033
207.64        -168.953
208.10       -17.44259
208.55        12.52026
209.01        21.36707
209.47        21.23774
209.93        15.61449
210.39        5.130767
210.85       -10.38812
211.31       -36.77583
211.77        -119.937
212.23        517.5333
212.69        133.2137
213.14        120.5083
213.60        196.0954
214.06       -762.2635
214.52       -105.6192
214.98       -65.31407
215.44       -61.61231
215.90       -88.10433
216.36       -597.3303
216.81        194.9114
217.27        252.1228
217.73       -590.5145
218.19       -143.2081
218.65       -117.0083
219.11       -141.9164
219.57       -249.9399
220.02       -666.6133
220.48       -298.8157
220.94       -78.13584
221.40       -26.10044
221.86       -8.128798
222.32       0.4045996
222.77         6.71372
223.23        13.38959
223.69        20.81826
224.15        24.61831
224.61        22.94707
225.06        19.17302
225.52        16.67314
225.98        16.92012
226.44        19.82235
226.90        25.26996
227.36        32.94132
227.81        38.60268
228.27        39.30491
228.73        37.28619
229.19        34.95647
229.65        33.75695
230.10        33.67016
230.56        34.42029
231.02        35.70003
231.48        36.74035
231.93        37.04715
232.39        37.02946
232.85        37.25782
233.31        38.33448
233.77        40.10443
234.22        42.21485
234.68        44.07683
235.14        45.12655
235.60        45.31366
236.05        44.74699
236.51        43.61123
236.97        43.09319
237.43        43.97347
237.88        45.92868
238.34        47.59972
238.80        47.57793
239.26        45.17267
239.71        40.01764
240.17        30.47033
240.63        17.26536
241.08        5.978817
241.54       0.2749879
242.00      -0.1538434
242.46        2.285006
242.91        7.350634
243.37        16.64061
243.83        34.24318
244.28        55.59314
244.74        63.51587
245.20        60.47026
245.66        53.70037
246.11        45.73528
246.57         35.3417
247.03        18.92248
247.48       -7.713535
247.94       -38.13142
248.40       -56.58228
248.85       -60.29418
249.31       -47.62489
249.77       -25.56777
250.22       -3.778712
250.68        14.24109
251.14        26.05479
251.59        30.62158
252.05         28.7347
252.51         17.8448
252.96       -13.18784
253.42       -61.86859
253.88       -62.65605
254.33       -19.58741
254.79        10.27502
255.25        24.64626
255.70         32.0583
256.16        37.04738
256.62        41.03161
257.07        44.55426
257.53         47.7655
257.99        50.26411
258.44        51.97789
258.90        53.26093
259.35        53.97167
259.81        54.51515
260.27        54.65494
260.72        54.12229
261.18        53.28368
261.63        52.08829
262.09        51.05372
262.55        50.37771
263.00        49.93502
263.46        49.70292
263.91         49.3583
264.37        48.78424
264.83        47.93195
265.28        46.93089
265.74        45.93484
266.19         44.8978
266.65        43.94976
267.11        42.99861
267.56        42.21648
268.02        41.97163
268.47        42.23535
268.93        42.85844
269.38        43.44033
269.84        43.27642
270.30        42.25489
270.75        40.59965
271.21        38.76695
271.66        37.33028
272.12        36.50524
272.57        36.06047
273.03        35.85186
273.48        35.59383
273.94        35.21908
274.39        34.80302
274.85        34.37749
275.31         33.9079
275.76        33.38954
276.22        32.85431
276.67         32.3065
277.13        31.87605
277.58        31.51863
278.04        31.24672
278.49        30.97352
278.95        30.68267
279.40          30.315
279.86        29.92518
280.31        29.49232
280.77        29.08332
281.22        28.66168
281.68        28.27212
282.13        27.84564
282.59        27.37462
283.04        26.83511
283.50        26.28527
283.95        25.77849
284.41        25.45202
284.86        25.30952
285.32        25.31675
285.77        25.38364
286.22         25.4168
286.68        25.38994
287.13        25.30936
287.59        25.19535
288.04        25.04079
288.50        24.88412
288.95        24.68881
289.41        24.51596
289.86        24.38195
290.32        24.31343
290.77        24.29575
291.22        24.29654
291.68        24.25494
292.13         24.1613
292.59        24.06422
293.04        23.99654
293.50        24.06023
293.95        24.25484
294.40        24.55163
294.86        24.90956
295.31        25.27687
295.77        25.62249
296.22        25.95351
296.68          26.249
297.13        26.46474
297.58        26.61516
298.04        26.73399
298.49        26.86333
298.95         27.1079
299.40        27.46897
299.85        27.90672
300.31        28.39472
300.76        28.89186
301.21        29.37368
301.67        29.85311
302.12        30.24963
302.58        30.46767
303.03        30.48389
303.48        30.35581
303.94        30.22318
304.39        30.23357
304.84        30.43814
305.30        30.77931
305.75        31.16074
306.20        31.44862
306.66        31.60496
307.11         31.6493
307.57        31.62653
308.02        31.55348
308.47        31.45886
308.93        31.34305
309.38         31.1899
309.83        31.02731
310.29        30.87153
310.74        30.72116
311.19        30.59263
311.65        30.49294
312.10        30.41659
312.55        30.36236
313.00        30.32426
313.46        30.29135
313.91        30.25005
314.36        30.19568
314.82        30.11597
315.27        30.00802
315.72        29.86484
316.18        29.69053
316.63        29.48078
317.08        29.23442
317.53        28.95421
317.99        28.64965
318.44        28.32745
318.89        28.01479
319.35        27.72587
319.80        27.45861
320.25         27.2182
320.70        27.00282
321.16         26.8055
321.61        26.63715
322.06        26.48276
322.51        26.32084
322.97        26.14127
323.42         25.9535
323.87        25.77235
324.32        25.63564
324.78        25.54217
325.23        25.48427
325.68        25.42154
326.13        25.29671
326.59        25.08869
327.04        24.82789
327.49         24.5333
327.94        24.24788
328.39        23.99129
328.85        23.74899
329.30        23.53752
329.75        23.35748
330.20         23.2072
330.66        23.08239
331.11        22.97866
331.56        22.85856
332.01        22.71378
332.46        22.55375
332.92         22.3779
333.37        22.21643
333.82        22.07114
334.27         21.9391
334.72        21.83601
335.17        21.79212
335.63        21.79653
336.08        21.84089
336.53        21.89106
336.98        21.90179
337.43         21.8588
337.88        21.78611
338.34        21.65453
338.79        21.43346
339.24        21.13147
339.69        20.76205
340.14        20.44687
340.59        20.37629
341.05        20.56785
341.50        20.96458
341.95        21.38874
342.40        21.54882
342.85        21.37973
343.30         20.9824
343.75         20.5096
344.20        20.20209
344.66        20.13315
345.11        20.21733
345.56        20.40369
346.01        20.60324
346.46        20.76714
346.91        20.91974
347.36         21.0268
347.81        21.03214
348.26        20.93555
348.72        20.75914
349.17          20.534
349.62         20.3576
350.07        20.25403
350.52        20.19324
350.97        20.16498
351.42        20.14287
351.87        20.11834
352.32        20.12164
352.77        20.10278
353.22        19.98265
353.67        19.76116
354.13        19.45963
354.58         19.1955
355.03         19.1834
355.48        19.44772
355.93         19.9229
356.38        20.40689
356.83        20.55754
357.28        20.30623
357.73        19.77932
358.18        19.19793
358.63        18.89073
359.08        18.92966
359.53        19.19881
359.98         19.5745
360.43        19.84552
360.88        19.93029
361.33        19.90232
361.78        19.77512
362.23        19.56184
362.68        19.28813
363.13        18.94311
363.58        18.60204
364.03         18.4018
364.48        18.36757
364.93        18.46141
365.38         18.5918
365.83        18.60618
366.28        18.46568
366.73        18.21858
367.18        17.91624
367.63        17.64758
368.08        17.45119
368.53        17.30323
368.98        17.20005
369.43        17.13644
369.88        17.10055
370.33        17.09166
370.78        17.09551
371.23        17.08227
371.68        17.04036
372.13        16.97583
372.58        16.88064
373.03        16.74516
373.48        16.57515
373.93          16.377
374.38        16.19157
374.83        16.08743
375.28        16.07874
375.72        16.14264
376.17        16.23188
376.62        16.27021
377.07          16.236
377.52         16.1487
377.97        16.03184
378.42        15.92445
378.87        15.84017
379.32         15.7679
379.77        15.69907
380.22         15.6218
380.67        15.53355
381.11        15.44405
381.56        15.36256
382.01        15.30528
382.46        15.27817
382.91          15.279
383.36        15.28675
383.81        15.27289
384.26         15.2252
384.71        15.13614
385.15        15.03427
385.60        14.98192
386.05        14.98158
386.50        15.02797
386.95        15.04206
387.40        14.90306
387.85        14.61121
388.29        14.20798
388.74        13.85937
389.19        13.74943
389.64        13.89933
390.09        14.23125
390.54        14.60191
390.98        14.77879
391.43        14.70894
391.88        14.48049
392.33        14.19042
392.78        13.98129
393.23        13.89117
393.67        13.84731
394.12        13.84632
394.57         13.8983
395.02        13.96791
395.47        13.97102
395.91        13.91727
396.36        13.88931
396.81        13.89664
397.26        13.88565
397.71        13.84418
398.15        13.79165
398.60        13.74821
399.05         13.6557
399.50        13.55219
399.95         13.5895
400.39        13.72738
400.84        13.71069
401.29        13.54023
401.74        13.43797
402.18        13.41367
402.63        13.32951
403.08        13.20251
403.53        13.12195
403.97        13.09258
404.42        13.09126
404.87         13.0876
405.32        13.03217
405.76         12.9143
406.21        12.76034
406.66         12.6062
407.11        12.50851
407.55        12.48504
408.00        12.51915
408.45        12.58276
408.90        12.60829
409.34        12.58359
409.79        12.55253
410.24          12.528
410.68        12.49872
411.13        12.47169
411.58        12.45821
412.03        12.44465
412.47        12.40415
412.92        12.33299
413.37        12.24163
413.81        12.15886
414.26        12.13692
414.71        12.17726
415.15        12.27115
415.60        12.36214
416.05        12.37029
416.49        12.27774
416.94        12.11046
417.39        11.93095
417.83        11.83995
418.28        11.85871
418.73        11.94904
419.17        12.05801
419.62        12.09288
420.07        12.03529
420.51        11.92107
420.96        11.78528
421.41        11.65967
421.85        11.55896
422.30        11.47661
422.74        11.43376
423.19        11.47459
423.64        11.59529
424.08        11.78841
424.53        11.97935
424.98        12.05562
425.42        11.98955
425.87        11.81879
426.31        11.60853
426.76        11.47652
427.21        11.44862
427.65        11.48685
428.10        11.57374
428.54        11.67671
428.99        11.77548
429.44        11.89926
429.88        11.98743
430.33        11.94993
430.77        11.78477
431.22        11.53353
431.66        11.28352
432.11        11.19438
432.56        11.25378
433.00           11.39
433.45        11.48255
433.89        11.29425
434.34        10.84438
434.78         10.8562
435.23        11.36316
435.67        11.56565
436.12        11.45337
436.57        11.45386
437.01        11.57595
437.46        11.60887
437.90         11.5441
438.35        11.45501
438.79         11.3695
439.24        11.30267
439.68        11.28441
440.13        11.38702
440.57         11.5413
441.02        11.58251
441.46        11.49184
441.91        11.27512
442.35        11.02567
442.80        11.06034
443.24        11.30406
443.69        11.29526
444.13        11.04656
444.58        10.96648
445.02        11.05396
445.47         11.0795
445.91         11.0508
446.36        11.09363
446.80        11.20814
447.24        11.35271
447.69        11.48987
448.13        11.56655
448.58        11.56899
449.02        11.51137
449.47        11.42929
449.91        11.36928
450.36        11.34878
450.80        11.35383
451.25         11.3589
451.69        11.31495
452.13        11.21674
452.58        11.08772
453.02        10.96271
453.47        10.90207
453.91        10.91747
454.36        10.99223
454.80        11.08975
455.24        11.14846
455.69        11.15382
456.13        11.11421
456.58        11.06977
457.02        11.06624
457.46        11.11561
457.91        11.20054
458.35        11.27697
458.79        11.25992
459.24        11.14648
459.68        10.99608
460.13        10.88441
460.57         10.6991
461.01        10.76938
461.46        10.83213
461.90        10.94298
462.34        10.98846
462.79        11.00997
463.23        10.97749
463.68        10.93552
464.12        10.92827
464.56        10.96789
465.01        11.04886
465.45        11.12598
465.89        11.15287
466.34        11.12706
466.78         11.0593
467.22        10.98549
467.67        10.98528
468.11        11.02658
468.55        11.13052
468.99        11.24756
469.44        11.32397
469.88        11.34924
470.32         11.3355
470.77        11.30894
471.21        11.30716
471.65        11.34101
472.10        11.39794
472.54         11.4549
472.98        11.48481
473.42        11.48326
473.87        11.46862
474.31        11.44873
474.75        11.44733
475.20        11.47324
475.64        11.50924
476.08         11.5517
476.52        11.62451
476.97        11.72947
477.41        11.80693
477.85        11.81815
478.29        12.03654
478.74        11.94161
479.18        11.93649
479.62        11.90025
480.06         11.9601
480.50        12.12836
480.95        12.14225
481.39         12.3799
481.83        12.44203
482.27        12.44822
482.72        12.41916
483.16        12.37717
483.60        12.38734
484.04        12.45189
484.48        12.49164
484.93        12.57763
485.37        12.81186
485.81        13.01536
486.25        13.31938
486.69        12.56251
487.14        12.24068
487.58        12.72635
488.02        13.22909
488.46        12.95453
488.90        13.41764
489.34        13.15899
489.79        13.09604
490.23        13.41471
490.67         13.6487
491.11        13.89007
491.55        13.91142
491.99        13.77358
492.43         13.7821
492.88        13.95565
493.32        14.08393
493.76        14.15556
494.20        14.27607
494.64        14.44983
495.08         14.6296
495.52        14.79441
495.96         14.9692
496.41        15.13226
496.85        15.15347
497.29        15.08944
497.73        15.23251
498.17        15.54996
498.61        15.67605
499.05         15.6111
499.49        15.65255
499.93        15.80695
500.37        15.90204
500.82        15.94165
501.26        16.00901
501.70         16.1087
502.14        16.21854
502.58        16.31841
503.02        16.37745
503.46        16.39259
503.90         16.3786
504.34          16.369
504.78        16.41483
505.22        16.52727
505.66         16.6901
506.10        16.86676
506.54        16.99612
506.98         17.0602
507.42         17.0762
507.86        17.07043
508.30        17.08486
508.74        17.13245
509.18        17.20083
509.62        17.27656
510.06        17.33803
510.50        17.37897
510.94        17.40864
511.38        17.43662
511.82        17.47625
512.26        17.52917
512.70        17.58619
513.14        17.63906
513.58          17.677
514.02        17.69645
514.46        17.70269
514.90        17.69517
515.34        17.67215
515.78        17.63839
516.22        17.59876
516.66        17.56643
517.10         17.5613
517.54        17.58637
517.98        17.63318
518.42         17.6917
518.86         17.7441
519.30        17.78148
519.74        17.80672
520.18        17.81189
520.62         17.7867
521.06        17.73171
521.50        17.64883
521.93        17.55937
522.37        17.49459
522.81          17.465
523.25        17.46544
523.69        17.47356
524.13        17.45113
524.57        17.39268
525.01        17.31306
525.45        17.23856
525.89        17.21024
526.32        17.23507
526.76         17.2928
527.20        17.36178
527.64        17.40753
528.08        17.41815
528.52        17.40676
528.96        17.37269
529.40        17.31564
529.83        17.23893
530.27        17.14581
530.71        17.06029
531.15        17.02545
531.59        17.04732
532.03        17.11423
532.46        17.18429
532.90        17.19121
533.34        17.12358
533.78        16.99096
534.22           16.84
534.66        16.77025
535.09        16.78127
535.53        16.79231
535.97        16.78454
536.41        16.78997
536.85        16.80264
537.28        16.79902
537.72        16.79007
538.16         16.8102
538.60        16.86265
539.04         16.9322
539.47        17.00831
539.91        17.08754
540.35        17.16194
540.79        17.24244
541.22        17.32386
541.66        17.37085
542.10        17.42809
542.54         17.4623
542.97        17.50205
543.41         17.5829
543.85        17.70636
544.29        17.86438
544.72        18.02942
545.16        18.16619
545.60        18.26404
546.04        18.33068
546.47         18.3918
546.91        18.49353
547.35        18.64383
547.79        18.82205
548.22        18.98351
548.66        19.10255
549.10        19.17367
549.53        19.12304
549.97        19.16374
550.41        19.24158
550.84        19.41965
551.28        19.67337
551.72        19.95032
552.15        20.14492
552.59        20.24428
553.03        20.30703
553.46        20.35372
553.90        20.42831
554.34        20.54479
554.77        20.65358
555.21        20.73316
555.65        20.97725
556.08        20.98294
556.52        21.08442
556.96        21.15732
557.39        21.21485
557.83        21.26353
558.27        21.27078
558.70        21.25463
559.14        21.34844
559.57         21.3683
560.01        21.49813
560.45        21.62478
560.88        21.64253
561.32        21.59014
561.75        21.49899
562.19        21.45229
562.63        21.66906
563.06        22.06168
563.50        22.15413
563.93        21.96471
564.37        21.96067
564.80        22.14323
565.24        22.24811
565.68        22.27366
566.11        22.34962
566.55        22.48507
566.98        22.63109
567.42        22.78557
567.85        22.92586
568.29        23.04948
568.72        23.16756
569.16        23.29455
569.60        23.36362
570.03        23.35835
570.47        23.51313
570.90        23.52625
571.34        23.56976
571.77        23.72494
572.21        23.87827
572.64        24.07524
573.08        24.13452
573.51        24.53689
573.95        24.56339
574.38        24.28261
574.82        24.45715
