SpectraSmart Spectrum 2.9.0.0
--------- Device Information -----------
Spectrum Name :  反射率_0
Saving Time :  2024/05/01 17:12:56
Spectro-Module Model Name : SE2030-DUVN
Spectro-Module Serial Number : OS361AC55029948
Wavelength Start : 200
Wavelength End : 1025
Wavelength Unit : Wavelength(nm)
Spectrum Unit : Reflectance(%)
-----------Spectrum Setting ------------
Integration Time : 20ms
Average : 10
Boxcar : 0
Background removal :  enabled
linearity correction :  enabled
SC :  disabled
Intensity correction :  disabled
DWT denoise :  enabled
savitzky-golay :  disabled
FFT :  disabled
Running average :  disabled
Kalman :  disabled
High pass :  disabled
---------------BEGIN--------------------
Wavelength(nm)             Reflectance(%)
200.29               0
200.75        78.37852
201.21        507.1891
201.67       -236.3039
202.13       -74.48269
202.58       -11.56849
203.04        30.24515
203.50         58.4536
203.96        74.39181
204.42        83.72822
204.88        94.72997
205.34        324.7845
205.80        24.36049
206.26        8.289459
206.72       -52.02622
207.18       -387.3075
207.64        600.2278
208.10        262.0387
208.55        184.7227
209.01        147.0413
209.47        121.5261
209.93        101.1969
210.39         80.7601
210.85        64.89232
211.31        65.16111
211.77        115.6886
212.23       -388.1266
212.69       -93.52438
213.14       -80.12473
213.60        -116.218
214.06        389.6785
214.52        48.57176
214.98        35.06186
215.44        50.08564
215.90        116.9953
216.36        1198.178
216.81       -477.8708
217.27       -607.9858
217.73        1229.377
218.19         250.868
218.65        190.0362
219.11        240.9144
219.57        479.5051
220.02        1520.409
220.48         853.683
220.94        300.9918
221.40        157.7559
221.86         110.757
222.32         100.953
222.77         110.496
223.23        136.0358
223.69        172.8528
224.15        189.7459
224.61         174.689
225.06        148.9252
225.52        131.4686
225.98        128.5213
226.44        138.3393
226.90        159.5711
227.36        187.9429
227.81        201.8726
228.27        192.6609
228.73        174.2137
229.19        159.3537
229.65        155.2449
230.10        160.7191
230.56        173.1649
231.02        188.9884
231.48        196.9632
231.93        191.9695
232.39        181.3223
232.85        169.6125
233.31        160.4729
233.77        154.5564
234.22        150.2213
234.68        148.4797
235.14        150.6654
235.60        157.2475
236.05        170.0928
236.51        188.6626
236.97         206.153
237.43        214.0658
237.88        209.8169
238.34        198.0061
238.80        190.0148
239.26        189.0814
239.71        195.4613
240.17        205.2353
240.63        203.5101
241.08        180.3479
241.54         146.561
242.00        120.5246
242.46        112.2571
242.91        121.9045
243.37        151.9347
243.83        204.3556
244.28        234.4986
244.74        206.7615
245.20        161.9552
245.66        127.7787
246.11        108.5555
246.57        97.77462
247.03        88.60647
247.48        76.93857
247.94        58.92459
248.40        38.32238
248.85         22.7878
249.31         18.7681
249.77        25.20992
250.22        36.25056
250.68        47.81248
251.14        57.44135
251.59        65.09901
252.05        73.36237
252.51        87.23024
252.96        120.9068
253.42        194.1818
253.88        241.3818
254.33        213.7425
254.79        181.5115
255.25        162.5603
255.70        150.6108
256.16        143.3672
256.62        137.8939
257.07        132.7195
257.53        129.3377
257.99        127.2369
258.44        126.5907
258.90        128.7912
259.35        132.5645
259.81        137.5557
260.27           142.2
260.72        144.4738
261.18         144.694
261.63         143.086
262.09        140.9963
262.55        138.8576
263.00        136.6388
263.46         134.641
263.91        132.4932
264.37        130.6385
264.83        128.9417
265.28         127.393
265.74         126.174
266.19        124.8543
266.65        123.6281
267.11         122.395
267.56        121.3975
268.02        121.2105
268.47        121.7595
268.93        122.7948
269.38        123.7192
269.84        123.5798
270.30        122.1813
270.75         119.801
271.21        117.0259
271.66        114.5397
272.12        112.6461
272.57        111.0168
273.03        109.5825
273.48        108.0567
273.94        106.4712
274.39        104.8772
274.85        103.3321
275.31        101.6233
275.76        99.72995
276.22        97.87563
276.67        96.10668
277.13        94.84583
277.58        93.93884
278.04        93.30936
278.49        92.69676
278.95        91.99575
279.40        91.02004
279.86        89.96596
280.31        88.62302
280.77        87.00007
281.22        85.01622
281.68        82.88982
282.13         80.7681
282.59        79.11796
283.04        77.89842
283.50        77.09417
283.95        76.41599
284.41        75.57447
284.86        74.46467
285.32        73.26923
285.77        72.14026
286.22        71.42609
286.68        71.13898
287.13        71.08309
287.59        71.03233
288.04        70.57556
288.50        69.69595
288.95        68.49245
289.41        67.24007
289.86        66.12232
290.32        65.27591
290.77        64.58175
291.22        64.01781
291.68        63.52635
292.13        63.05427
292.59        62.65823
293.04        62.31059
293.50         62.0417
293.95        61.81754
294.40        61.63206
294.86        61.44542
295.31        61.21211
295.77         60.9308
296.22         60.5939
296.68        60.26458
297.13        59.98087
297.58        59.77787
298.04        59.67499
298.49        59.59408
298.95        59.47441
299.40        59.27928
299.85        59.02634
300.31        58.85131
300.76        58.91327
301.21        59.23053
301.67        59.74387
302.12         60.1971
302.58        60.24848
303.03        59.81867
303.48        59.07574
303.94        58.34843
304.39        57.98988
304.84        58.10593
305.30        58.55009
305.75        59.08896
306.20         59.4077
306.66        59.42626
307.11        59.20832
307.57        58.88865
308.02        58.56734
308.47        58.31325
308.93        58.10041
309.38        57.86249
309.83        57.57866
310.29        57.26231
310.74        56.92875
311.19        56.64783
311.65        56.49817
312.10        56.47511
312.55        56.54855
313.00         56.6526
313.46        56.68586
313.91        56.60709
314.36        56.43386
314.82        56.19114
315.27        55.94503
315.72        55.70905
316.18        55.47993
316.63        55.21819
317.08        54.89056
317.53        54.49466
317.99        54.05392
318.44        53.61402
318.89        53.25119
319.35        52.99265
319.80        52.82538
320.25        52.71023
320.70        52.58052
321.16        52.40553
321.61        52.20648
322.06        52.01233
322.51        51.88136
322.97        51.80885
323.42        51.78594
323.87        51.73891
324.32        51.56797
324.78        51.24821
325.23        50.83529
325.68        50.39447
326.13        50.03979
326.59        49.79507
327.04        49.65432
327.49        49.57026
327.94        49.47581
328.39        49.34373
328.85        49.17337
329.30        49.01205
329.75        48.87179
330.20         48.7605
330.66        48.65637
331.11        48.55788
331.56        48.40889
332.01        48.20696
332.46        47.97225
332.92        47.74879
333.37        47.66016
333.82        47.71638
334.27        47.89413
334.72        48.12861
335.17        48.30455
335.63        48.36607
336.08        48.35904
336.53        48.31826
336.98         48.3311
337.43        48.42125
337.88        48.56418
338.34        48.69014
338.79        48.72248
339.24        48.62932
339.69        48.44165
340.14        48.25291
340.59        48.20626
341.05        48.32144
341.50        48.56139
341.95        48.81345
342.40        48.89614
342.85        48.77405
343.30        48.52089
343.75        48.24286
344.20        48.10283
344.66        48.14323
345.11        48.29469
345.56        48.52044
346.01        48.75362
346.46        48.95312
346.91        49.13993
347.36        49.25998
347.81        49.23024
348.26        49.05338
348.72        48.76493
349.17        48.45224
349.62        48.30559
350.07        48.36053
350.52        48.55533
350.97        48.78825
351.42        48.88393
351.87        48.79857
352.32        48.60577
352.77        48.33937
353.22        48.05488
353.67        47.77976
354.13        47.49041
354.58        47.23717
355.03        47.15584
355.48        47.25398
355.93        47.51542
356.38        47.75208
356.83        47.64451
357.28        47.14845
357.73         46.3783
358.18        45.61964
358.63         45.2955
359.08        45.47642
359.53        46.01777
359.98        46.65694
360.43        46.95036
360.88        46.76578
361.33        46.24441
361.78        45.57265
362.23        45.02118
362.68        44.66946
363.13        44.43618
363.58        44.24502
364.03        43.98662
364.48        43.63134
364.93        43.22512
365.38        42.84016
365.83        42.56772
366.28        42.42051
366.73        42.36764
367.18        42.30095
367.63        42.05487
368.08        41.60925
368.53        41.02748
368.98          40.461
369.43        40.13121
369.88        40.07351
370.33        40.21121
370.78         40.4039
371.23        40.40592
371.68        40.14597
372.13        39.71186
372.58        39.20465
373.03        38.77179
373.48        38.45687
373.93        38.20519
374.38        38.00874
374.83        37.86087
375.28        37.74812
375.72        37.67967
376.17        37.61033
376.62        37.44456
377.07         37.1709
377.52        36.81166
377.97        36.44703
378.42        36.21019
378.87        36.12408
379.32        36.14085
379.77        36.17826
380.22        36.10841
380.67         35.9018
381.11        35.60803
381.56         35.2761
382.01        34.99624
382.46        34.80371
382.91        34.67143
383.36        34.58602
383.81         34.5283
384.26        34.48038
384.71        34.44166
385.15        34.38826
385.60        34.30616
386.05        34.18222
386.50        34.02557
386.95        33.83617
387.40        33.62018
387.85        33.39184
388.29         33.1349
388.74        32.92862
389.19        32.79362
389.64         32.7284
390.09        32.71161
390.54        32.70423
390.98         32.6374
391.43        32.51322
391.88        32.35365
392.33        32.17696
392.78        32.02187
393.23        31.90253
393.67        31.75888
394.12        31.63494
394.57        31.62901
395.02        31.69307
395.47        31.60028
395.91        31.39765
396.36        31.34029
396.81        31.44828
397.26        31.58946
397.71        31.67928
398.15        31.66752
398.60        31.57994
399.05        31.31382
399.50        31.00103
399.95        31.05373
400.39        31.39701
400.84        31.42758
401.29        31.12374
401.74        30.95497
402.18        30.93435
402.63        30.75615
403.08        30.47653
403.53        30.32106
403.97        30.30493
404.42        30.36986
404.87        30.43929
405.32        30.39561
405.76        30.21073
406.21        29.93734
406.66        29.65371
407.11        29.48168
407.55        29.45674
408.00        29.53932
408.45        29.66149
408.90        29.66246
409.34        29.52056
409.79        29.35901
410.24        29.21458
410.68        29.07051
411.13        28.94802
411.58        28.86825
412.03        28.82411
412.47         28.7922
412.92        28.76093
413.37        28.74526
413.81         28.7465
414.26        28.78857
414.71        28.86037
415.15        28.95618
415.60        29.03586
416.05        29.06313
416.49         29.0274
416.94        28.93739
417.39        28.81966
417.83        28.71566
418.28        28.64026
418.73         28.5833
419.17        28.53824
419.62        28.48808
420.07        28.43282
420.51        28.37832
420.96        28.34217
421.41        28.31385
421.85        28.28423
422.30        28.26645
422.74        28.26297
423.19        28.30962
423.64        28.39999
424.08         28.5348
424.53         28.6514
424.98        28.68278
425.42        28.61912
425.87        28.48367
426.31        28.32865
426.76        28.24537
427.21        28.24518
427.65        28.28962
428.10        28.36638
428.54        28.44827
428.99        28.53229
429.44        28.66812
429.88        28.75051
430.33        28.63917
430.77        28.34059
431.22         27.9454
431.66        27.60313
432.11        27.61814
432.56        27.92717
433.00        28.24874
433.45        28.39438
433.89        28.19302
434.34        27.46051
434.78        27.83462
435.23         28.2234
435.67        28.47868
436.12        28.27218
436.57        28.19366
437.01        28.27145
437.46        28.25457
437.90         28.1554
438.35        28.08571
438.79        28.03822
439.24         27.9237
439.68        27.78682
440.13        27.83975
440.57        28.03741
441.02        28.14124
441.46        28.12051
441.91        28.05682
442.35        27.95973
442.80        28.02207
443.24        28.16397
443.69        28.02987
444.13        27.67914
444.58         27.5305
445.02        27.59149
445.47        27.65588
445.91        27.70214
446.36        27.79312
446.80         27.9106
447.24        28.03499
447.69        28.13831
448.13        28.17448
448.58        28.14018
449.02        28.04061
449.47        27.91962
449.91        27.82907
450.36        27.79228
450.80        27.78949
451.25        27.79672
451.69         27.7558
452.13        27.65984
452.58        27.53384
453.02        27.40482
453.47        27.32979
453.91        27.31761
454.36        27.35835
454.80        27.41864
455.24        27.44734
455.69         27.4374
456.13        27.38723
456.58        27.34605
457.02         27.3524
457.46         27.4194
457.91        27.53133
458.35        27.63501
458.79        27.60851
459.24        27.44984
459.68        27.27392
460.13         27.1904
460.57         26.8225
461.01        26.96639
461.46         27.0011
461.90        27.12016
462.34        27.14716
462.79        27.21164
463.23        27.21127
463.68        27.20193
464.12        27.21064
464.56        27.24424
465.01        27.32525
465.45        27.38815
465.89        27.39082
466.34        27.33366
466.78        27.22432
467.22        27.10168
467.67        27.08057
468.11        27.06978
468.55        27.14537
468.99        27.24383
469.44        27.31956
469.88        27.36195
470.32        27.37748
470.77        27.38251
471.21        27.40388
471.65        27.44375
472.10        27.49614
472.54        27.53148
472.98        27.52068
473.42        27.46367
473.87        27.38618
474.31        27.30457
474.75        27.27111
475.20          27.302
475.64        27.36107
476.08        27.42221
476.52        27.51406
476.97        27.63789
477.41        27.65433
477.85        27.50815
478.29        27.88831
478.74        27.59635
479.18        27.55825
479.62        27.45357
480.06        27.50473
480.50        27.73496
480.95        27.58614
481.39        27.95661
481.83          28.002
482.27         27.9975
482.72        27.95754
483.16        27.92187
483.60        27.95691
484.04        28.06249
484.48        28.16455
484.93        28.35186
485.37        28.58742
485.81        28.77927
486.25        28.99603
486.69        28.63624
487.14        27.86823
487.58         28.1297
488.02        29.11471
488.46        28.73167
488.90        28.68761
489.34        28.67839
489.79        28.28621
490.23        28.84894
490.67        29.08208
491.11        29.29302
491.55        29.29969
491.99          29.163
492.43        29.18853
492.88        29.38502
493.32        29.54116
493.76        29.62511
494.20        29.73138
494.64        29.86512
495.08        29.96696
495.52        30.04253
495.96        30.20099
496.41        30.41351
496.85        30.44795
497.29        30.35643
497.73        30.52025
498.17        30.89859
498.61        31.03458
499.05        30.93734
499.49        30.98237
499.93        31.17886
500.37        31.31569
500.82        31.38899
501.26        31.48586
501.70        31.60624
502.14        31.72949
502.58         31.8332
503.02        31.88245
503.46        31.87598
503.90        31.83067
504.34         31.7918
504.78        31.82917
505.22        31.95762
505.66        32.15577
506.10        32.37163
506.54        32.51803
506.98         32.5703
507.42        32.55378
507.86         32.5087
508.30        32.49789
508.74        32.54093
509.18        32.62074
509.62        32.71463
510.06        32.78687
510.50         32.8261
510.94         32.8423
511.38        32.85658
511.82        32.90042
512.26        32.97665
512.70        33.07038
513.14        33.14767
513.58        33.15756
514.02        33.09221
514.46         32.9726
514.90        32.83683
515.34        32.74622
515.78        32.72011
516.22        32.74255
516.66         32.7938
517.10        32.84026
517.54        32.87019
517.98        32.89448
518.42        32.91594
518.86        32.93757
519.30        32.96089
519.74         32.9799
520.18        32.99564
520.62        33.01435
521.06        33.03452
521.50         33.0507
521.93         33.0599
522.37        33.05054
522.81         33.0231
523.25        32.98436
523.69        32.92906
524.13        32.84779
524.57        32.74618
525.01        32.63227
525.45        32.53301
525.89        32.48964
526.32        32.50735
526.76        32.56881
527.20        32.64454
527.64        32.68663
528.08         32.6803
528.52         32.6417
528.96        32.57796
529.40        32.50167
529.83        32.41814
530.27        32.33096
530.71        32.25641
531.15        32.22934
531.59        32.25266
532.03        32.31408
532.46        32.37615
532.90        32.38573
533.34        32.33207
533.78        32.20962
534.22         32.0519
534.66        31.96536
535.09        31.93419
535.53        31.83181
535.97        31.67671
536.41        31.61189
536.85        31.64536
537.28        31.70437
537.72        31.76904
538.16        31.83735
538.60        31.89722
539.04        31.94244
539.47        31.98051
539.91        32.04393
540.35        32.12893
540.79        32.24187
541.22        32.35822
541.66         32.3922
542.10        32.42234
542.54        32.39761
542.97        32.38294
543.41        32.45789
543.85         32.6287
544.29         32.8706
544.72         33.1259
545.16        33.32257
545.60        33.43572
546.04        33.48473
546.47        33.50982
546.91        33.58317
547.35        33.72358
547.79        33.89823
548.22        34.05068
548.66        34.17016
549.10        34.24936
549.53        34.14729
549.97        34.21099
550.41        34.29262
550.84        34.49475
551.28        34.78992
551.72         35.1177
552.15        35.34492
552.59        35.46102
553.03        35.54745
553.46        35.61745
553.90        35.71259
554.34        35.84667
554.77        35.94826
555.21         35.9818
555.65        36.28514
556.08        36.17003
556.52        36.21834
556.96        36.23874
557.39        36.28798
557.83        36.38169
558.27        36.45359
558.70        36.50483
559.14        36.71577
559.57        36.75453
560.01        36.94374
560.45        37.11091
560.88        37.10973
561.32        37.01308
561.75        36.86497
562.19        36.78347
562.63        37.10032
563.06        37.66005
563.50        37.67323
563.93        37.21287
564.37        37.11469
564.80        37.38838
565.24        37.57906
565.68        37.64523
566.11        37.73577
566.55        37.85961
566.98        37.96863
567.42        38.09501
567.85        38.24839
568.29         38.4446
568.72         38.6506
569.16        38.88007
569.60        39.03588
570.03        39.08701
570.47        39.12659
570.90        39.50399
571.34        39.05875
571.77        39.45631
572.21        39.50617
572.64        39.75071
573.08        39.71399
573.51        40.14174
573.95        40.77242
574.38        40.30205
574.82        40.36126
