SpectraSmart Spectrum 2.9.0.0
--------- Device Information -----------
Spectrum Name :  反射率_0
Saving Time :  2024/05/01 16:44:23
Spectro-Module Model Name : SE2030-DUVN
Spectro-Module Serial Number : OS361AC55029948
Wavelength Start : 200
Wavelength End : 1025
Wavelength Unit : Wavelength(nm)
Spectrum Unit : Reflectance(%)
-----------Spectrum Setting ------------
Integration Time : 20ms
Average : 10
Boxcar : 0
Background removal :  enabled
linearity correction :  enabled
SC :  disabled
Intensity correction :  disabled
DWT denoise :  enabled
savitzky-golay :  disabled
FFT :  disabled
Running average :  disabled
Kalman :  disabled
High pass :  disabled
---------------BEGIN--------------------
Wavelength(nm)             Reflectance(%)
200.29               0
200.75        151.6592
201.21        613.3693
201.67       -236.0803
202.13       -69.56958
202.58       -12.40338
203.04         22.6969
203.50        44.56856
203.96        54.03077
204.42        53.30212
204.88        34.83383
205.34       -495.3304
205.80        139.7588
206.26         97.5451
206.72        62.10257
207.18       -65.49175
207.64        263.2726
208.10        134.4698
208.55        97.57526
209.01         76.6334
209.47        64.93522
209.93         58.4572
210.39         52.5331
210.85        46.59612
211.31        39.09105
211.77        18.73389
212.23        152.2815
212.69        73.86734
213.14        82.76595
213.60        143.9572
214.06       -555.3295
214.52       -69.75942
214.98       -32.67254
215.44       -13.77103
215.90        18.68506
216.36        437.9708
216.81       -198.2681
217.27       -223.7265
217.73        303.6263
218.19        20.82034
218.65       -7.071262
219.11        -16.6821
219.57       -18.67415
220.02        30.08672
220.48         70.6039
220.94        43.94054
221.40        34.13148
221.86        32.62329
222.32        37.99706
222.77        49.84257
223.23        69.34901
223.69        94.94975
224.15        107.8153
224.61        99.52691
225.06        83.18127
225.52        70.88692
225.98        66.34125
226.44        68.16625
226.90        75.14043
227.36        85.02745
227.81        88.79445
228.27        83.61527
228.73        75.48518
229.19        69.81442
229.65        69.74079
230.10        74.83823
230.56         84.3423
231.02         96.0069
231.48        102.2583
231.93        99.58535
232.39        92.47968
232.85        84.76124
233.31        79.77683
233.77        77.73967
234.22        77.17098
234.68        77.86038
235.14         79.7895
235.60        83.05935
236.05        88.76067
236.51        96.67574
236.97        103.7872
237.43        106.4559
237.88        103.4875
238.34        97.22321
238.80        93.19789
239.26        92.89277
239.71        96.68548
240.17        102.6936
240.63        102.2676
241.08        89.63136
241.54         70.8803
242.00        56.32251
242.46        51.94062
242.91        58.20995
243.37        76.49073
243.83        109.8165
244.28        135.2789
244.74        127.1313
245.20        105.3678
245.66        86.90924
246.11        75.54749
246.57        68.05742
247.03        60.27929
247.48        48.01378
247.94         27.7298
248.40        4.214458
248.85       -15.37613
249.31       -20.44967
249.77        -8.20385
250.22        11.70321
250.68        31.49686
251.14        46.42404
251.59        54.78071
252.05        58.36727
252.51        58.32354
252.96         53.2414
253.42        48.78904
253.88        58.05247
254.33        68.35875
254.79        72.46852
255.25        72.86216
255.70        71.77509
256.16        71.14157
256.62        71.04934
257.07        71.50678
257.53        72.74181
257.99        74.01601
258.44        74.95497
258.90        75.89484
259.35        76.43458
259.81        76.94994
260.27        77.17561
260.72        76.83706
261.18        76.30593
261.63        75.38815
262.09        74.51718
262.55        73.63804
263.00        72.65695
263.46        71.77923
263.91        70.85068
264.37        70.11814
264.83        69.50672
265.28        68.99004
265.74        68.58067
266.19        67.94097
266.65        67.18668
267.11         66.2791
267.56        65.50446
268.02        65.43533
268.47        66.05061
268.93        67.11344
269.38        68.06845
269.84        67.98253
270.30        66.70832
270.75        64.58639
271.21        62.20841
271.66        60.31576
272.12        59.19167
272.57        58.51093
273.03        58.18151
273.48        57.95914
273.94        57.75661
274.39        57.59723
274.85        57.32366
275.31        56.57109
275.76        55.32039
276.22        53.78102
276.67        52.20908
277.13        51.15725
277.58        50.60115
278.04        50.42059
278.49        50.30141
278.95        49.93498
279.40        49.17316
279.86        48.21911
280.31        47.13446
280.77        46.15439
281.22        45.25614
281.68        44.45863
282.13        43.65437
282.59        42.83886
283.04        41.96212
283.50        41.11764
283.95        40.33516
284.41        39.74302
284.86        39.33467
285.32        39.08416
285.77        38.91673
286.22        38.79366
286.68        38.67874
287.13         38.5473
287.59        38.35431
288.04        37.98498
288.50         37.4792
288.95        36.84338
289.41        36.22929
289.86        35.74454
290.32        35.44712
290.77        35.27357
291.22        35.16523
291.68        35.01554
292.13        34.78757
292.59        34.54504
293.04        34.30181
293.50        34.13963
293.95        34.05404
294.40        34.02007
294.86        34.02793
295.31        34.07699
295.77         34.1562
296.22        34.26516
296.68         34.3592
297.13        34.34267
297.58        34.22116
298.04        34.03952
298.49        33.87449
298.95        33.89328
299.40        34.10201
299.85          34.437
300.31        34.81734
300.76        35.11185
301.21        35.28449
301.67        35.38219
302.12        35.38401
302.58        35.29589
303.03        35.12406
303.48        34.90025
303.94        34.72529
304.39        34.68032
304.84        34.79663
305.30        35.02564
305.75        35.29087
306.20        35.49389
306.66        35.60258
307.11        35.62172
307.57        35.55331
308.02        35.34673
308.47        35.02877
308.93        34.62669
309.38        34.19941
309.83        33.89208
310.29        33.74291
310.74        33.71262
311.19        33.73442
311.65         33.6838
312.10        33.52431
312.55        33.29546
313.00        33.06316
313.46        32.93106
313.91        32.91175
314.36        32.95886
314.82        33.00263
315.27        32.94872
315.72        32.76715
316.18        32.50269
316.63         32.1871
317.08        31.87178
317.53        31.57811
317.99        31.29689
318.44        31.03651
318.89        30.82674
319.35        30.67389
319.80        30.57429
320.25        30.50491
320.70        30.41896
321.16        30.29694
321.61        30.15439
322.06        30.00116
322.51        29.86349
322.97        29.74091
323.42        29.62941
323.87        29.51639
324.32         29.3928
324.78        29.25123
325.23        29.11283
325.68        28.96232
326.13        28.78096
326.59        28.56036
327.04        28.31357
327.49        28.07127
327.94         27.8966
328.39        27.80132
328.85        27.76322
329.30        27.73357
329.75         27.5953
330.20        27.32381
330.66        26.94733
331.11         26.5618
331.56        26.29645
332.01        26.19415
332.46        26.22458
332.92        26.31353
333.37         26.3655
333.82        26.33751
334.27         26.2603
334.72        26.18754
335.17        26.21455
335.63        26.34876
336.08        26.55457
336.53        26.76289
336.98        26.88416
337.43        26.89517
337.88        26.83945
338.34        26.71981
338.79        26.55906
339.24         26.3748
339.69        26.15749
340.14         25.9972
340.59        26.03656
341.05        26.27669
341.50        26.67512
341.95        27.06196
342.40        27.15895
342.85        26.91335
343.30        26.42908
343.75        25.87381
344.20        25.50986
344.66        25.41704
345.11         25.5088
345.56        25.73124
346.01        25.98526
346.46        26.21465
346.91        26.44289
347.36        26.62475
347.81         26.6895
348.26        26.63366
348.72        26.47976
349.17        26.26962
349.62        26.12161
350.07        26.06388
350.52        26.06059
350.97        26.08653
351.42        26.09089
351.87        26.05928
352.32        26.02857
352.77        25.96388
353.22        25.81064
353.67        25.57103
354.13        25.25591
354.58        24.96673
355.03        24.89692
355.48        25.07016
355.93        25.44045
356.38        25.80926
356.83        25.84171
357.28        25.47951
357.73        24.84314
358.18        24.19191
358.63         23.9104
359.08        24.06901
359.53        24.53384
359.98        25.09539
360.43        25.39695
360.88         25.3305
361.33        25.02176
361.78        24.59363
362.23        24.22264
362.68        23.97055
363.13        23.77578
363.58        23.63947
364.03        23.57547
364.48        23.56838
364.93         23.6157
365.38        23.66463
365.83        23.62175
366.28        23.46435
366.73        23.21651
367.18        22.90526
367.63        22.58602
368.08        22.29376
368.53        22.02725
368.98        21.80833
369.43        21.66335
369.88        21.58752
370.33        21.56714
370.78         21.5778
371.23        21.57299
371.68         21.5304
372.13          21.458
372.58        21.33763
373.03        21.14484
373.48        20.88301
373.93        20.56043
374.38        20.23484
374.83        20.00596
375.28        19.90064
375.72        19.89458
376.17        19.92956
376.62        19.90527
377.07        19.79749
377.52        19.63537
377.97        19.46181
378.42        19.34581
378.87        19.30109
379.32        19.29655
379.77        19.29877
380.22        19.26011
380.67        19.16809
381.11        19.04611
381.56        18.90573
382.01        18.76955
382.46        18.65363
382.91        18.55644
383.36        18.48519
383.81        18.45271
384.26        18.45231
384.71        18.46682
385.15        18.48169
385.60        18.49149
386.05        18.48129
386.50        18.46006
386.95        18.39243
387.40        18.22737
387.85        17.97576
388.29        17.65162
388.74        17.37246
389.19        17.24692
389.64        17.28543
390.09        17.43745
390.54        17.61528
390.98        17.67399
391.43        17.58393
391.88        17.40254
392.33        17.17612
392.78        16.97686
393.23        16.82962
393.67        16.68228
394.12        16.57124
394.57        16.56661
395.02        16.64179
395.47        16.67827
395.91        16.66192
396.36        16.65485
396.81        16.66058
397.26        16.63215
397.71        16.57951
398.15        16.56097
398.60        16.60077
399.05        16.60394
399.50        16.59353
399.95         16.7301
400.39        16.95762
400.84        16.96839
401.29        16.75582
401.74        16.58442
402.18        16.47143
402.63        16.25591
403.08        15.98901
403.53         15.8213
403.97        15.77092
404.42        15.80561
404.87        15.87299
405.32        15.88535
405.76        15.81825
406.21        15.70346
406.66        15.59127
407.11        15.56289
407.55        15.63859
408.00        15.78939
408.45        15.95324
408.90         16.0033
409.34         15.9169
409.79        15.76628
410.24        15.60917
410.68        15.49141
411.13        15.43564
411.58        15.44384
412.03        15.46722
412.47        15.41437
412.92        15.26796
413.37        15.06524
413.81        14.87942
414.26        14.82826
414.71          14.924
415.15        15.13395
415.60        15.36105
416.05         15.4601
416.49        15.39046
416.94        15.19464
417.39        14.96096
417.83        14.83085
418.28         14.8408
418.73        14.94455
419.17        15.07477
419.62        15.11738
420.07        15.05053
420.51        14.91748
420.96        14.77923
421.41         14.7021
421.85        14.69925
422.30        14.74688
422.74        14.82429
423.19        14.91942
423.64         15.0163
424.08        15.12602
424.53        15.20491
424.98        15.20075
425.42        15.10949
425.87        14.95523
426.31        14.78433
426.76        14.68182
427.21        14.66355
427.65        14.70197
428.10        14.79336
428.54        14.92441
428.99        15.07743
429.44          15.271
429.88        15.41961
430.33        15.40461
430.77        15.22223
431.22        14.93037
431.66        14.63522
432.11        14.53926
432.56        14.62883
433.00        14.77083
433.45        14.82978
433.89        14.63931
434.34        14.17702
434.78         14.1616
435.23        14.66246
435.67        14.86429
436.12        14.76913
436.57        14.79513
437.01        14.94286
437.46        14.97781
437.90        14.88698
438.35        14.76272
438.79        14.63165
439.24        14.49722
439.68        14.40171
440.13        14.44397
440.57        14.57683
441.02        14.65958
441.46        14.67204
441.91        14.58871
442.35        14.45918
442.80        14.60711
443.24        14.92024
443.69        14.81328
444.13         14.3617
444.58        14.18532
445.02        14.30128
445.47        14.38719
445.91        14.41351
446.36        14.48215
446.80         14.5798
447.24        14.67853
447.69        14.76359
448.13        14.81396
448.58        14.82476
449.02        14.79542
449.47        14.75124
449.91         14.7215
450.36        14.71897
450.80         14.7372
451.25         14.7489
451.69        14.69921
452.13         14.5846
452.58        14.42772
453.02         14.2782
453.47         14.2228
453.91        14.27471
454.36        14.40907
454.80        14.56219
455.24        14.63011
455.69        14.59173
456.13        14.46984
456.58        14.33426
457.02        14.27107
457.46         14.3039
457.91        14.40387
458.35         14.5116
458.79        14.51262
459.24        14.39759
459.68        14.24541
460.13        14.14389
460.57         13.9347
461.01        14.04189
461.46        14.12445
461.90        14.26277
462.34        14.32791
462.79        14.37601
463.23        14.36091
463.68         14.3254
464.12        14.30412
464.56        14.30935
465.01        14.34705
465.45        14.37277
465.89         14.3458
466.34        14.26638
466.78        14.14411
467.22        14.02134
467.67        13.99465
468.11        14.02301
468.55        14.13499
468.99        14.26816
469.44        14.35326
469.88        14.37526
470.32        14.34927
470.77        14.30615
471.21        14.29386
471.65        14.32416
472.10        14.37883
472.54        14.43039
472.98        14.44713
473.42        14.42302
473.87        14.38052
474.31        14.32363
474.75         14.2723
475.20        14.23801
475.64        14.20497
476.08        14.18006
476.52        14.20973
476.97        14.30052
477.41        14.37453
477.85        14.37712
478.29        14.62766
478.74        14.48846
479.18        14.45252
479.62        14.37573
480.06        14.41687
480.50        14.59111
480.95        14.57996
481.39        14.83403
481.83        14.86953
482.27        14.83044
482.72        14.74787
483.16        14.65105
483.60        14.61624
484.04        14.64425
484.48        14.64293
484.93        14.71745
485.37        14.98379
485.81        15.23974
486.25        15.70264
486.69        14.89452
487.14          14.469
487.58        14.84053
488.02        15.24701
488.46        15.12126
488.90        15.37568
489.34         15.1461
489.79        14.97854
490.23        15.32125
490.67        15.56061
491.11         15.7948
491.55        15.75008
491.99        15.49517
492.43        15.42328
492.88        15.56277
493.32        15.65815
493.76        15.68956
494.20        15.76965
494.64        15.89895
495.08        16.02721
495.52         16.1413
495.96        16.27693
496.41        16.41273
496.85        16.42231
497.29        16.35002
497.73        16.44968
498.17        16.69672
498.61        16.78511
499.05        16.72455
499.49        16.77348
499.93        16.93714
500.37        17.06905
500.82        17.15404
501.26         17.2291
501.70        17.29134
502.14        17.33351
502.58        17.35398
503.02        17.35064
503.46        17.33048
503.90        17.30145
504.34        17.28992
504.78        17.33556
505.22        17.44414
505.66        17.60044
506.10        17.77203
506.54        17.90378
506.98        17.97683
507.42        18.00508
507.86         18.0002
508.30        17.98237
508.74        17.96346
509.18         17.9405
509.62        17.92469
510.06        17.93548
510.50        17.97646
510.94         18.0428
511.38        18.12333
511.82        18.19695
512.26        18.25335
512.70         18.2938
513.14        18.31296
513.58        18.30504
514.02        18.27213
514.46        18.21814
514.90        18.15491
515.34        18.10238
515.78        18.06903
516.22        18.05389
516.66        18.05642
517.10        18.07252
517.54        18.09907
517.98        18.13598
518.42        18.17741
518.86        18.21373
519.30         18.2397
519.74        18.25233
520.18         18.2525
520.62        18.24456
521.06         18.2292
521.50         18.2057
521.93        18.17152
522.37        18.11806
522.81        18.05005
523.25        17.97571
523.69         17.9066
524.13         17.8581
524.57        17.83529
525.01        17.83417
525.45         17.8505
525.89        17.87753
526.32        17.90903
526.76        17.93988
527.20        17.96459
527.64        17.97519
528.08         17.9689
528.52        17.94926
528.96        17.91175
529.40        17.85077
529.83        17.76792
530.27        17.67203
530.71        17.58444
531.15         17.5423
531.59        17.55091
532.03         17.5975
532.46        17.64962
532.90        17.65715
533.34        17.61018
533.78        17.51287
534.22        17.39325
534.66         17.3237
535.09        17.29934
535.53          17.247
535.97        17.17196
536.41        17.14548
536.85        17.16937
537.28        17.20672
537.72        17.24626
538.16         17.2871
538.60        17.32326
539.04        17.35156
539.47        17.37649
539.91        17.41749
540.35        17.47289
540.79        17.54547
541.22        17.62403
541.66        17.66375
542.10        17.70757
542.54        17.72706
542.97        17.75128
543.41        17.81556
543.85        17.92137
544.29        18.05756
544.72        18.20233
545.16        18.32984
545.60        18.43019
546.04        18.51043
546.47        18.58051
546.91        18.66132
547.35        18.75808
547.79        18.85796
548.22        18.94413
548.66        19.03242
549.10        19.12308
549.53        19.12907
549.97        19.23009
550.41        19.31738
550.84        19.44268
551.28        19.60069
551.72        19.77208
552.15        19.90508
552.59        20.00049
553.03        20.09691
553.46        20.19365
553.90        20.30293
554.34        20.42759
554.77        20.52841
555.21        20.58665
555.65        20.79783
556.08        20.76724
556.52        20.82672
556.96        20.86032
557.39        20.89235
557.83        20.93283
558.27        20.94913
558.70        20.95654
559.14        21.08127
559.57        21.13651
560.01        21.29947
560.45        21.45629
560.88        21.50039
561.32        21.46746
561.75        21.38841
562.19        21.33632
562.63        21.51469
563.06        21.83721
563.50        21.84138
563.93        21.57182
564.37        21.52365
564.80        21.70357
565.24        21.84142
565.68         21.9177
566.11        22.02977
566.55        22.17849
566.98        22.32615
567.42        22.47279
567.85        22.60528
568.29        22.73125
568.72        22.83069
569.16        22.92199
569.60        23.03157
570.03        23.15871
570.47        23.22108
570.90        23.37548
571.34        23.46511
571.77         23.5251
572.21        23.58303
572.64        23.68993
573.08         23.7275
573.51        24.16933
573.95        24.30977
574.38        24.27978
574.82        24.25419
