SpectraSmart Spectrum 2.9.0.0
--------- Device Information -----------
Spectrum Name :  反射率_0
Saving Time :  2024/05/01 17:23:21
Spectro-Module Model Name : SE2030-DUVN
Spectro-Module Serial Number : OS361AC55029948
Wavelength Start : 200
Wavelength End : 1025
Wavelength Unit : Wavelength(nm)
Spectrum Unit : Reflectance(%)
-----------Spectrum Setting ------------
Integration Time : 20ms
Average : 10
Boxcar : 0
Background removal :  enabled
linearity correction :  enabled
SC :  disabled
Intensity correction :  disabled
DWT denoise :  enabled
savitzky-golay :  disabled
FFT :  disabled
Running average :  disabled
Kalman :  disabled
High pass :  disabled
---------------BEGIN--------------------
Wavelength(nm)             Reflectance(%)
200.29               0
200.75        305.1749
201.21         1154.23
201.67        -440.405
202.13       -153.0078
202.58       -67.58965
203.04       -20.52642
203.50        6.134714
203.96        14.39974
204.42        4.836955
204.88       -47.77397
205.34       -1509.845
205.80        270.9179
206.26        194.0835
206.72        186.9699
207.18        299.7714
207.64       -123.2737
208.10       -7.910137
208.55        7.674879
209.01        8.441042
209.47        7.071951
209.93        5.163861
210.39       0.3085139
210.85       -8.476443
211.31       -26.41202
211.77       -88.95943
212.23        393.8055
212.69        105.8191
213.14        104.2505
213.60        190.9986
214.06       -861.3683
214.52       -136.9366
214.98       -89.31208
215.44       -78.35212
215.90       -84.72123
216.36       -296.8084
216.81        43.40559
217.27        81.68297
217.73       -374.8023
218.19       -131.0376
218.65       -116.9971
219.11       -130.3492
219.57       -185.7543
220.02       -354.7352
220.48       -109.6032
220.94        -20.9543
221.40       -4.914511
221.86       0.2020597
222.32        4.276053
222.77        9.764096
223.23        17.50977
223.69        27.34397
224.15        32.72083
224.61        30.49648
225.06        25.30911
225.52        21.66053
225.98        21.34079
226.44        24.05047
226.90        29.44448
227.36        36.55555
227.81        40.15573
228.27        38.01931
228.73        33.58307
229.19        29.75882
229.65        27.96125
230.10        27.94307
230.56        29.38066
231.02        31.90417
231.48        34.24259
231.93        35.40323
232.39        35.77314
232.85        36.08522
233.31        37.19014
233.77        38.97057
234.22        40.98369
234.68         42.6107
235.14         43.2163
235.60        42.70115
236.05        41.15034
236.51        38.62311
236.97        36.39564
237.43        35.70031
237.88        36.48957
238.34        37.90223
238.80        38.84436
239.26        38.80915
239.71        38.17327
240.17        35.37854
240.63        27.15441
241.08        14.60769
241.54        2.584916
242.00       -4.833822
242.46       -6.674437
242.91       -3.086026
243.37        6.967594
243.83        29.92739
244.28        62.89709
244.74        81.02322
245.20        83.14468
245.66        78.31497
246.11        71.38046
246.57        62.00831
247.03        46.14161
247.48         18.3627
247.94        -18.2479
248.40       -48.32222
248.85       -65.70847
249.31       -62.57714
249.77       -41.79297
250.22       -15.92106
250.68        8.604588
251.14        25.40259
251.59        30.51989
252.05        24.14285
252.51       0.1014758
252.96       -60.32159
253.42        -136.788
253.88       -102.7116
254.33       -7.952302
254.79        41.44028
255.25         53.6072
255.70        50.72832
256.16        44.47439
256.62        39.93662
257.07         40.4551
257.53        44.55275
257.99        49.28637
258.44        53.06311
258.90        55.11597
259.35        55.39458
259.81        54.90203
260.27         53.9211
260.72        52.81617
261.18        52.00822
261.63        51.14379
262.09        50.36082
262.55        49.48625
263.00        48.43567
263.46        47.38307
263.91        46.32809
264.37        45.52473
264.83        44.91289
265.28        44.43394
265.74        43.93871
266.19        42.98657
266.65        41.67408
267.11        40.09213
267.56         38.6525
268.02         38.0849
268.47         38.4454
268.93        39.43165
269.38         40.5323
269.84        40.86386
270.30        40.22436
270.75        38.89481
271.21        37.24361
271.66        35.71457
272.12        34.53597
272.57        33.51794
273.03        32.72998
273.48        32.23026
273.94        32.00129
274.39        32.00512
274.85        32.04612
275.31        31.76532
275.76        31.10715
276.22        30.22561
276.67        29.28101
277.13        28.60504
277.58        28.19567
278.04        27.97855
278.49        27.79701
278.95        27.52824
279.40        27.09509
279.86        26.60539
280.31        26.07262
280.77        25.58932
281.22        25.14028
281.68        24.75171
282.13        24.37573
282.59        24.02787
283.04        23.68282
283.50        23.37941
283.95        23.13138
284.41        23.00711
284.86        22.98799
285.32        23.04447
285.77        23.11795
286.22        23.15968
286.68        23.15562
287.13        23.10669
287.59          23.001
288.04        22.78286
288.50        22.49189
288.95        22.12253
289.41        21.80157
289.86        21.63875
290.32        21.66815
290.77        21.84716
291.22        22.06986
291.68         22.1635
292.13        22.09788
292.59        21.95705
293.04        21.84089
293.50        21.95602
293.95        22.32342
294.40        22.87162
294.86        23.50265
295.31        24.07713
295.77        24.53817
296.22         24.9248
296.68        25.24349
297.13        25.49193
297.58        25.70245
298.04        25.89689
298.49        26.12196
298.95        26.49033
299.40        26.99904
299.85        27.60392
300.31        28.26674
300.76          28.927
301.21        29.55864
301.67        30.18703
302.12        30.72853
302.58        31.08083
303.03        31.22477
303.48        31.22043
303.94         31.2401
304.39        31.48055
304.84        31.99614
305.30        32.70649
305.75        33.46455
306.20        34.05624
306.66        34.41811
307.11         34.5853
307.57        34.63468
308.02        34.63056
308.47        34.61851
308.93        34.58799
309.38        34.50588
309.83         34.3764
310.29        34.21663
310.74        34.04207
311.19        33.89616
311.65        33.82236
312.10        33.82088
312.55        33.87518
313.00        33.95684
313.46        34.02119
313.91        34.04084
314.36        34.01692
314.82        33.94025
315.27        33.81446
315.72        33.63952
316.18        33.42516
316.63        33.16856
317.08        32.87451
317.53        32.54945
317.99        32.20056
318.44        31.85508
318.89        31.56864
319.35        31.35746
319.80        31.21361
320.25        31.09286
320.70        30.91604
321.16         30.6599
321.61        30.35109
322.06        30.04256
322.51        29.82885
322.97        29.72221
323.42         29.6971
323.87        29.67853
324.32        29.55582
324.78        29.29224
325.23        28.93146
325.68        28.52167
326.13        28.14675
326.59        27.82775
327.04        27.55871
327.49        27.30399
327.94        27.01383
328.39        26.67747
328.85        26.30876
329.30        25.96372
329.75        25.70237
330.20        25.54053
330.66        25.44905
331.11        25.38784
331.56        25.26299
332.01        25.04937
332.46        24.77288
332.92        24.46677
333.37        24.21774
333.82         24.0442
334.27        23.93132
334.72        23.86311
335.17         23.8136
335.63        23.75942
336.08        23.71446
336.53        23.68446
336.98        23.68833
337.43        23.72285
337.88        23.78171
338.34        23.79708
338.79        23.67693
339.24        23.40547
339.69        23.01586
340.14        22.63103
340.59        22.44561
341.05        22.48863
341.50        22.70221
341.95        22.95141
342.40         23.0141
342.85        22.83908
343.30        22.51431
343.75        22.13256
344.20         21.8358
344.66        21.67544
345.11        21.59156
345.56        21.59889
346.01        21.71806
346.46        21.92535
346.91        22.20868
347.36        22.46044
347.81        22.51546
348.26        22.34828
348.72        22.01197
349.17        21.60594
349.62        21.33525
350.07        21.25018
350.52        21.29085
350.97        21.37167
351.42        21.34627
351.87        21.18273
352.32        20.95286
352.77        20.69983
353.22        20.48447
353.67        20.33037
354.13        20.20833
354.58        20.14034
355.03         20.1959
355.48        20.37031
355.93        20.65136
356.38        20.91387
356.83        20.94474
357.28        20.71112
357.73         20.2865
358.18        19.84934
358.63        19.66942
359.08        19.79392
359.53        20.12761
359.98        20.52562
360.43        20.73909
360.88        20.69068
361.33        20.46924
361.78        20.14598
362.23        19.82199
362.68        19.54025
363.13        19.26656
363.58        19.03351
364.03        18.90286
364.48        18.87626
364.93         18.9378
365.38        19.01661
365.83        18.99277
366.28        18.83814
366.73          18.588
367.18         18.2895
367.63        18.02695
368.08        17.83801
368.53         17.7054
368.98        17.62277
369.43        17.58017
369.88        17.56154
370.33        17.55634
370.78        17.55785
371.23        17.55182
371.68        17.52489
372.13        17.48069
372.58        17.37341
373.03        17.13364
373.48        16.76635
373.93        16.30634
374.38        15.86621
374.83         15.6326
375.28        15.64913
375.72        15.85279
376.17        16.13368
376.62        16.31932
377.07        16.35354
377.52        16.27606
377.97        16.12527
378.42        15.96513
378.87        15.82254
379.32        15.68275
379.77        15.53495
380.22        15.36617
380.67        15.18007
381.11        14.99371
381.56        14.84604
382.01        14.79698
382.46         14.8538
382.91        14.99233
383.36        15.14247
383.81        15.20043
384.26        15.13809
384.71        14.97449
385.15        14.76768
385.60         14.6295
386.05        14.58103
386.50        14.59921
386.95        14.61409
387.40        14.51874
387.85        14.30516
388.29        14.00811
388.74        13.75241
389.19        13.66119
389.64        13.74928
390.09        13.96041
390.54        14.19547
390.98         14.2957
391.43        14.22709
391.88        14.05283
392.33        13.84064
392.78        13.69217
393.23        13.63186
393.67        13.59742
394.12        13.59289
394.57        13.63721
395.02        13.69981
395.47        13.69831
395.91        13.63262
396.36        13.57018
396.81        13.52302
397.26        13.44561
397.71        13.35783
398.15        13.32482
398.60        13.36471
399.05        13.39572
399.50        13.40989
399.95         13.4961
400.39        13.60348
400.84        13.49979
401.29        13.21283
401.74         13.0087
402.18         12.9173
402.63        12.79318
403.08        12.65991
403.53         12.6107
403.97         12.6451
404.42        12.74095
404.87        12.83785
405.32        12.83619
405.76        12.71591
406.21        12.51468
406.66        12.30383
407.11        12.20016
407.55        12.23451
408.00        12.37095
408.45        12.54714
408.90        12.63459
409.34         12.6029
409.79        12.51784
410.24        12.41814
410.68        12.32929
411.13        12.26958
411.58        12.23829
412.03        12.21728
412.47        12.17321
412.92          12.099
413.37        12.01018
413.81        11.93178
414.26        11.90744
414.71        11.93807
415.15        12.01654
415.60        12.09216
416.05        12.09691
416.49        12.01452
416.94        11.86407
417.39        11.70567
417.83        11.63555
418.28        11.67345
418.73        11.78738
419.17         11.9127
419.62        11.93794
420.07        11.84544
420.51        11.67529
420.96        11.49621
421.41        11.39231
421.85        11.38094
422.30        11.43293
422.74        11.51955
423.19        11.61067
423.64        11.68738
424.08        11.76499
424.53        11.80918
424.98        11.78045
425.42        11.67929
425.87        11.52733
426.31        11.36514
426.76        11.27015
427.21        11.25506
427.65         11.2928
428.10        11.38317
428.54        11.51844
428.99        11.67937
429.44         11.8819
429.88        12.03678
430.33        12.01692
430.77        11.81851
431.22        11.49757
431.66        11.17775
432.11          11.077
432.56        11.19872
433.00        11.45615
433.45        11.68804
433.89        11.57582
434.34        11.11452
434.78        11.06971
435.23        11.49975
435.67        11.63626
436.12          11.488
436.57        11.47168
437.01        11.58159
437.46        11.58476
437.90        11.47023
438.35        11.32635
438.79        11.19501
439.24         11.1089
439.68        11.10119
440.13        11.23377
440.57        11.43295
441.02        11.52664
441.46        11.48754
441.91        11.31945
442.35        11.10665
442.80        11.15782
443.24         11.3976
443.69        11.36346
444.13        11.08151
444.58        10.98197
445.02        11.06845
445.47        11.10718
445.91        11.09741
446.36         11.1515
446.80        11.26455
447.24        11.39645
447.69        11.51685
448.13        11.58312
448.58        11.58434
449.02        11.53488
449.47        11.45629
449.91        11.37328
450.36        11.30304
450.80         11.2399
451.25        11.18909
451.69        11.14944
452.13        11.12114
452.58        11.10804
453.02        11.10421
453.47        11.10649
453.91        11.11072
454.36        11.11996
454.80        11.12626
455.24        11.11477
455.69        11.08653
456.13        11.03681
456.58        10.99501
457.02        10.99072
457.46        11.03045
457.91        11.10379
458.35        11.17028
458.79        11.14857
459.24        11.03597
459.68        10.88828
460.13        10.77673
460.57        10.58526
461.01        10.64048
461.46        10.68621
461.90        10.78181
462.34        10.82257
462.79        10.85015
463.23         10.8285
463.68        10.80365
464.12        10.82225
464.56         10.8922
465.01        11.00661
465.45        11.10156
465.89        11.10375
466.34        11.01038
466.78        10.84165
467.22        10.66421
467.67        10.61212
468.11        10.66921
468.55          10.838
468.99        11.03756
469.44        11.16285
469.88         11.1878
470.32        11.13883
470.77          11.057
471.21        11.00527
471.65        11.00527
472.10        11.03752
472.54        11.07646
472.98        11.09212
473.42        11.07885
473.87        11.05733
474.31        11.03855
474.75        11.04832
475.20        11.09367
475.64        11.15579
476.08        11.22337
476.52        11.29972
476.97        11.38228
477.41        11.43414
477.85        11.43375
478.29        11.58308
478.74        11.52406
479.18        11.52679
479.62        11.50472
480.06        11.55952
480.50        11.69916
480.95        11.67491
481.39        11.85918
481.83        11.88132
482.27         11.8607
482.72        11.82029
483.16        11.77585
483.60        11.77081
484.04        11.79604
484.48        11.81833
484.93         11.9346
485.37        12.16525
485.81        12.34186
486.25        12.96627
486.69        12.17004
487.14        11.93217
487.58        12.50753
488.02        12.67605
488.46         12.7414
488.90        12.80448
489.34        12.57391
489.79         12.5917
490.23        12.91057
490.67        13.19861
491.11        13.42117
491.55        13.43906
491.99        13.30454
492.43        13.30544
492.88        13.46455
493.32        13.57665
493.76        13.63225
494.20        13.73661
494.64        13.89548
495.08        14.06373
495.52        14.22353
495.96        14.40213
496.41        14.57861
496.85        14.62535
497.29        14.59304
497.73        14.75962
498.17        15.09188
498.61         15.2347
499.05        15.18678
499.49        15.23691
499.93        15.39194
500.37        15.48439
500.82        15.51928
501.26        15.57972
501.70        15.67194
502.14        15.77557
502.58        15.87221
503.02        15.93286
503.46         15.9549
503.90        15.95225
504.34        15.95737
504.78        16.01959
505.22        16.14824
505.66        16.32565
506.10        16.51312
506.54        16.64676
506.98         16.7077
507.42        16.71418
507.86        16.69359
508.30        16.68912
508.74        16.71645
509.18        16.76624
509.62        16.82774
510.06        16.88362
510.50        16.92803
510.94        16.96575
511.38        17.00924
511.82        17.07626
512.26        17.16575
512.70        17.26672
513.14        17.35137
513.58        17.37855
514.02        17.34214
514.46        17.25849
514.90        17.15864
515.34        17.09302
515.78        17.07751
516.22         17.0988
516.66        17.14178
517.10         17.1809
517.54        17.20598
517.98        17.22402
518.42        17.23456
518.86         17.2358
519.30        17.22841
519.74        17.21064
520.18        17.18484
520.62        17.15744
521.06        17.13037
521.50        17.10214
521.93        17.07684
522.37        17.05533
522.81        17.03974
523.25         17.0317
523.69        17.02208
524.13        16.99538
524.57        16.95113
525.01        16.89487
525.45         16.8435
525.89        16.82448
526.32        16.84056
526.76        16.87692
527.20        16.91558
527.64         16.9269
528.08        16.90289
528.52        16.85746
528.96        16.79167
529.40         16.7076
529.83        16.60944
530.27        16.49935
530.71        16.40278
531.15        16.36501
531.59        16.38905
532.03        16.45872
532.46        16.52497
532.90        16.50991
533.34        16.40224
533.78        16.22205
534.22        16.01905
534.66        15.89483
535.09        15.85489
535.53        15.82116
535.97         15.7939
536.41        15.83044
536.85        15.92457
537.28        16.04182
537.72        16.15418
538.16        16.23425
538.60        16.27006
539.04        16.26231
539.47        16.23538
539.91        16.24075
540.35         16.2863
540.79         16.3702
541.22        16.46369
541.66        16.49421
542.10        16.49757
542.54        16.45841
542.97         16.4346
543.41        16.50451
543.85        16.67724
544.29        16.92819
544.72        17.19596
545.16        17.39467
545.60        17.50118
546.04        17.53611
546.47        17.55404
546.91        17.64839
547.35        17.83774
547.79        18.08574
548.22        18.31796
548.66        18.46385
549.10        18.51019
549.53        18.40228
549.97        18.37686
550.41        18.43126
550.84        18.63759
551.28        18.95482
551.72        19.30318
552.15        19.53427
552.59        19.62369
553.03        19.64487
553.46         19.6385
553.90        19.67796
554.34        19.78626
554.77        19.90594
555.21        20.00806
555.65        20.26721
556.08        20.28974
556.52        20.40338
556.96        20.49105
557.39        20.56903
557.83        20.64444
558.27        20.68307
558.70        20.69783
559.14        20.81294
559.57        20.84633
560.01        20.97663
560.45         21.0987
560.88        21.11759
561.32         21.0724
561.75        20.99276
562.19        20.94922
562.63        21.13905
563.06        21.47477
563.50        21.50008
563.93        21.25707
564.37        21.22434
564.80        21.40599
565.24        21.55204
565.68        21.64276
566.11        21.70074
566.55        21.84643
566.98        21.95218
567.42        22.06699
567.85        22.19566
568.29        22.34893
568.72        22.50159
569.16        22.65828
569.60        22.80365
570.03        22.92654
570.47        22.99511
570.90        23.18822
571.34        23.17604
571.77        23.33336
572.21        23.40743
572.64        23.52485
573.08        23.56975
573.51        24.01891
573.95        24.09274
574.38        23.96835
574.82        24.12033
