SpectraSmart Spectrum 2.9.0.0
--------- Device Information -----------
Spectrum Name :  反射率_0
Saving Time :  2024/05/01 17:19:31
Spectro-Module Model Name : SE2030-DUVN
Spectro-Module Serial Number : OS361AC55029948
Wavelength Start : 200
Wavelength End : 1025
Wavelength Unit : Wavelength(nm)
Spectrum Unit : Reflectance(%)
-----------Spectrum Setting ------------
Integration Time : 20ms
Average : 10
Boxcar : 0
Background removal :  enabled
linearity correction :  enabled
SC :  disabled
Intensity correction :  disabled
DWT denoise :  enabled
savitzky-golay :  disabled
FFT :  disabled
Running average :  disabled
Kalman :  disabled
High pass :  disabled
---------------BEGIN--------------------
Wavelength(nm)             Reflectance(%)
200.29               0
200.75        225.7691
201.21         1056.63
201.67       -471.9957
202.13       -178.4122
202.58       -81.02708
203.04       -23.54769
203.50         12.0708
203.96        29.24166
204.42        33.01692
204.88        19.09062
205.34       -473.4801
205.80        126.5088
206.26        97.36844
206.72        91.49825
207.18        118.3415
207.64        1.000242
208.10        27.97471
208.55        30.17153
209.01        28.52271
209.47        27.03307
209.93        25.59747
210.39        22.64929
210.85        16.90641
211.31        3.255097
211.77       -47.58057
212.23        350.1896
212.69        114.0081
213.14        114.0023
213.60         190.236
214.06       -729.3052
214.52       -94.99409
214.98       -50.93404
215.44       -35.91154
215.90       -24.04904
216.36        54.45194
216.81       -51.56826
217.27       -32.35762
217.73        -108.772
218.19       -68.32442
218.65       -73.32237
219.11         -92.995
219.57       -152.5683
220.02       -354.3922
220.48       -141.3251
220.94       -35.21784
221.40       -11.46482
221.86       -2.661562
222.32        3.528022
222.77        10.76849
223.23        20.67195
223.69        33.35146
224.15        40.97337
224.61        39.20362
225.06        33.39041
225.52        29.00064
225.98        28.22692
226.44        30.75379
226.90        36.09702
227.36        43.45112
227.81        47.77983
228.27        46.63018
228.73         43.1987
229.19        40.19341
229.65         39.1051
230.10        39.78055
230.56        41.75476
231.02        44.77201
231.48        47.66074
231.93        49.24493
232.39        50.07143
232.85        50.18042
233.31        49.67675
233.77        48.86883
234.22        47.85815
234.68        47.08605
235.14        47.23853
235.60        48.49938
236.05        51.04987
236.51        54.90954
236.97        58.83587
237.43         61.0643
237.88        61.11761
238.34        59.12263
238.80        56.45838
239.26        53.23125
239.71        48.52527
240.17        41.06967
240.63        31.64602
241.08        24.46007
241.54        22.59577
242.00        24.93394
242.46        29.13749
242.91        35.78146
243.37        46.54936
243.83         65.5035
244.28        87.26578
244.74        94.12769
245.20        89.42101
245.66        81.71172
246.11        74.04318
246.57        64.92834
247.03        50.56372
247.48        25.31532
247.94       -10.91388
248.40       -44.72218
248.85       -67.21299
249.31       -68.93524
249.77       -51.08049
250.22       -26.19599
250.68       -2.338249
251.14        15.61425
251.59        26.00437
252.05        31.25314
252.51        33.15113
252.96        29.68674
253.42        21.36379
253.88        18.55568
254.33        23.40685
254.79         29.1958
255.25        34.67308
255.70        39.78128
256.16        44.70163
256.62        48.96066
257.07        51.92316
257.53        54.04224
257.99        55.47237
258.44        56.30077
258.90        57.01244
259.35        57.36573
259.81        57.59988
260.27        57.48142
260.72        56.78776
261.18        55.88005
261.63        54.70576
262.09        53.64139
262.55        52.70042
263.00        51.79949
263.46        51.01643
263.91        50.24598
264.37        49.65259
264.83        49.16878
265.28        48.78532
265.74        48.41747
266.19        47.69406
266.65        46.70785
267.11        45.47195
267.56        44.36298
268.02        44.06589
268.47         44.6099
268.93        45.73444
269.38         46.8335
269.84        46.87943
270.30        45.69093
270.75        43.61713
271.21        41.30859
271.66        39.61583
272.12        38.82729
272.57        38.61992
273.03        38.73039
273.48        38.69273
273.94        38.38443
274.39        37.92433
274.85        37.42466
275.31         36.9479
275.76        36.50572
276.22        36.10777
276.67        35.65556
277.13        35.15681
277.58        34.55719
278.04        33.91162
278.49        33.29436
278.95        32.93756
279.40        32.79356
279.86        32.81464
280.31        32.74622
280.77         32.3408
281.22        31.53567
281.68        30.52798
282.13        29.46042
282.59        28.62119
283.04        28.04389
283.50        27.68534
283.95        27.47879
284.41        27.38289
284.86        27.33629
285.32        27.34982
285.77         27.3844
286.22        27.42045
286.68        27.44478
287.13        27.43552
287.59        27.34151
288.04         27.0542
288.50        26.61119
288.95        26.02479
289.41        25.48678
289.86        25.18606
290.32        25.16832
290.77        25.35875
291.22        25.58915
291.68        25.58813
292.13        25.30898
292.59        24.87806
293.04        24.45348
293.50        24.33458
293.95        24.56598
294.40        25.04254
294.86        25.63881
295.31        26.17197
295.77        26.56459
296.22        26.86604
296.68        27.06928
297.13        27.14791
297.58        27.13336
298.04        27.05075
298.49        26.97523
298.95        27.07133
299.40          27.352
299.85        27.76547
300.31        28.24829
300.76        28.69596
301.21         29.0709
301.67        29.40916
302.12        29.65602
302.58         29.7577
303.03        29.70648
303.48        29.54479
303.94        29.40376
304.39        29.42312
304.84        29.64237
305.30        29.99745
305.75        30.38527
306.20        30.65959
306.66        30.78005
307.11        30.77708
307.57        30.68349
308.02        30.49974
308.47        30.26205
308.93        29.98071
309.38         29.6931
309.83         29.5076
310.29        29.44852
310.74        29.48433
311.19        29.55866
311.65        29.56493
312.10        29.47003
312.55        29.30413
313.00        29.11599
313.46        28.98423
313.91        28.92045
314.36        28.89281
314.82         28.8567
315.27        28.75611
315.72         28.5733
316.18         28.3402
316.63        28.07715
317.08        27.81397
317.53        27.56222
317.99         27.3161
318.44        27.07817
318.89        26.87071
319.35        26.69822
319.80        26.55631
320.25        26.42754
320.70        26.27572
321.16        26.08718
321.61        25.87854
322.06        25.66308
322.51        25.46866
322.97        25.29974
323.42         25.1564
323.87        25.02798
324.32        24.90645
324.78        24.78137
325.23          24.663
325.68        24.54201
326.13         24.4088
326.59        24.25424
327.04        24.09161
327.49        23.91295
327.94         23.7175
328.39        23.50713
328.85         23.2739
329.30        23.04851
329.75        22.85747
330.20        22.70899
330.66        22.59621
331.11        22.49537
331.56        22.33871
332.01        22.11576
332.46        21.84757
332.92        21.58162
333.37        21.42382
333.82        21.39199
334.27        21.46379
334.72        21.58747
335.17        21.67171
335.63        21.67317
336.08        21.62008
336.53         21.5481
336.98        21.52921
337.43        21.57972
337.88        21.67948
338.34        21.75892
338.79        21.71924
339.24        21.53792
339.69        21.25182
340.14        20.96917
340.59        20.85737
341.05        20.94346
341.50        21.18061
341.95         21.4489
342.40        21.55315
342.85        21.44941
343.30        21.21094
343.75        20.93511
344.20        20.77333
344.66        20.76868
345.11        20.85345
345.56         21.0001
346.01         21.1599
346.46        21.30052
346.91        21.44053
347.36        21.52652
347.81        21.47509
348.26        21.28717
348.72        20.99801
349.17        20.69068
349.62        20.54028
350.07         20.5809
350.52        20.75561
350.97        20.97087
351.42        21.06667
351.87        21.00157
352.32        20.84064
352.77        20.61771
353.22          20.387
353.67        20.17587
354.13         19.9622
354.58        19.79173
355.03        19.76719
355.48        19.89504
355.93        20.16287
356.38        20.42957
356.83        20.45226
357.28        20.19261
357.73        19.73322
358.18        19.28024
358.63        19.14316
359.08        19.37641
359.53        19.87562
359.98        20.45308
360.43        20.78735
360.88        20.78117
361.33        20.53703
361.78         20.1857
362.23        19.92207
362.68        19.80157
363.13        19.75653
363.58        19.73961
364.03        19.68277
364.48        19.56093
364.93        19.40687
365.38        19.23491
365.83        19.05406
366.28        18.87253
366.73        18.69036
367.18        18.50472
367.63        18.31656
368.08        18.13592
368.53        17.97023
368.98         17.8452
369.43        17.79611
369.88        17.81855
370.33         17.8884
370.78        17.96354
371.23        17.97261
371.68        17.89061
372.13        17.74056
372.58        17.53562
373.03        17.29425
373.48        17.03529
373.93        16.76402
374.38        16.52175
374.83        16.37734
375.28        16.34447
375.72        16.39798
376.17        16.49661
376.62        16.57132
377.07        16.59475
377.52        16.57902
377.97        16.51644
378.42        16.39997
378.87        16.23868
379.32        16.03889
379.77        15.83414
380.22        15.67715
380.67           15.58
381.11        15.53376
381.56        15.51676
382.01         15.4926
382.46        15.45203
382.91        15.41089
383.36        15.36746
383.81        15.32128
384.26        15.26985
384.71        15.19681
385.15        15.12218
385.60        15.09756
386.05        15.11996
386.50        15.18406
386.95        15.21928
387.40        15.11567
387.85        14.87341
388.29        14.53114
388.74        14.23097
389.19        14.12386
389.64        14.22842
390.09        14.47486
390.54        14.76256
390.98        14.92687
391.43        14.92347
391.88        14.81569
392.33        14.63978
392.78        14.45304
393.23        14.28359
393.67        14.08987
394.12        13.93008
394.57        13.90402
395.02        13.99707
395.47        14.10061
395.91        14.17115
396.36         14.2073
396.81        14.19901
397.26        14.11868
397.71         14.0052
398.15        13.95564
398.60        13.99778
399.05        14.03331
399.50        14.05041
399.95        14.14016
400.39        14.24799
400.84        14.13483
401.29        13.82928
401.74        13.60558
402.18        13.49626
402.63        13.35261
403.08        13.20313
403.53          13.151
403.97        13.19624
404.42        13.31091
404.87        13.43304
405.32        13.46113
405.76        13.37048
406.21        13.19688
406.66        13.00042
407.11        12.88031
407.55        12.86613
408.00        12.92964
408.45        13.02456
408.90        13.05119
409.34        12.99129
409.79        12.90541
410.24        12.82658
410.68        12.76942
411.13        12.74685
411.58        12.76118
412.03        12.78664
412.47        12.77479
412.92        12.71424
413.37        12.62339
413.81        12.53663
414.26        12.51454
414.71        12.56241
415.15        12.66807
415.60        12.77678
416.05         12.8137
416.49         12.7576
416.94        12.62762
417.39        12.48127
417.83        12.41019
418.28        12.43496
418.73        12.52814
419.17        12.62702
419.62        12.62354
420.07        12.50478
420.51        12.31208
420.96        12.12642
421.41        12.04903
421.85        12.09566
422.30         12.2276
422.74        12.39544
423.19        12.54011
423.64        12.63512
424.08         12.7031
424.53        12.71835
424.98        12.66008
425.42        12.53625
425.87        12.36278
426.31        12.18005
426.76        12.06396
427.21        12.02678
427.65        12.04635
428.10        12.11952
428.54        12.23184
428.99        12.36534
429.44        12.53805
429.88        12.66903
430.33        12.64385
430.77        12.45846
431.22        12.16481
431.66        11.87236
432.11        11.77632
432.56          11.871
433.00        12.07225
433.45        12.23517
433.89        12.07387
434.34        11.59743
434.78         11.5901
435.23        12.09401
435.67        12.26882
436.12        12.11129
436.57         12.0698
437.01        12.15646
437.46        12.15655
437.90        12.06537
438.35        11.96496
438.79        11.87425
439.24        11.79059
439.68        11.74409
440.13        11.81399
440.57        11.95181
441.02        12.02598
441.46        12.01753
441.91        11.90986
442.35        11.75987
442.80        11.85352
443.24        12.10232
443.69        12.02671
444.13        11.67315
444.58        11.52266
445.02          11.585
445.47        11.60673
445.91        11.58021
446.36        11.61148
446.80        11.69466
447.24        11.79803
447.69        11.89651
448.13        11.95316
448.58        11.95936
449.02        11.92459
449.47        11.87426
449.91        11.83983
450.36         11.8348
450.80        11.84739
451.25        11.86467
451.69        11.85722
452.13        11.82091
452.58        11.77022
453.02        11.71675
453.47        11.68639
453.91        11.68371
454.36         11.7028
454.80        11.73166
455.24        11.74818
455.69        11.74815
456.13        11.72892
456.58        11.71038
457.02        11.70602
457.46        11.72191
457.91        11.75321
458.35        11.77511
458.79        11.73113
459.24        11.62506
459.68        11.50684
460.13         11.4369
460.57        11.27002
461.01         11.3462
461.46        11.39732
461.90        11.49458
462.34        11.53991
462.79        11.58098
463.23        11.57603
463.68        11.56062
464.12        11.56435
464.56        11.59493
465.01        11.65486
465.45        11.70042
465.89        11.68612
466.34        11.61293
466.78         11.4936
467.22        11.37267
467.67         11.3468
468.11        11.38628
468.55        11.50621
468.99        11.65108
469.44        11.75765
469.88        11.80932
470.32        11.82034
470.77        11.80382
471.21        11.77721
471.65        11.75151
472.10        11.72283
472.54        11.69551
472.98        11.68535
473.42        11.69609
473.87        11.73196
474.31        11.77643
474.75        11.81507
475.20        11.84519
475.64        11.85929
476.08        11.86418
476.52        11.90146
476.97        11.97859
477.41        12.02903
477.85        12.00974
478.29        12.19302
478.74        12.05147
479.18         11.9995
479.62        11.92269
480.06        11.95846
480.50        12.12143
480.95        12.14568
481.39         12.4003
481.83        12.47342
482.27        12.47794
482.72        12.43298
483.16        12.37038
483.60        12.35963
484.04        12.39854
484.48        12.45349
484.93        12.57525
485.37        12.72778
485.81        12.77445
486.25        13.17096
486.69        12.34739
487.14        12.10561
487.58        12.78235
488.02        12.75107
488.46        12.76122
488.90        12.87549
489.34        12.76223
489.79        12.77291
490.23        13.08288
490.67        13.34173
491.11        13.57024
491.55        13.58492
491.99        13.43788
492.43        13.41767
492.88        13.54692
493.32        13.63265
493.76        13.66808
494.20        13.75184
494.64         13.8889
495.08        14.03861
495.52        14.17711
495.96        14.31941
496.41        14.44381
496.85        14.42916
497.29        14.33768
497.73        14.45893
498.17        14.76394
498.61        14.90228
499.05        14.86446
499.49        14.91899
499.93        15.06811
500.37        15.14968
500.82        15.17661
501.26        15.24327
501.70        15.35687
502.14        15.49145
502.58        15.61365
503.02        15.67224
503.46        15.66074
503.90        15.60052
504.34        15.54157
504.78        15.56212
505.22        15.67924
505.66        15.86725
506.10         16.0736
506.54        16.21046
506.98        16.25315
507.42        16.22998
507.86        16.17722
508.30        16.15127
508.74        16.17171
509.18        16.22222
509.62         16.2926
510.06        16.36739
510.50        16.43797
510.94        16.50852
511.38        16.57883
511.82        16.64592
512.26        16.70641
512.70        16.75662
513.14        16.78694
513.58        16.78581
514.02        16.75416
514.46        16.69872
514.90        16.63795
515.34        16.60098
515.78         16.5961
516.22        16.61677
516.66        16.64988
517.10         16.6726
517.54        16.67822
517.98        16.67346
518.42        16.66398
518.86        16.65918
519.30         16.6616
519.74        16.66537
520.18        16.66809
520.62        16.66789
521.06        16.66291
521.50        16.65392
521.93           16.64
522.37        16.61436
522.81        16.58019
523.25        16.54276
523.69        16.50566
524.13         16.4738
524.57        16.45015
525.01        16.43262
525.45        16.42739
525.89        16.44442
526.32          16.481
526.76        16.52829
527.20        16.56853
527.64        16.57291
528.08        16.53615
528.52        16.47126
528.96        16.38995
529.40        16.31114
529.83        16.24151
530.27        16.17962
530.71        16.13538
531.15        16.12814
531.59        16.15618
532.03        16.21135
532.46        16.26109
532.90        16.25488
533.34        16.18544
533.78        16.05902
534.22         15.9107
534.66        15.82117
535.09         15.7898
535.53        15.74724
535.97         15.6934
536.41        15.68449
536.85        15.71892
537.28        15.76474
537.72        15.81267
538.16        15.86375
538.60        15.91278
539.04        15.95565
539.47        15.99391
539.91        16.04259
540.35        16.10021
540.79        16.17035
541.22        16.24796
541.66        16.29979
542.10        16.36602
542.54        16.41682
542.97        16.47153
543.41        16.55098
543.85         16.6548
544.29        16.77851
544.72        16.90688
545.16        17.02393
545.60        17.12281
546.04        17.20486
546.47        17.28377
546.91        17.38586
547.35        17.51461
547.79        17.65772
548.22          17.781
548.66        17.87114
549.10         17.9269
549.53        17.87644
549.97        17.91885
550.41         18.0027
550.84        18.18607
551.28         18.4465
551.72         18.7323
552.15         18.9402
552.59        19.05526
553.03        19.13027
553.46        19.18621
553.90        19.26783
554.34        19.38924
554.77        19.50503
555.21        19.58803
555.65        19.81042
556.08        19.79218
556.52        19.85329
556.96         19.8944
557.39        19.95438
557.83        20.04261
558.27        20.11958
558.70        20.17777
559.14        20.30424
559.57        20.31417
560.01        20.39352
560.45         20.4585
560.88        20.44593
561.32        20.40155
561.75        20.34484
562.19        20.33414
562.63        20.54657
563.06        20.89295
563.50          20.933
563.93         20.7089
564.37         20.6968
564.80        20.90257
565.24        21.06349
565.68        21.15203
566.11        21.25143
566.55        21.36304
566.98        21.45627
567.42        21.54777
567.85        21.64983
568.29         21.7746
568.72        21.89599
569.16        22.01659
569.60         22.1372
570.03        22.25316
570.47         22.2949
570.90        22.42256
571.34        22.50282
571.77         22.5707
572.21        22.63653
572.64        22.73272
573.08        22.82953
573.51         23.2562
573.95        23.49983
574.38        23.24506
574.82        23.60504
