SpectraSmart Spectrum 2.9.0.0
--------- Device Information -----------
Spectrum Name :  反射率_0
Saving Time :  2024/05/01 16:58:04
Spectro-Module Model Name : SE2030-DUVN
Spectro-Module Serial Number : OS361AC55029948
Wavelength Start : 200
Wavelength End : 1025
Wavelength Unit : Wavelength(nm)
Spectrum Unit : Reflectance(%)
-----------Spectrum Setting ------------
Integration Time : 20ms
Average : 10
Boxcar : 0
Background removal :  enabled
linearity correction :  enabled
SC :  disabled
Intensity correction :  disabled
DWT denoise :  enabled
savitzky-golay :  disabled
FFT :  disabled
Running average :  disabled
Kalman :  disabled
High pass :  disabled
---------------BEGIN--------------------
Wavelength(nm)             Reflectance(%)
200.29               0
200.75        446.3376
201.21        1494.689
201.67       -522.2542
202.13       -180.3926
202.58       -89.90851
203.04       -44.66621
203.50       -20.92908
203.96       -14.95182
204.42       -26.37735
204.88       -83.30782
205.34       -1629.813
205.80        246.2041
206.26         155.586
206.72        122.6942
207.18        100.0919
207.64        80.81635
208.10        60.49383
208.55        43.27473
209.01        28.37018
209.47         19.1186
209.93        13.61541
210.39        7.831705
210.85      -0.4827495
211.31       -18.51722
211.77       -84.60445
212.23        430.5007
212.69         123.807
213.14        122.5285
213.60        216.3179
214.06       -921.1677
214.52       -139.1494
214.98       -89.68341
215.44       -82.49777
215.90       -104.8892
216.36       -571.5229
216.81        159.6403
217.27         220.584
217.73       -612.7198
218.19       -171.6027
218.65       -150.4432
219.11       -186.6784
219.57       -331.7765
220.02       -894.3173
220.48       -416.7156
220.94       -119.1364
221.40        -47.2266
221.86       -22.94947
222.32       -13.77389
222.77        -9.91442
223.23       -8.717649
223.69        -7.97608
224.15        -4.17913
224.61        1.615848
225.06        6.412179
225.52        9.503304
225.98        11.40516
226.44        12.79877
226.90        13.97021
227.36        15.11564
227.81        16.06117
228.27        16.42239
228.73        16.35645
229.19        15.90906
229.65        14.93991
230.10        13.40291
230.56        11.44814
231.02        9.461614
231.48        8.856861
231.93         10.1615
232.39        12.49632
232.85        15.19006
233.31         17.8031
233.77        20.18727
234.22        22.44607
234.68        24.31676
235.14        25.76205
235.60        26.88192
236.05        27.67972
236.51        28.31777
236.97        28.96882
237.43        29.43551
237.88        29.52771
238.34        28.41948
238.80        25.08714
239.26        18.58067
239.71         7.40404
240.17        -9.60533
240.63        -26.9173
241.08       -33.99532
241.54       -28.75286
242.00       -17.96046
242.46       -8.187835
242.91        1.165395
243.37        13.01508
243.83        31.94288
244.28        54.77504
244.74        64.00759
245.20        60.77696
245.66        53.60303
246.11        45.81686
246.57        36.24413
247.03        21.98983
247.48       -2.165926
247.94       -35.14853
248.40       -63.94001
248.85       -82.30337
249.31       -79.32798
249.77       -54.09704
250.22       -21.44527
250.68        8.825411
251.14        30.25043
251.59        39.95111
252.05        39.65603
252.51        27.29842
252.96       -9.750886
253.42       -65.60956
253.88       -60.96437
254.33       -9.114673
254.79        23.65991
255.25        36.64878
255.70        40.86443
256.16        42.52648
256.62        43.67132
257.07        45.33172
257.53        47.45768
257.99        49.19479
258.44        50.11641
258.90        50.24485
259.35        49.46978
259.81        48.35611
260.27        46.97665
260.72         45.5113
261.18        44.35051
261.63        43.27482
262.09        42.50603
262.55        41.98595
263.00        41.57863
263.46        41.32083
263.91        41.01544
264.37        40.64859
264.83        40.15632
265.28        39.56323
265.74        38.92123
266.19        38.09167
266.65        37.17958
267.11        36.16969
267.56        35.22746
268.02        34.69616
268.47        34.58924
268.93          34.779
269.38        35.03292
269.84        34.90779
270.30        34.32158
270.75        33.39861
271.21        32.36273
271.66        31.44342
272.12        30.77431
272.57        30.23272
273.03        29.80606
273.48          29.433
273.94        29.09836
274.39        28.79417
274.85        28.50918
275.31        28.16778
275.76        27.74934
276.22        27.31444
276.67        26.83114
277.13        26.34731
277.58        25.83314
278.04        25.31859
278.49        24.83111
278.95        24.51604
279.40        24.33702
279.86        24.27379
280.31        24.17945
280.77        23.92822
281.22        23.46634
281.68        22.89985
282.13          22.281
282.59        21.74891
283.04        21.32253
283.50        21.01828
283.95        20.80644
284.41        20.68535
284.86        20.63564
285.32        20.65506
285.77        20.77231
286.22        21.05721
286.68        21.49538
287.13        22.02471
287.59        22.49477
288.04        22.62619
288.50        22.40187
288.95        21.89389
289.41        21.33971
289.86        21.01034
290.32         20.9887
290.77         21.1913
291.22        21.48942
291.68        21.67462
292.13        21.70349
292.59        21.67967
293.04        21.70134
293.50        21.96343
293.95         22.4809
294.40         23.1733
294.86        23.93743
295.31        24.63281
295.77         25.2005
296.22        25.67793
296.68         26.0729
297.13        26.38574
297.58        26.65283
298.04        26.89902
298.49        27.17439
298.95        27.59608
299.40        28.15993
299.85         28.8171
300.31        29.52862
300.76        30.23207
301.21        30.89858
301.67        31.55208
302.12        32.09605
302.58        32.41079
303.03        32.47675
303.48        32.36385
303.94        32.26681
304.39        32.40986
304.84        32.85452
305.30        33.51587
305.75        34.23227
306.20        34.76658
306.66        35.05304
307.11        35.13543
307.57        35.10851
308.02        35.06231
308.47        35.04291
308.93        35.02391
309.38        34.95241
309.83        34.80342
310.29        34.58754
310.74        34.33459
311.19         34.0931
311.65        33.91352
312.10        33.80588
312.55        33.75549
313.00        33.75758
313.46        33.80367
313.91        33.87008
314.36        33.94518
314.82        33.98643
315.27        33.94114
315.72        33.79153
316.18        33.56037
316.63        33.26483
317.08        32.94272
317.53         32.6113
317.99        32.26897
318.44        31.93547
318.89         31.6552
319.35        31.44116
319.80        31.29024
320.25        31.16762
320.70        31.00668
321.16        30.78539
321.61        30.52548
322.06        30.26235
322.51        30.06308
322.97        29.93443
323.42        29.85958
323.87        29.78758
324.32        29.64693
324.78        29.41351
325.23        29.12428
325.68        28.80481
326.13        28.50162
326.59        28.22556
327.04        27.97705
327.49        27.74597
327.94        27.52728
328.39        27.31424
328.85        27.09818
329.30         26.8898
329.75        26.67345
330.20        26.44636
330.66         26.2088
331.11        25.96029
331.56        25.67136
332.01         25.3484
332.46        25.00772
332.92        24.69295
333.37        24.50374
333.82        24.45265
334.27        24.51938
334.72        24.65429
335.17         24.7666
335.63        24.80873
336.08        24.80619
336.53        24.77337
336.98        24.75443
337.43        24.75975
337.88        24.77203
338.34        24.75292
338.79        24.66059
339.24        24.48413
339.69        24.24672
340.14         24.0108
340.59        23.86914
341.05        23.83392
341.50        23.88266
341.95         23.9493
342.40        23.92608
342.85        23.78987
343.30         23.5858
343.75        23.36162
344.20        23.19002
344.66        23.09575
345.11        23.04059
345.56        23.03378
346.01        23.08673
346.46        23.18545
346.91        23.32439
347.36        23.43472
347.81        23.41119
348.26        23.24298
348.72        22.97297
349.17        22.67036
349.62        22.48769
350.07        22.45737
350.52        22.52692
350.97         22.6312
351.42        22.65889
351.87        22.58097
352.32        22.45212
352.77        22.27841
353.22        22.06746
353.67        21.83904
354.13        21.58995
354.58         21.3888
355.03        21.37596
355.48        21.56254
355.93        21.91241
356.38         22.2705
356.83         22.3717
357.28        22.16373
357.73        21.73691
358.18        21.27322
358.63         21.0475
359.08        21.11289
359.53        21.37017
359.98        21.69532
360.43         21.8765
360.88        21.84687
361.33        21.69207
361.78        21.45316
362.23        21.18325
362.68        20.91597
363.13        20.62569
363.58        20.38118
364.03        20.30517
364.48        20.40354
364.93        20.63017
365.38        20.85647
365.83        20.87621
366.28        20.64457
366.73        20.22981
367.18        19.72515
367.63        19.29229
368.08        18.99904
368.53        18.80895
368.98        18.70698
369.43        18.66696
369.88        18.66247
370.33        18.69104
370.78        18.73079
371.23        18.73586
371.68        18.68734
372.13        18.59688
372.58        18.43814
373.03        18.17665
373.48        17.82363
373.93        17.39645
374.38         17.0028
374.83        16.82075
375.28        16.88377
375.72        17.13214
376.17        17.42887
376.62        17.55799
377.07        17.46601
377.52        17.21434
377.97        16.89478
378.42        16.65545
378.87        16.53966
379.32        16.50167
379.77        16.49123
380.22        16.43341
380.67        16.31176
381.11        16.16379
381.56        16.02723
382.01        15.96096
382.46        15.98004
382.91        16.05813
383.36        16.15727
383.81        16.22644
384.26        16.24377
384.71         16.2116
385.15        16.14414
385.60        16.08264
386.05        16.03035
386.50        15.98542
386.95        15.91114
387.40        15.75232
387.85        15.51737
388.29        15.22767
388.74        14.98989
389.19        14.89924
389.64         14.9641
390.09         15.1346
390.54         15.3331
390.98        15.43372
391.43        15.40287
391.88         15.2856
392.33        15.11239
392.78        14.93292
393.23        14.77076
393.67        14.59127
394.12        14.43491
394.57        14.37409
395.02        14.39098
395.47        14.37828
395.91        14.33724
396.36        14.33999
396.81        14.38649
397.26        14.42494
397.71        14.43054
398.15        14.40334
398.60        14.36031
399.05        14.24393
399.50        14.10489
399.95        14.11821
400.39        14.24675
400.84        14.22371
401.29        14.04606
401.74        13.93604
402.18        13.90289
402.63        13.80742
403.08        13.67641
403.53        13.61522
403.97        13.62838
404.42        13.68414
404.87        13.73658
405.32        13.71236
405.76         13.5962
406.21        13.42487
406.66        13.24388
407.11        13.12575
407.55        13.09407
408.00        13.12461
408.45          13.196
408.90        13.25039
409.34        13.27262
409.79        13.30447
410.24        13.33154
410.68        13.30044
411.13        13.21259
411.58        13.09041
412.03        12.95566
412.47        12.84574
412.92        12.77631
413.37         12.7421
413.81        12.73416
414.26        12.74655
414.71        12.76903
415.15        12.81209
415.60        12.85173
416.05        12.86322
416.49        12.83973
416.94        12.78109
417.39        12.71922
417.83        12.70845
418.28        12.75707
418.73        12.84689
419.17        12.92958
419.62        12.92015
420.07        12.81012
420.51        12.63081
420.96        12.44906
421.41        12.34543
421.85        12.33493
422.30        12.39321
422.74        12.48557
423.19        12.57197
423.64        12.63248
424.08        12.68428
424.53        12.70268
424.98        12.66839
425.42        12.58449
425.87        12.46196
426.31        12.32816
426.76         12.2397
427.21        12.20392
427.65        12.20432
428.10        12.24147
428.54        12.30981
428.99        12.40081
429.44        12.53466
429.88         12.6428
430.33        12.62759
430.77        12.48455
431.22        12.25804
431.66        12.04273
432.11        12.00972
432.56        12.14367
433.00        12.36396
433.45        12.52491
433.89        12.34264
434.34        11.83523
434.78        11.80365
435.23         12.2949
435.67        12.46465
436.12        12.31227
436.57        12.28947
437.01         12.4076
437.46         12.4427
437.90        12.38463
438.35        12.31845
438.79        12.24942
439.24        12.15382
439.68        12.06107
440.13        12.05882
440.57        12.12402
441.02        12.16114
441.46        12.15934
441.91         12.1113
442.35        12.03923
442.80        12.13676
443.24        12.32978
443.69        12.25987
444.13         11.9697
444.58        11.84236
445.02        11.88794
445.47        11.90744
445.91         11.8972
446.36        11.94322
446.80        12.03942
447.24        12.16026
447.69        12.27492
448.13         12.3364
448.58        12.33541
449.02        12.28441
449.47        12.21649
449.91        12.17619
450.36        12.17896
450.80        12.20621
451.25        12.23981
451.69        12.24219
452.13        12.20576
452.58        12.14841
453.02        12.07811
453.47        12.01486
453.91        11.96577
454.36        11.92976
454.80        11.90832
455.24        11.90056
455.69        11.90652
456.13         11.9158
456.58        11.93748
457.02        11.96798
457.46         12.0067
457.91        12.05196
458.35        12.07768
458.79        12.02597
459.24         11.9021
459.68        11.75731
460.13        11.65798
460.57        11.46402
461.01        11.52415
461.46        11.56611
461.90        11.65965
462.34         11.7001
462.79        11.73451
463.23        11.72134
463.68         11.7023
464.12        11.71573
464.56        11.76968
465.01        11.86323
465.45        11.93942
465.89        11.93636
466.34        11.85212
466.78        11.70106
467.22        11.54493
467.67         11.5102
468.11        11.57371
468.55        11.74601
468.99        11.94114
469.44        12.04799
469.88        12.04215
470.32        11.95102
470.77        11.83414
471.21         11.7854
471.65        11.82987
472.10         11.9368
472.54        12.05144
472.98        12.09845
473.42        12.06343
473.87        11.98325
474.31        11.89195
474.75        11.85284
475.20        11.88307
475.64        11.94879
476.08         12.0282
476.52        12.11897
476.97        12.21589
477.41        12.26893
477.85        12.24407
478.29        12.43275
478.74        12.30212
479.18        12.26435
479.62        12.20577
480.06        12.27499
480.50        12.48448
480.95        12.55754
481.39         12.8607
481.83        12.94471
482.27        12.92739
482.72        12.84192
483.16        12.73731
483.60        12.71831
484.04        12.79321
484.48        12.88643
484.93        13.05643
485.37          13.332
485.81        13.53638
486.25        13.96917
486.69        13.13065
487.14        12.84358
487.58        13.47101
488.02        13.66787
488.46        13.35988
488.90        13.71698
489.34        13.67421
489.79        13.68502
490.23        13.99095
490.67        14.18439
491.11        14.38965
491.55        14.45889
491.99        14.42389
492.43        14.44101
492.88        14.52101
493.32        14.55513
493.76        14.56963
494.20        14.67773
494.64        14.89223
495.08        15.16402
495.52        15.44095
495.96        15.68923
496.41         15.8693
496.85        15.87785
497.29        15.78821
497.73        15.88794
498.17        16.17115
498.61        16.34414
499.05        16.38486
499.49        16.48644
499.93        16.64606
500.37        16.74504
500.82        16.80044
501.26        16.89348
501.70        17.03146
502.14        17.18922
502.58        17.33376
503.02        17.41556
503.46        17.42851
503.90        17.39463
504.34        17.35872
504.78        17.39088
505.22        17.50712
505.66        17.68287
506.10        17.87775
506.54        18.02419
506.98        18.10021
507.42        18.12739
507.86        18.12297
508.30        18.11335
508.74        18.11311
509.18        18.11721
509.62        18.13533
510.06         18.1848
510.50        18.26707
510.94         18.3762
511.38        18.50005
511.82        18.61648
512.26         18.7134
512.70        18.79001
513.14        18.83714
513.58        18.84446
514.02        18.81302
514.46        18.74773
514.90        18.66506
515.34        18.59237
515.78        18.54152
516.22         18.5126
516.66        18.50111
517.10        18.49574
517.54        18.49273
517.98        18.49403
518.42        18.50459
518.86        18.53171
519.30        18.57254
519.74        18.61862
520.18        18.65265
520.62         18.6508
521.06        18.60811
521.50        18.53159
521.93        18.43928
522.37        18.35662
522.81        18.29599
523.25        18.25438
523.69        18.22281
524.13        18.18434
524.57        18.13709
525.01        18.08922
525.45        18.05211
525.89        18.04305
526.32        18.06186
526.76         18.0933
527.20        18.12477
527.64        18.13772
528.08        18.12437
528.52        18.09259
528.96        18.03439
529.40        17.93758
529.83         17.8055
530.27        17.65076
530.71        17.50558
531.15        17.42483
531.59        17.41773
532.03        17.46547
532.46        17.52918
532.90        17.54756
533.34        17.50529
533.78        17.40898
534.22        17.28287
534.66        17.19351
535.09         17.1371
535.53        17.04382
535.97        16.92848
536.41        16.87665
536.85        16.89445
537.28        16.94236
537.72        17.00443
538.16        17.07063
538.60        17.13136
539.04        17.18538
539.47        17.23697
539.91        17.30546
540.35        17.38944
540.79        17.49065
541.22        17.59787
541.66        17.66739
542.10        17.74149
542.54        17.78996
542.97        17.84267
543.41        17.93612
543.85        18.07187
544.29        18.23998
544.72        18.41362
545.16        18.55927
545.60        18.66737
546.04        18.74815
546.47        18.82489
546.91        18.93869
547.35        19.09866
547.79        19.28662
548.22        19.46747
548.66        19.63165
549.10        19.77451
549.53        19.81102
549.97        19.94674
550.41        20.10126
550.84        20.33223
551.28        20.62171
551.72        20.91924
552.15        21.12251
552.59        21.22364
553.03        21.28162
553.46        21.32836
553.90        21.42614
554.34        21.59103
554.77        21.76721
555.21        21.91472
555.65         22.2091
556.08        22.21826
556.52        22.30627
556.96        22.35933
557.39        22.41844
557.83        22.49823
558.27        22.55688
558.70        22.60265
559.14        22.76018
559.57        22.82582
560.01        22.99683
560.45        23.15931
560.88        23.21083
561.32        23.19327
561.75         23.1362
562.19        23.11379
562.63        23.33905
563.06        23.71663
563.50         23.7463
563.93        23.47781
564.37        23.45252
564.80        23.67915
565.24        23.86166
565.68        23.97567
566.11        24.12412
566.55        24.30692
566.98        24.48309
567.42        24.65717
567.85        24.81912
568.29        24.97945
568.72        25.12189
569.16         25.2641
569.60        25.39807
570.03        25.51215
570.47        25.57718
570.90         25.8068
571.34        25.76469
571.77        25.98242
572.21        26.14045
572.64        26.37402
573.08        26.37172
573.51        26.68212
573.95        26.84253
574.38        26.55686
574.82        26.91406
