SpectraSmart Spectrum 2.9.0.0
--------- Device Information -----------
Spectrum Name :  反射率_0
Saving Time :  2024/05/01 17:08:10
Spectro-Module Model Name : SE2030-DUVN
Spectro-Module Serial Number : OS361AC55029948
Wavelength Start : 200
Wavelength End : 1025
Wavelength Unit : Wavelength(nm)
Spectrum Unit : Reflectance(%)
-----------Spectrum Setting ------------
Integration Time : 20ms
Average : 10
Boxcar : 0
Background removal :  enabled
linearity correction :  enabled
SC :  disabled
Intensity correction :  disabled
DWT denoise :  enabled
savitzky-golay :  disabled
FFT :  disabled
Running average :  disabled
Kalman :  disabled
High pass :  disabled
---------------BEGIN--------------------
Wavelength(nm)             Reflectance(%)
200.29               0
200.75       -7.935408
201.21        133.6192
201.67       -83.54434
202.13       -19.40465
202.58        13.55083
203.04        38.22749
203.50        56.56587
203.96        69.59877
204.42        82.86771
204.88        114.1222
205.34        904.1159
205.80       -78.04202
206.26       -65.13255
206.72       -126.7094
207.18       -522.4985
207.64        663.1396
208.10        262.0325
208.55        169.5456
209.01        128.6128
209.47        111.8113
209.93        108.6782
210.39        112.7974
210.85        124.1334
211.31        148.9584
211.77        235.1967
212.23        -464.756
212.69       -39.38545
213.14       -7.059082
213.60       -15.25896
214.06        214.3295
214.52        66.98336
214.98        68.55295
215.44        91.12627
215.90        173.0729
216.36         1444.71
216.81       -503.9284
217.27       -596.6792
217.73         1147.95
218.19        223.8869
218.65        161.1168
219.11        194.8957
219.57        378.3855
220.02        1210.541
220.48        713.5303
220.94        270.4109
221.40        153.0793
221.86        114.1731
222.32        106.2915
222.77        114.7465
223.23        136.9242
223.69        167.7245
224.15        178.6746
224.61        161.2968
225.06        135.8385
225.52        119.5869
225.98        118.0242
226.44        129.5275
226.90        153.3282
227.36        185.5561
227.81        203.4831
228.27        196.7524
228.73        179.3866
229.19        164.9448
229.65        161.4794
230.10        168.0755
230.56        181.8522
231.02        199.3618
231.48        209.2386
231.93        205.6695
232.39        195.9838
232.85        184.1307
233.31        173.0773
233.77        163.9834
234.22        155.8564
234.68        150.6245
235.14          150.59
235.60        156.2968
236.05        169.3319
236.51        189.1647
236.97        208.4274
237.43        217.9367
237.88        215.1282
238.34        204.3464
238.80        197.1166
239.26        196.8843
239.71         203.494
240.17        213.0967
240.63        211.9436
241.08        190.5081
241.54        159.0701
242.00        134.4887
242.46        125.3108
242.91         131.257
243.37         153.565
243.83        193.2531
244.28        214.7191
244.74        190.8127
245.20        154.3984
245.66        126.8939
246.11        111.1082
246.57        101.6768
247.03        92.95364
247.48        80.92441
247.94        61.97298
248.40        40.54134
248.85        23.95242
249.31         19.7621
249.77        28.00134
250.22        41.72261
250.68        55.95649
251.14         67.6868
251.59        76.78008
252.05         86.1533
252.51        101.2697
252.96         136.782
253.42        210.5393
253.88        253.2192
254.33        220.7484
254.79        186.2792
255.25        166.0269
255.70         153.045
256.16        145.0065
256.62        138.9795
257.07        133.5402
257.53        130.0413
257.99        127.8218
258.44        126.9366
258.90        128.6484
259.35        131.7493
259.81        136.0402
260.27        140.0508
260.72        141.9141
261.18        141.9745
261.63        140.3518
262.09        138.4595
262.55        136.8294
263.00        135.3482
263.46        134.2339
263.91        132.8233
264.37        131.1905
264.83        129.2259
265.28        127.0803
265.74        125.2794
266.19        123.8709
266.65        123.0754
267.11        122.5894
267.56         122.328
268.02        122.3603
268.47        122.5179
268.93        122.7719
269.38        122.7613
269.84         121.905
270.30        120.1587
270.75        117.6936
271.21        115.1023
271.66        113.0789
272.12        111.8607
272.57        111.0842
273.03        110.4879
273.48         109.479
273.94         108.027
274.39        106.2696
274.85        104.3978
275.31        102.4115
275.76        100.3464
276.22        98.35075
276.67        96.47736
277.13        95.15422
277.58        94.21431
278.04        93.61338
278.49        92.99044
278.95        92.07774
279.40         90.7007
279.86        89.12975
280.31         87.3573
280.77        85.67153
281.22        84.00584
281.68        82.45095
282.13         80.9443
282.59        79.65903
283.04        78.50419
283.50        77.57083
283.95        76.69716
284.41         75.7935
284.86        74.79788
285.32        73.79983
285.77        72.89198
286.22        72.35143
286.68         72.1617
287.13        72.15891
287.59        72.08533
288.04        71.47315
288.50        70.31956
288.95        68.75637
289.41        67.14935
289.86        65.80795
290.32        64.88847
290.77        64.23477
291.22        63.75826
291.68        63.29554
292.13        62.76471
292.59        62.25128
293.04        61.76272
293.50        61.38614
293.95        61.09971
294.40        60.87025
294.86        60.63376
295.31        60.31152
295.77        59.89705
296.22        59.40714
296.68        58.91862
297.13        58.48534
297.58        58.15273
298.04        57.93702
298.49        57.77905
298.95        57.64632
299.40         57.5017
299.85        57.34864
300.31        57.28384
300.76        57.41145
301.21        57.73502
301.67        58.20652
302.12        58.59746
302.58         58.6116
303.03        58.18307
303.48        57.46729
303.94        56.76847
304.39        56.40809
304.84        56.48694
305.30         56.8722
305.75        57.36201
306.20        57.68514
306.66        57.77047
307.11        57.67082
307.57        57.48064
308.02        57.24483
308.47        57.01896
308.93         56.7855
309.38        56.52663
309.83        56.29629
310.29        56.11637
310.74        55.97791
311.19         55.8722
311.65        55.75817
312.10         55.6129
312.55         55.4468
313.00        55.29602
313.46        55.21778
313.91        55.20846
314.36        55.24293
314.82        55.24722
315.27        55.12305
315.72        54.84473
316.18        54.46235
316.63        54.03452
317.08        53.67424
317.53        53.40996
317.99         53.2147
318.44        53.04766
318.89        52.84549
319.35        52.59576
319.80        52.32899
320.25        52.07952
320.70        51.89644
321.16        51.78022
321.61        51.71489
322.06        51.67111
322.51        51.61382
322.97        51.51347
323.42        51.39414
323.87        51.23281
324.32        51.01056
324.78        50.72517
325.23        50.40389
325.68        50.07263
326.13        49.78399
326.59        49.54446
327.04        49.37046
327.49        49.23882
327.94        49.12014
328.39        49.00264
328.85        48.87486
329.30        48.77684
329.75        48.71028
330.20        48.67553
330.66         48.6509
331.11        48.63413
331.56        48.56715
332.01        48.44354
332.46        48.27996
332.92        48.10626
333.37        48.02614
333.82        48.04845
334.27        48.15839
334.72        48.31708
335.17        48.45478
335.63        48.52885
336.08        48.57236
336.53        48.60095
336.98        48.66758
337.43        48.78531
337.88        48.94364
338.34        49.06947
338.79        49.08242
339.24        48.95292
339.69        48.70532
340.14        48.46415
340.59        48.42401
341.05        48.61058
341.50        48.97582
341.95        49.34625
342.40         49.4399
342.85        49.20607
343.30        48.75423
343.75        48.27398
344.20        48.05736
344.66        48.17608
345.11        48.52101
345.56        48.98208
346.01        49.37067
346.46        49.60753
346.91        49.74663
347.36        49.78522
347.81        49.71881
348.26        49.57013
348.72        49.34843
349.17        49.09769
349.62        48.94522
350.07        48.91038
350.52        48.94872
350.97        49.01252
351.42        49.01001
351.87        48.91698
352.32        48.78947
352.77         48.5889
353.22        48.25658
353.67         47.8105
354.13        47.27628
354.58        46.80458
355.03        46.68344
355.48        46.94588
355.93        47.51273
356.38        48.10597
356.83        48.25562
357.28        47.86052
357.73        47.07479
358.18        46.21295
358.63        45.74329
359.08        45.76139
359.53        46.11321
359.98        46.56315
360.43        46.71825
360.88         46.4662
361.33        45.94935
361.78        45.33438
362.23         44.8524
362.68        44.56762
363.13        44.40045
363.58        44.27813
364.03        44.09913
364.48        43.82938
364.93        43.50328
365.38        43.16963
365.83        42.89103
366.28        42.67481
366.73        42.49592
367.18          42.282
367.63        41.92575
368.08         41.4255
368.53        40.84104
368.98        40.27869
369.43        39.88533
369.88        39.68629
370.33        39.62757
370.78        39.64563
371.23        39.62878
371.68        39.53265
372.13        39.39296
372.58        39.20589
373.03        38.96342
373.48        38.67301
373.93        38.32652
374.38        37.98159
374.83        37.74572
375.28        37.63847
375.72        37.62292
376.17         37.6263
376.62        37.51358
377.07         37.2565
377.52        36.90044
377.97        36.50571
378.42        36.16862
378.87        35.91936
379.32        35.72729
379.77        35.57143
380.22        35.41832
380.67        35.25586
381.11        35.10557
381.56        34.95853
382.01        34.80565
382.46        34.65087
382.91        34.49207
383.36        34.34986
383.81         34.2615
384.26          34.222
384.71        34.20538
385.15        34.16825
385.60        34.06913
386.05        33.88995
386.50        33.65974
386.95        33.38503
387.40        33.07909
387.85        32.76385
388.29        32.42049
388.74        32.14842
389.19        31.99749
389.64        31.96716
390.09        32.03095
390.54        32.10941
390.98        32.06713
391.43        31.89807
391.88        31.64852
392.33        31.39219
392.78        31.24842
393.23        31.23713
393.67        31.26072
394.12        31.31193
394.57        31.41432
395.02         31.5022
395.47        31.37841
395.91        31.10563
396.36        30.96367
396.81        30.98889
397.26        31.04181
397.71        31.06613
398.15        31.05318
398.60        31.02636
399.05        30.86968
399.50        30.66339
399.95        30.74329
400.39        31.02246
400.84        30.92354
401.29        30.47165
401.74         30.2089
402.18        30.17356
402.63        30.04542
403.08         29.8465
403.53        29.74545
403.97        29.74114
404.42         29.7921
404.87        29.83978
405.32        29.79284
405.76        29.63044
406.21        29.39591
406.66        29.15169
407.11        28.99677
407.55        28.96433
408.00        29.02623
408.45         29.1386
408.90        29.17928
409.34        29.13261
409.79        29.10201
410.24        29.09868
410.68        29.07355
411.13        29.03632
411.58        29.01163
412.03        28.99543
412.47        28.97053
412.92        28.92732
413.37        28.88062
413.81         28.8277
414.26        28.78498
414.71        28.74644
415.15        28.71804
415.60        28.68253
416.05        28.64066
416.49        28.59122
416.94        28.52809
417.39        28.46322
417.83        28.41339
418.28        28.38027
418.73        28.35966
419.17        28.32743
419.62        28.23977
420.07        28.10099
420.51        27.93137
420.96        27.78924
421.41        27.72856
421.85        27.75005
422.30        27.83971
422.74        27.96952
423.19        28.12905
423.64        28.29647
424.08        28.48678
424.53        28.62753
424.98        28.63774
425.42        28.50869
425.87        28.26168
426.31        27.99292
426.76        27.86402
427.21        27.90606
427.65        28.07278
428.10        28.28913
428.54        28.44489
428.99        28.52094
429.44        28.51948
429.88        28.43178
430.33        28.42098
430.77         28.4221
431.22        28.10971
431.66        27.62482
432.11        27.58659
432.56         27.9505
433.00        28.19125
433.45         28.1269
433.89        27.86045
434.34        27.27688
434.78        27.37381
435.23         28.2539
435.67         28.4154
436.12        27.95931
436.57        27.90458
437.01         28.2602
437.46        28.35189
437.90        28.15604
438.35        28.03517
438.79        27.99516
439.24        27.86869
439.68        27.70703
440.13        27.74125
440.57        27.93351
441.02        28.05875
441.46        28.08339
441.91         28.0737
442.35        28.02023
442.80        28.10054
443.24        28.22897
443.69        28.04385
444.13        27.62382
444.58        27.42746
445.02        27.46977
445.47         27.5285
445.91        27.59107
446.36        27.73576
446.80        27.94029
447.24        28.17943
447.69        28.38857
448.13        28.46421
448.58        28.39337
449.02        28.19753
449.47         27.9667
449.91        27.82648
450.36        27.81754
450.80        27.89973
451.25         28.0067
451.69         28.0127
452.13         27.8947
452.58        27.69834
453.02         27.4894
453.47        27.38517
453.91        27.40664
454.36        27.52163
454.80        27.65721
455.24        27.70177
455.69        27.63654
456.13        27.48472
456.58        27.33327
457.02        27.27473
457.46        27.33697
457.91        27.48842
458.35        27.65413
458.79        27.67764
459.24        27.54591
459.68        27.38329
460.13        27.31273
460.57         26.9753
461.01         27.1721
461.46        27.26556
461.90        27.43346
462.34        27.47281
462.79        27.50921
463.23        27.45125
463.68        27.36605
464.12         27.3006
464.56        27.27511
465.01        27.30573
465.45         27.3362
465.89           27.35
466.34        27.33795
466.78        27.26957
467.22        27.17682
467.67        27.18999
468.11        27.21063
468.55        27.29809
468.99          27.383
469.44        27.42183
469.88         27.4078
470.32        27.35114
470.77        27.28646
471.21        27.27052
471.65        27.31364
472.10        27.40135
472.54        27.49298
472.98        27.54005
473.42        27.53297
473.87        27.50035
474.31        27.45157
474.75        27.42915
475.20        27.44986
475.64        27.48045
476.08        27.50682
476.52        27.57838
476.97        27.70127
477.41        27.72951
477.85        27.60131
478.29        27.99607
478.74        27.70428
479.18        27.66318
479.62        27.55863
480.06        27.57358
480.50        27.72288
480.95        27.55128
481.39        27.98863
481.83        27.75175
482.27        27.90378
482.72        27.83957
483.16         27.8194
483.60         27.8666
484.04        27.96753
484.48        28.05512
484.93        28.25484
485.37        28.50686
485.81        28.70824
486.25        29.25531
486.69          28.908
487.14        28.10244
487.58        28.10549
488.02        28.96707
488.46        28.52284
488.90        28.27165
489.34        28.72619
489.79        28.47746
490.23        28.80267
490.67        29.00917
491.11        29.32473
491.55         29.3883
491.99        29.23493
492.43        29.23326
492.88        29.39727
493.32        29.51391
493.76        29.57087
494.20        29.67584
494.64        29.83566
495.08        29.99289
495.52        30.12284
495.96        30.28167
496.41        30.43151
496.85        30.35274
497.29        30.13393
497.73        30.22471
498.17        30.58878
498.61        30.71724
499.05          30.613
499.49        30.67268
499.93        30.89807
500.37        31.06103
500.82        31.14532
501.26        31.22761
501.70        31.30694
502.14        31.36752
502.58        31.40382
503.02        31.40926
503.46        31.39056
503.90        31.35639
504.34        31.34807
504.78        31.42718
505.22        31.60179
505.66        31.85171
506.10        32.11137
506.54        32.27131
506.98        32.30367
507.42        32.23985
507.86        32.13881
508.30        32.09454
508.74        32.13411
509.18        32.23123
509.62        32.35229
510.06        32.44175
510.50        32.48196
510.94        32.49165
511.38        32.49237
511.82        32.51582
512.26         32.5676
512.70        32.63101
513.14        32.68501
513.58        32.69979
514.02        32.67018
514.46        32.61198
514.90        32.54097
515.34         32.4813
515.78        32.44409
516.22        32.42334
516.66        32.42441
517.10        32.45451
517.54        32.50989
517.98        32.58678
518.42        32.66388
518.86        32.70481
519.30         32.7016
519.74        32.66428
520.18        32.61111
520.62        32.57415
521.06         32.5611
521.50        32.55817
521.93        32.56281
522.37        32.56412
522.81        32.55994
523.25        32.55877
523.69          32.543
524.13        32.48239
524.57        32.37981
525.01        32.24872
525.45        32.13275
525.89        32.10109
526.32        32.16359
526.76        32.29144
527.20         32.4389
527.64        32.53179
528.08        32.54634
528.52        32.50641
528.96        32.42455
529.40        32.32205
529.83        32.20955
530.27        32.08949
530.71        31.98347
531.15        31.93438
531.59        31.94808
532.03        32.01335
532.46        32.08861
532.90        32.11235
533.34        32.07019
533.78        31.95549
534.22        31.80626
534.66        31.73647
535.09        31.73028
535.53        31.65883
535.97        31.52672
536.41        31.45524
536.85         31.4511
537.28        31.45141
537.72        31.45822
538.16        31.50355
538.60        31.58298
539.04        31.67833
539.47        31.77869
539.91        31.88842
540.35        31.99365
540.79         32.1058
541.22        32.20554
541.66        32.21676
542.10        32.22064
542.54        32.16349
542.97        32.10645
543.41        32.12393
543.85        32.22528
544.29        32.39432
544.72        32.58471
545.16        32.73871
545.60        32.83583
546.04        32.89131
546.47        32.94199
546.91        33.05344
547.35        33.23822
547.79        33.46119
548.22        33.65857
548.66        33.80967
549.10        33.90491
549.53        33.80573
549.97        33.86035
550.41        33.93136
550.84        34.12413
551.28        34.41096
551.72        34.73067
552.15        34.94902
552.59        35.05466
553.03         35.1282
553.46        35.18678
553.90        35.27682
554.34        35.41191
554.77        35.52059
555.21        35.55699
555.65        35.83786
556.08        35.68305
556.52         35.6753
556.96        35.64445
557.39        35.67418
557.83         35.7843
558.27        35.89891
558.70        36.00287
559.14        36.24775
559.57        36.29683
560.01        36.47564
560.45        36.61963
560.88         36.5941
561.32        36.47657
561.75         36.3082
562.19        36.20733
562.63        36.50816
563.06         37.0572
563.50        37.06799
563.93        36.61782
564.37        36.54536
564.80        36.85825
565.24        37.09458
565.68        37.19979
566.11        37.30833
566.55         37.4227
566.98        37.49208
567.42        37.55884
567.85        37.65842
568.29        37.81535
568.72          37.987
569.16        38.18592
569.60        38.34231
570.03        38.42422
570.47        38.46955
570.90         38.8067
571.34        38.47909
571.77        38.78608
572.21        38.85298
572.64        39.08165
573.08        39.01725
573.51        39.44049
573.95        39.89962
574.38        39.43819
574.82        39.84899
