SpectraSmart Spectrum 2.9.0.0
--------- Device Information -----------
Spectrum Name :  反射率_0
Saving Time :  2024/05/01 16:43:21
Spectro-Module Model Name : SE2030-DUVN
Spectro-Module Serial Number : OS361AC55029948
Wavelength Start : 200
Wavelength End : 1025
Wavelength Unit : Wavelength(nm)
Spectrum Unit : Reflectance(%)
-----------Spectrum Setting ------------
Integration Time : 20ms
Average : 10
Boxcar : 0
Background removal :  enabled
linearity correction :  enabled
SC :  disabled
Intensity correction :  disabled
DWT denoise :  enabled
savitzky-golay :  disabled
FFT :  disabled
Running average :  disabled
Kalman :  disabled
High pass :  disabled
---------------BEGIN--------------------
Wavelength(nm)             Reflectance(%)
200.29               0
200.75        289.3743
201.21        1165.001
201.67       -480.3412
202.13       -177.8366
202.58        -83.9263
203.04        -31.1512
203.50       -1.015676
203.96        8.288256
204.42       -2.854365
204.88       -63.26038
205.34       -1723.395
205.80        293.4462
206.26         199.902
206.72        175.4403
207.18        223.4949
207.64       -42.26728
208.10        5.894479
208.55       -1.614588
209.01       -13.23508
209.47       -17.02126
209.93       -14.23411
210.39       -9.726062
210.85       -8.373847
211.31       -21.31541
211.77       -92.80065
212.23        509.3233
212.69        153.4131
213.14        148.5272
213.60        242.2702
214.06       -910.9302
214.52       -119.8709
214.98       -71.87222
215.44       -69.14906
215.90       -106.6006
216.36       -790.5092
216.81        259.6919
217.27        302.9729
217.73       -599.6984
218.19       -129.5171
218.65       -111.6237
219.11       -160.6531
219.57        -349.924
220.02       -1123.525
220.48       -559.2573
220.94       -149.8536
221.40       -46.97395
221.86       -11.39822
222.32        1.881196
222.77          6.7458
223.23        7.886631
223.69        6.434407
224.15        4.639077
224.61         4.45848
225.06        4.789388
225.52        5.895378
225.98        8.461504
226.44        12.77164
226.90         19.4235
227.36        27.88632
227.81        32.92377
228.27        31.79837
228.73        27.72665
229.19        23.58216
229.65        20.74433
230.10        18.91869
230.56        17.59335
231.02        16.95218
231.48        17.71836
231.93        19.73825
232.39        22.36476
232.85        24.91968
233.31        26.91571
233.77        28.36747
234.22        29.50614
234.68        30.20443
235.14        30.48405
235.60        30.39038
236.05        29.74811
236.51        28.86115
236.97         28.9058
237.43        30.55836
237.88        33.59699
238.34        36.11177
238.80        35.89022
239.26        31.95281
239.71        23.15256
240.17        8.125659
240.63        -8.36848
241.08       -16.74671
241.54       -14.58763
242.00       -7.204377
242.46      -0.6930516
242.91        5.036427
243.37         12.2509
243.83        25.63112
244.28        46.90752
244.74        60.99359
245.20        63.68206
245.66        61.09116
246.11        57.08255
246.57        51.59584
247.03         42.6286
247.48        24.85382
247.94       -5.664519
248.40       -40.72303
248.85       -71.30459
249.31       -81.06734
249.77       -63.53844
250.22       -33.48177
250.68       -2.951393
251.14         19.6256
251.59        29.92687
252.05         29.5252
252.51        16.42204
252.96       -21.91842
253.42       -75.29193
253.88       -61.49771
254.33       -4.732988
254.79        27.86584
255.25        39.01256
255.70        40.94085
256.16        40.30727
256.62        39.68377
257.07        40.50455
257.53        42.49762
257.99        44.56738
258.44        45.85907
258.90        46.01472
259.35        45.01033
259.81        43.49449
260.27        41.99682
260.72        41.26531
261.18        41.50044
261.63        42.08598
262.09        42.59593
262.55        42.31951
263.00        41.24142
263.46        39.79844
263.91        38.32851
264.37        37.45502
264.83        37.15908
265.28        37.19168
265.74        37.26583
266.19        36.80851
266.65        35.84939
267.11        34.53922
267.56        33.24445
268.02        32.60158
268.47        32.68721
268.93        33.25145
269.38        33.90532
269.84        33.96851
270.30        33.30235
270.75        32.13171
271.21        30.79103
271.66        29.66869
272.12        28.94099
272.57        28.42251
273.03        28.07327
273.48        27.79531
273.94        27.54873
274.39        27.35029
274.85        27.13968
275.31        26.76944
275.76        26.22621
276.22        25.59454
276.67        24.93585
277.13        24.42647
277.58         24.0463
278.04        23.76733
278.49        23.52145
278.95        23.30465
279.40        23.05435
279.86        22.81105
280.31        22.50013
280.77        22.08558
281.22        21.54708
281.68        20.96533
282.13        20.37323
282.59        19.88217
283.04        19.49546
283.50        19.21488
283.95        19.03121
284.41        18.96802
284.86        18.99714
285.32        19.10539
285.77        19.23757
286.22         19.3391
286.68        19.39741
287.13        19.40604
287.59         19.3686
288.04        19.25896
288.50        19.10948
288.95         18.9013
289.41        18.71447
289.86        18.60324
290.32        18.59312
290.77        18.66508
291.22         18.7582
291.68        18.77069
292.13        18.68944
292.59        18.57615
293.04         18.4936
293.50        18.58522
293.95        18.86128
294.40        19.27641
294.86        19.76438
295.31        20.23652
295.77        20.64597
296.22        21.00725
296.68        21.31001
297.13        21.53325
297.58        21.69356
298.04        21.81629
298.49        21.92782
298.95        22.10622
299.40        22.35545
299.85        22.65188
300.31        22.99377
300.76        23.38032
301.21        23.79171
301.67        24.22694
302.12        24.59583
302.58         24.7802
303.03          24.756
303.48        24.59476
303.94        24.42356
304.39        24.38188
304.84        24.51813
305.30        24.77045
305.75        25.08404
306.20        25.38664
306.66        25.63985
307.11        25.84199
307.57        25.95947
308.02         25.9018
308.47        25.67985
308.93        25.33224
309.38        24.92626
309.83        24.61514
310.29        24.44387
310.74        24.37385
311.19        24.35931
311.65        24.30956
312.10        24.19724
312.55        24.05654
313.00        23.91897
313.46        23.83124
313.91        23.79442
314.36        23.77433
314.82        23.74467
315.27        23.68299
315.72        23.57036
316.18        23.41793
316.63        23.20511
317.08        22.89771
317.53        22.49997
317.99        22.03533
318.44        21.55447
318.89        21.16037
319.35        20.88946
319.80        20.72257
320.25        20.62415
320.70        20.52376
321.16        20.39218
321.61        20.24855
322.06        20.10707
322.51        19.99683
322.97         19.9154
323.42        19.84778
323.87        19.76029
324.32        19.61211
324.78        19.39253
325.23        19.13169
325.68        18.85289
326.13        18.59616
326.59        18.37166
327.04        18.17743
327.49          18.012
327.94        17.87848
328.39        17.77117
328.85        17.68576
329.30        17.59948
329.75        17.45708
330.20        17.24622
330.66        16.97359
331.11        16.68488
331.56        16.44302
332.01        16.26937
332.46        16.15168
332.92        16.05241
333.37        15.92735
333.82          15.755
334.27        15.55276
334.72        15.35676
335.17        15.23011
335.63        15.18061
336.08        15.19326
336.53        15.22235
336.98        15.20403
337.43        15.11854
337.88        14.98781
338.34        14.82305
338.79        14.65207
339.24        14.48905
339.69        14.32778
340.14        14.19449
340.59        14.13082
341.05        14.13108
341.50        14.18441
341.95        14.24527
342.40        14.23706
342.85        14.14519
343.30        14.00653
343.75        13.84483
344.20         13.6969
344.66        13.58629
345.11         13.4905
345.56        13.45696
346.01        13.55866
346.46        13.78699
346.91        14.10091
347.36        14.38894
347.81        14.48452
348.26        14.35758
348.72        14.07187
349.17        13.69553
349.62        13.37855
350.07        13.16743
350.52        13.01654
350.97        12.91462
351.42        12.83625
351.87        12.77185
352.32        12.75732
352.77        12.73813
353.22        12.62322
353.67         12.4075
354.13        12.10979
354.58        11.85071
355.03        11.84402
355.48         12.1168
355.93         12.6074
356.38         13.1122
356.83        13.28791
357.28         13.0643
357.73        12.55959
358.18          12.011
358.63        11.77351
359.08        11.91783
359.53        12.32083
359.98         12.8087
360.43        13.08484
360.88        13.05819
361.33        12.84001
361.78        12.52077
362.23        12.22735
362.68        12.00976
363.13        11.81995
363.58        11.68372
364.03        11.65353
364.48        11.72183
364.93        11.87187
365.38        12.02101
365.83        12.03286
366.28        11.87715
366.73        11.59269
367.18        11.24187
367.63        10.93541
368.08        10.72111
368.53        10.58087
368.98        10.49921
369.43        10.44826
369.88        10.41217
370.33        10.39214
370.78        10.39868
371.23        10.44466
371.68        10.51923
372.13        10.60593
372.58        10.64301
373.03        10.54311
373.48        10.29945
373.93        9.946602
374.38         9.57716
374.83        9.346835
375.28        9.300028
375.72        9.393051
376.17         9.55175
376.62        9.660946
377.07        9.682997
377.52        9.647911
377.97        9.580218
378.42        9.518155
378.87        9.475487
379.32        9.438188
379.77        9.394464
380.22        9.331473
380.67         9.24932
381.11         9.15923
381.56        9.085185
382.01        9.065187
382.46         9.10594
382.91        9.194668
383.36        9.287906
383.81        9.322845
384.26        9.279857
384.71        9.163324
385.15        9.016587
385.60        8.923188
386.05        8.896112
386.50        8.925236
386.95        8.934756
387.40        8.807742
387.85        8.542959
388.29        8.184384
388.74        7.881942
389.19        7.807875
389.64        7.980654
390.09        8.325572
390.54        8.706491
390.98        8.904995
391.43        8.865659
391.88        8.672937
392.33        8.417323
392.78        8.230778
393.23        8.149553
393.67        8.113995
394.12        8.121737
394.57        8.176009
395.02        8.254327
395.47         8.31457
395.91        8.348139
396.36        8.373184
396.81        8.392862
397.26        8.378447
397.71        8.349293
398.15        8.360968
398.60        8.425673
399.05        8.482669
399.50        8.519789
399.95        8.584455
400.39        8.643597
400.84        8.557574
401.29        8.345799
401.74        8.178612
402.18          8.0796
402.63        7.960683
403.08        7.852988
403.53        7.839353
403.97        7.920228
404.42        8.069139
404.87        8.222316
405.32        8.274994
405.76        8.203575
406.21        8.046382
406.66        7.863986
407.11        7.756932
407.55        7.754767
408.00        7.826378
408.45        7.934373
408.90        8.000983
409.34        8.004655
409.79        7.985025
410.24        7.953878
410.68        7.905442
411.13         7.84819
411.58        7.788261
412.03        7.726365
412.47        7.665009
412.92        7.608639
413.37        7.557687
413.81        7.523676
414.26        7.528422
414.71        7.568697
415.15        7.645595
415.60        7.715565
416.05        7.717357
416.49         7.63976
416.94        7.502399
417.39        7.367424
417.83        7.335454
418.28        7.425866
418.73        7.602546
419.17        7.798999
419.62        7.900048
420.07        7.881694
420.51        7.780226
420.96        7.650385
421.41          7.5599
421.85        7.527514
422.30        7.532057
422.74        7.560889
423.19        7.602385
423.64        7.646259
424.08        7.702569
424.53        7.742881
424.98        7.731824
425.42         7.66523
425.87        7.561016
426.31        7.444362
426.76        7.369173
427.21        7.344458
427.65        7.353272
428.10        7.399125
428.54        7.485709
428.99        7.598575
429.44        7.744055
429.88        7.863026
430.33        7.867524
430.77        7.754079
431.22        7.562652
431.66        7.364133
432.11        7.289463
432.56        7.337859
433.00        7.454766
433.45        7.557436
433.89        7.479885
434.34        7.223111
434.78        7.269248
435.23        7.635198
435.67        7.770274
436.12        7.665302
436.57        7.611632
437.01        7.627651
437.46          7.5981
437.90        7.527653
438.35        7.461955
438.79         7.40992
439.24        7.365367
439.68        7.345576
440.13        7.404401
440.57        7.507486
441.02        7.561732
441.46         7.55495
441.91         7.47765
442.35        7.379471
442.80        7.461705
443.24        7.671953
443.69        7.701462
444.13        7.551884
444.58        7.497027
445.02        7.537774
445.47        7.519312
445.91        7.461988
446.36        7.474247
446.80        7.561141
447.24        7.688512
447.69        7.814504
448.13         7.87754
448.58        7.862266
449.02        7.788249
449.47        7.693343
449.91        7.630157
450.36        7.616858
450.80        7.636922
451.25        7.665774
451.69        7.659298
452.13        7.608959
452.58        7.532672
453.02         7.45569
453.47        7.422574
453.91        7.441613
454.36        7.499815
454.80         7.56654
455.24        7.589602
455.69        7.559118
456.13        7.485028
456.58        7.409611
457.02        7.385182
457.46        7.423673
457.91        7.506684
458.35        7.586628
458.79        7.577032
459.24        7.471811
459.68        7.319841
460.13        7.192483
460.57        7.042392
461.01        7.095245
461.46        7.168797
461.90        7.284338
462.34        7.338856
462.79        7.351232
463.23        7.303976
463.68        7.247077
464.12        7.241598
464.56        7.300548
465.01        7.409306
465.45        7.502919
465.89        7.498662
466.34        7.392196
466.78        7.207603
467.22        7.019422
467.67        6.968228
468.11        7.054048
468.55        7.260856
468.99        7.499119
469.44        7.644315
469.88        7.664775
470.32        7.591707
470.77        7.475182
471.21        7.392563
471.65        7.371863
472.10        7.389863
472.54         7.41765
472.98        7.418121
473.42         7.38414
473.87        7.338539
474.31        7.298799
474.75        7.296381
475.20        7.337867
475.64        7.402428
476.08        7.471208
476.52        7.535764
476.97        7.591245
477.41        7.607921
477.85         7.57267
478.29        7.679285
478.74        7.602084
479.18        7.591483
479.62        7.567952
480.06        7.610465
480.50        7.722356
480.95        7.732449
481.39        7.879241
481.83        7.901613
482.27        7.875321
482.72        7.818639
483.16        7.746772
483.60        7.710812
484.04        7.707741
484.48        7.706951
484.93        7.782031
485.37        7.975629
485.81        8.104017
486.25        8.641285
486.69        7.776533
487.14        7.679207
487.58        8.319963
488.02        8.533193
488.46        8.218236
488.90        8.377262
489.34        8.209257
489.79        8.228847
490.23        8.505952
490.67        8.700144
491.11        8.853683
491.55        8.880053
491.99         8.81586
492.43        8.813826
492.88        8.885699
493.32        8.914053
493.76        8.908132
494.20        8.956213
494.64        9.066749
495.08        9.203959
495.52        9.344657
495.96        9.485753
496.41        9.606086
496.85        9.631713
497.29        9.599183
497.73        9.684834
498.17        9.875742
498.61        9.965897
499.05        9.949835
499.49        9.987178
499.93        10.08053
500.37        10.13376
500.82        10.16338
501.26        10.23393
501.70        10.35045
502.14        10.49509
502.58        10.62661
503.02        10.68059
503.46         10.6495
503.90        10.55834
504.34        10.46792
504.78        10.47598
505.22        10.60442
505.66        10.82017
506.10        11.06422
506.54        11.23823
506.98        11.31039
507.42        11.30881
507.86        11.26513
508.30        11.22912
508.74        11.22106
509.18        11.22935
509.62        11.24912
510.06        11.27412
510.50        11.30253
510.94        11.33926
511.38        11.39319
511.82        11.47438
512.26        11.57765
512.70        11.69059
513.14         11.7862
513.58        11.82544
514.02        11.80129
514.46        11.72892
514.90        11.63029
515.34         11.5426
515.78        11.48132
516.22         11.4386
516.66        11.41882
517.10        11.42565
517.54        11.45603
517.98        11.51182
518.42        11.57134
518.86        11.59681
519.30        11.58044
519.74        11.52963
520.18        11.47252
520.62        11.45665
521.06        11.49024
521.50         11.5558
521.93        11.62466
522.37        11.64637
522.81        11.61079
523.25        11.53786
523.69        11.44809
524.13        11.37179
524.57        11.32183
525.01        11.29035
525.45        11.27814
525.89         11.2875
526.32        11.31324
526.76        11.34839
527.20        11.38283
527.64        11.39817
528.08        11.38809
528.52        11.35942
528.96         11.3059
529.40        11.21956
529.83        11.10484
530.27        10.97063
530.71        10.84851
531.15        10.79084
531.59        10.80478
532.03        10.87169
532.46        10.95022
532.90        10.97241
533.34        10.92341
533.78        10.81883
534.22        10.68766
534.66        10.59185
535.09        10.53633
535.53        10.47281
535.97        10.40996
536.41        10.40057
536.85        10.44457
537.28        10.51523
537.72        10.59342
538.16        10.65912
538.60        10.70224
539.04        10.72594
539.47        10.73456
539.91        10.74447
540.35        10.75915
540.79        10.78081
541.22        10.81359
541.66        10.84642
542.10        10.90888
542.54        10.97891
542.97         11.0612
543.41        11.15709
543.85        11.26085
544.29        11.37029
544.72        11.48033
545.16        11.58776
545.60        11.69061
546.04        11.78898
546.47        11.88205
546.91        11.97283
547.35        12.06194
547.79        12.14584
548.22        12.22199
548.66        12.31232
549.10        12.42012
549.53        12.48413
549.97        12.61523
550.41        12.73052
550.84        12.85947
551.28        13.00139
551.72        13.14749
552.15        13.26997
552.59         13.3712
553.03        13.47562
553.46        13.57949
553.90        13.68648
554.34        13.79914
554.77        13.89404
555.21        13.96493
555.65        14.15417
556.08        14.19314
556.52        14.30071
556.96        14.38989
557.39        14.46677
557.83        14.53482
558.27        14.57476
558.70         14.5966
559.14        14.68744
559.57        14.71957
560.01        14.81936
560.45        14.91559
560.88        14.94662
561.32        14.94005
561.75        14.91392
562.19        14.91257
562.63        15.06929
563.06        15.32049
563.50        15.34355
563.93         15.1691
564.37        15.14656
564.80        15.28232
565.24        15.38772
565.68        15.44991
566.11        15.53969
566.55        15.65887
566.98        15.78088
567.42        15.91012
567.85        16.04538
568.29        16.18922
568.72        16.32461
569.16         16.4587
569.60        16.57505
570.03        16.66854
570.47        16.73779
570.90        16.91182
571.34        16.87927
571.77        17.04973
572.21        17.09532
572.64        17.16117
573.08         17.2921
573.51        17.82035
573.95        17.86813
574.38        17.71916
574.82        17.91282
