SpectraSmart Spectrum 2.9.0.0
--------- Device Information -----------
Spectrum Name :  反射率_0
Saving Time :  2024/05/01 16:59:15
Spectro-Module Model Name : SE2030-DUVN
Spectro-Module Serial Number : OS361AC55029948
Wavelength Start : 200
Wavelength End : 1025
Wavelength Unit : Wavelength(nm)
Spectrum Unit : Reflectance(%)
-----------Spectrum Setting ------------
Integration Time : 20ms
Average : 10
Boxcar : 0
Background removal :  enabled
linearity correction :  enabled
SC :  disabled
Intensity correction :  disabled
DWT denoise :  enabled
savitzky-golay :  disabled
FFT :  disabled
Running average :  disabled
Kalman :  disabled
High pass :  disabled
---------------BEGIN--------------------
Wavelength(nm)             Reflectance(%)
200.29               0
200.75        296.7168
201.21        1014.671
201.67       -345.8661
202.13       -107.4488
202.58       -40.17513
203.04       -4.176028
203.50        16.15878
203.96        23.33421
204.42        18.82482
204.88       -12.09936
205.34       -881.0067
205.80        172.7195
206.26        121.0289
206.72        103.2606
207.18        99.72222
207.64         53.4314
208.10        49.94792
208.55        41.08002
209.01        30.76359
209.47        20.61147
209.93        10.27356
210.39        -2.11257
210.85       -18.50396
211.31       -47.28436
211.77       -140.8705
212.23         582.377
212.69        143.3733
213.14        119.4936
213.60        169.9184
214.06       -531.7581
214.52       -54.07109
214.98       -25.68944
215.44       -24.61383
215.90       -49.57502
216.36       -511.8683
216.81        208.3556
217.27        268.5539
217.73       -548.2667
218.19       -113.7115
218.65       -89.22659
219.11        -116.772
219.57       -233.6179
220.02       -709.2775
220.48       -346.8698
220.94       -94.75884
221.40       -32.31882
221.86       -10.78702
222.32       -2.241564
222.77         1.77687
223.23        3.980474
223.69        5.417439
224.15        6.629094
224.61        7.559259
225.06        7.981734
225.52        8.319303
225.98        8.995752
226.44        10.13128
226.90        11.66679
227.36        13.83907
227.81         16.0462
228.27        17.25893
228.73        17.75286
229.19        17.42919
229.65        16.02942
230.10        13.61174
230.56         10.2858
231.02        7.036969
231.48        6.907791
231.93        10.57993
232.39        15.93936
232.85         21.2199
233.31        25.10909
233.77        27.61513
234.22        29.38734
234.68        30.41807
235.14        30.81727
235.60        30.71802
236.05        29.88692
236.51        28.80579
236.97        29.28132
237.43        32.38102
237.88        37.73728
238.34        42.80001
238.80        44.88647
239.26        43.23543
239.71        37.15192
240.17        25.51226
240.63        12.50238
241.08        6.080492
241.54        8.088066
242.00        14.52297
242.46        20.92066
242.91         27.8603
243.37        37.81696
243.83        55.42729
244.28        77.95164
244.74        88.16519
245.20        86.41759
245.66        80.76777
246.11        74.97452
246.57        68.30833
247.03        57.91634
247.48        38.79461
247.94         8.60996
248.40       -23.07004
248.85       -47.53489
249.31       -52.76623
249.77       -36.45159
250.22        -11.1072
250.68        13.94751
251.14        32.97969
251.59        43.96897
252.05        49.26553
252.51        50.34743
252.96         44.3731
253.42        30.87374
253.88        24.64645
254.33         29.9794
254.79        35.20761
255.25        37.39014
255.70        38.11266
256.16         38.9763
256.62        40.51977
257.07        42.90222
257.53        45.79417
257.99         48.4948
258.44        50.38238
258.90        51.34246
259.35        51.30687
259.81        50.81069
260.27        50.12733
260.72        49.67683
261.18        49.70418
261.63        49.75446
262.09        49.71373
262.55        49.13586
263.00        47.99469
263.46        46.64354
263.91        45.23446
264.37        44.20739
264.83        43.54342
265.28        43.10012
265.74        42.74949
266.19        42.09701
266.65        41.20074
267.11        40.12138
267.56        39.11955
268.02        38.68462
268.47        38.83645
268.93        39.35752
269.38        39.89309
269.84        39.82274
270.30        39.03026
270.75        37.72832
271.21        36.22181
271.66        34.85159
272.12        33.80235
272.57        32.91528
273.03         32.2461
273.48         31.8255
273.94        31.63269
274.39        31.63002
274.85        31.63867
275.31        31.33444
275.76         30.6741
276.22        29.80561
276.67        28.89561
277.13        28.28119
277.58        27.95786
278.04         27.8477
278.49        27.77584
278.95        27.58976
279.40         27.2038
279.86        26.73129
280.31        26.19955
280.77        25.72332
281.22        25.29206
281.68        24.92742
282.13        24.57312
282.59         24.2317
283.04        23.88129
283.50        23.57487
283.95        23.33832
284.41        23.25706
284.86        23.31346
285.32        23.46309
285.77        23.64745
286.22        23.82348
286.68         23.9706
287.13        24.08438
287.59        24.11844
288.04        23.95901
288.50        23.64225
288.95        23.19123
289.41        22.78195
289.86        22.59151
290.32        22.67072
290.77        22.95227
291.22        23.31487
291.68        23.56133
292.13         23.6443
292.59          23.651
293.04        23.66283
293.50        23.85728
293.95        24.25336
294.40        24.79238
294.86        25.39553
295.31        25.95711
295.77        26.43309
296.22        26.85008
296.68        27.22492
297.13        27.56813
297.58        27.90491
298.04        28.24892
298.49        28.60218
298.95        29.00766
299.40         29.4514
299.85        29.91566
300.31         30.4131
300.76        30.95771
301.21        31.54276
301.67        32.17036
302.12         32.7337
302.58        33.09343
303.03         33.2173
303.48        33.18208
303.94        33.16093
304.39        33.34566
304.84         33.7935
305.30        34.41986
305.75        35.09441
306.20        35.63414
306.66         35.9805
307.11        36.16083
307.57        36.22353
308.02         36.1854
308.47        36.08758
308.93        35.93739
309.38        35.73778
309.83        35.55077
310.29        35.40355
310.74        35.28732
311.19        35.21388
311.65        35.17767
312.10        35.16431
312.55        35.17532
313.00        35.19274
313.46        35.18741
313.91        35.14265
314.36         35.0566
314.82        34.93335
315.27        34.80025
315.72        34.65755
316.18        34.50389
316.63        34.31935
317.08        34.08094
317.53        33.78898
317.99        33.46478
318.44        33.12751
318.89         32.8217
319.35         32.5667
319.80        32.35095
320.25        32.17866
320.70        32.04945
321.16        31.94822
321.61        31.88021
322.06        31.80887
322.51        31.67886
322.97        31.47278
323.42        31.21552
323.87        30.93933
324.32        30.71398
324.78         30.5545
325.23        30.45041
325.68        30.37038
326.13        30.27016
326.59        30.12354
327.04        29.95483
327.49        29.75601
327.94        29.52501
328.39        29.26497
328.85        28.96643
329.30        28.65907
329.75        28.36293
330.20        28.09078
330.66        27.83845
331.11        27.61711
331.56        27.40636
332.01        27.20423
332.46        27.01925
332.92        26.84642
333.37        26.70828
333.82        26.59688
334.27        26.50748
334.72         26.4403
335.17        26.39975
335.63        26.37226
336.08        26.36449
336.53         26.3579
336.98        26.33848
337.43        26.29951
337.88        26.24542
338.34        26.16047
338.79        26.03726
339.24        25.87627
339.69        25.68925
340.14        25.51896
340.59        25.43105
341.05        25.42885
341.50        25.49289
341.95        25.57939
342.40        25.61642
342.85        25.58301
343.30        25.50952
343.75        25.40069
344.20        25.26373
344.66         25.1143
345.11        24.93929
345.56        24.79924
346.01        24.79037
346.46         24.9192
346.91        25.14871
347.36        25.37331
347.81        25.43137
348.26        25.29325
348.72        25.02118
349.17        24.68572
349.62        24.44049
350.07         24.3273
350.52        24.29636
350.97        24.30853
351.42        24.29612
351.87        24.24014
352.32        24.18293
352.77        24.10679
353.22        23.98148
353.67        23.80922
354.13        23.58784
354.58        23.38921
355.03        23.36184
355.48        23.52133
355.93        23.83598
356.38        24.13632
356.83        24.13718
357.28        23.79316
357.73        23.20696
358.18        22.61694
358.63        22.37651
359.08        22.54771
359.53        23.00946
359.98        23.55575
360.43        23.83496
360.88        23.74426
361.33        23.40647
361.78        22.95673
362.23        22.59067
362.68        22.37212
363.13        22.23548
363.58        22.16051
364.03        22.12589
364.48        22.10589
364.93         22.1033
365.38        22.09209
365.83        22.02034
366.28        21.87599
366.73        21.67893
367.18        21.41932
367.63        21.09138
368.08        20.72353
368.53        20.33586
368.98        20.01555
369.43        19.88844
369.88        19.96316
370.33        20.18969
370.78        20.46373
371.23        20.59517
371.68        20.51924
372.13        20.29393
372.58        19.96696
373.03        19.61324
373.48         19.2732
373.93        18.93126
374.38        18.64253
374.83        18.50156
375.28        18.52009
375.72        18.66694
376.17        18.85987
376.62         18.9613
377.07        18.93151
377.52         18.8026
377.97         18.6075
378.42        18.40556
378.87        18.22346
379.32        18.04813
379.77        17.88733
380.22        17.75333
380.67        17.64868
381.11        17.58096
381.56        17.54372
382.01        17.52402
382.46        17.51724
382.91        17.52417
383.36        17.53429
383.81        17.53702
384.26        17.52329
384.71        17.47968
385.15        17.41578
385.60        17.36769
386.05        17.33389
386.50        17.31715
386.95         17.2686
387.40        17.11309
387.85        16.85624
388.29        16.52155
388.74        16.23819
389.19        16.13225
389.64        16.21679
390.09          16.435
390.54        16.68185
390.98        16.78605
391.43        16.71095
391.88        16.52086
392.33        16.28329
392.78         16.1009
393.23        16.00123
393.67        15.92131
394.12        15.87171
394.57        15.88398
395.02        15.92537
395.47        15.89436
395.91        15.79971
396.36        15.73533
396.81        15.71327
397.26        15.67674
397.71          15.621
398.15        15.57942
398.60        15.57099
399.05        15.51908
399.50        15.45067
399.95        15.51823
400.39        15.67165
400.84        15.62647
401.29        15.38869
401.74        15.22069
402.18        15.14262
402.63        15.00083
403.08        14.82791
403.53        14.74196
403.97        14.74884
404.42        14.81455
404.87        14.89174
405.32        14.90358
405.76        14.82805
406.21        14.69659
406.66        14.54411
407.11        14.42727
407.55         14.3679
408.00        14.35067
408.45        14.35902
408.90        14.34399
409.34        14.30247
409.79        14.28054
410.24        14.28359
410.68        14.28378
411.13        14.28249
411.58        14.29315
412.03         14.3012
412.47        14.27674
412.92        14.21393
413.37        14.12538
413.81        14.03364
414.26        13.98398
414.71        13.97957
415.15        14.01538
415.60        14.05592
416.05        14.05788
416.49        14.00922
416.94        13.92239
417.39        13.83031
417.83        13.78517
418.28        13.79771
418.73        13.84848
419.17        13.90346
419.62        13.90123
420.07        13.83541
420.51        13.72936
420.96        13.62434
421.41        13.56118
421.85        13.54614
422.30        13.56511
422.74        13.61076
423.19        13.68649
423.64        13.78071
424.08        13.90014
424.53        13.98838
424.98        13.97112
425.42        13.84003
425.87        13.62672
426.31         13.4002
426.76        13.28048
427.21         13.2883
427.65        13.38277
428.10        13.53185
428.54        13.67515
428.99        13.78549
429.44        13.90237
429.88        13.96452
430.33        13.88373
430.77        13.66415
431.22        13.35252
431.66        13.05558
432.11        12.96483
432.56        13.06782
433.00        13.27917
433.45        13.45151
433.89        13.28997
434.34         12.8048
434.78        12.84898
435.23        13.46052
435.67         13.6871
436.12        13.51758
436.57        13.45956
437.01        13.53454
437.46        13.51658
437.90        13.40682
438.35        13.29349
438.79        13.19751
439.24        13.11533
439.68        13.07906
440.13         13.1774
440.57         13.3539
441.02        13.45671
441.46        13.46216
441.91        13.35265
442.35        13.19224
442.80        13.30251
443.24        13.58683
443.69        13.50807
444.13        13.12162
444.58        12.97299
445.02        13.07391
445.47        13.13487
445.91        13.14398
446.36        13.21741
446.80        13.34485
447.24        13.48977
447.69          13.616
448.13        13.66989
448.58        13.64161
449.02         13.5464
449.47        13.42757
449.91        13.34333
450.36        13.31516
450.80        13.32569
451.25        13.34823
451.69        13.32969
452.13        13.26054
452.58        13.16229
453.02        13.06137
453.47        13.00676
453.91        13.00761
454.36        13.05172
454.80        13.10819
455.24        13.12605
455.69         13.0968
456.13        13.02737
456.58        12.96222
457.02        12.95022
457.46        13.00281
457.91        13.10069
458.35        13.19384
458.79        13.18462
459.24        13.06724
459.68        12.90983
460.13        12.79215
460.57        12.57104
461.01        12.63252
461.46        12.67387
461.90        12.77106
462.34        12.81151
462.79         12.8469
463.23        12.83234
463.68        12.81286
464.12        12.82893
464.56        12.88737
465.01        12.98634
465.45        13.06288
465.89        13.04835
466.34        12.94185
466.78        12.76382
467.22        12.57915
467.67        12.52263
468.11        12.57017
468.55        12.72994
468.99        12.92641
469.44        13.06645
469.88        13.12463
470.32        13.12381
470.77        13.08601
471.21        13.04409
471.65        13.01375
472.10          12.985
472.54        12.95815
472.98        12.94463
473.42        12.94668
473.87        12.97194
474.31        13.00484
474.75        13.03189
475.20        13.05284
475.64        13.06186
476.08        13.06531
476.52        13.10734
476.97        13.19618
477.41        13.25631
477.85        13.24903
478.29        13.48904
478.74        13.39205
479.18        13.40971
479.62        13.38998
480.06        13.44832
480.50        13.59511
480.95        13.54657
481.39        13.74772
481.83        13.78597
482.27        13.80286
482.72        13.81646
483.16        13.83017
483.60        13.87537
484.04        13.94723
484.48        13.96599
484.93        14.03278
485.37        14.29789
485.81         14.6134
486.25        14.97101
486.69        14.32802
487.14          13.986
487.58        14.51602
488.02        14.76594
488.46        14.64439
488.90        14.88163
489.34         14.7826
489.79         14.6622
490.23        14.96305
490.67        15.22982
491.11        15.55824
491.55        15.62142
491.99        15.47159
492.43        15.49048
492.88        15.69755
493.32        15.84212
493.76        15.91641
494.20        16.05129
494.64        16.25267
495.08        16.46531
495.52        16.66302
495.96        16.85999
496.41        17.02938
496.85        17.05383
497.29        16.99448
497.73          17.123
498.17        17.42756
498.61        17.61698
499.05        17.67226
499.49        17.79268
499.93        17.97517
500.37        18.09581
500.82        18.16196
501.26        18.24166
501.70        18.34241
502.14        18.44855
502.58        18.54133
503.02        18.59235
503.46        18.60201
503.90        18.58574
504.34        18.58641
504.78        18.66945
505.22        18.84561
505.66        19.09077
506.10        19.34968
506.54        19.53078
506.98        19.60757
507.42        19.60626
507.86        19.56518
508.30        19.54609
508.74        19.57052
509.18        19.62219
509.62        19.69019
510.06        19.75698
510.50         19.8146
510.94        19.86952
511.38         19.9244
511.82        19.98039
512.26        20.03432
512.70        20.07988
513.14        20.10633
513.58        20.09948
514.02        20.06048
514.46        20.00078
514.90         19.9345
515.34        19.88358
515.78         19.8576
516.22        19.85116
516.66           19.87
517.10        19.92126
517.54         19.9997
517.98        20.09932
518.42        20.19262
518.86        20.23492
519.30        20.21581
519.74        20.14667
520.18        20.05421
520.62        19.98287
521.06        19.94558
521.50        19.93114
521.93        19.92739
522.37        19.90823
522.81        19.86969
523.25        19.82326
523.69        19.77554
524.13         19.7346
524.57        19.70298
525.01        19.67426
525.45        19.64927
525.89        19.63128
526.32        19.61793
526.76         19.6059
527.20        19.58458
527.64        19.53684
528.08        19.46162
528.52        19.36825
528.96        19.26956
529.40        19.18489
529.83        19.11818
530.27        19.06873
530.71        19.03346
531.15        19.01223
531.59        19.00015
532.03        18.99275
532.46        18.97723
532.90        18.93719
533.34        18.87214
533.78        18.77674
534.22         18.6613
534.66        18.57312
535.09        18.50213
535.53        18.38244
535.97        18.24304
536.41        18.19406
536.85        18.24435
537.28          18.342
537.72        18.45266
538.16        18.54045
538.60        18.58888
539.04        18.60411
539.47        18.60615
539.91        18.63961
540.35        18.70889
540.79        18.80935
541.22        18.91854
541.66        18.97242
542.10        19.01463
542.54        19.02355
542.97        19.04182
543.41        19.12279
543.85        19.27289
544.29        19.47523
544.72        19.69953
545.16        19.90899
545.60        20.08813
546.04        20.24373
546.47        20.38865
546.91        20.54767
547.35        20.72533
547.79        20.90712
548.22        21.06356
548.66        21.19818
549.10        21.31232
549.53        21.31404
549.97         21.4277
550.41        21.57106
550.84        21.80736
551.28         22.1172
551.72        22.44445
552.15         22.6747
552.59        22.79585
553.03        22.86943
553.46        22.92567
553.90        23.02628
554.34         23.1881
554.77        23.35377
555.21        23.48376
555.65        23.77183
556.08        23.75916
556.52        23.83599
556.96        23.88431
557.39         23.9528
557.83         24.0567
558.27        24.14855
558.70        24.23059
559.14        24.42564
559.57        24.51097
560.01        24.69967
560.45        24.87146
560.88        24.92006
561.32        24.89304
561.75        24.82271
562.19        24.78928
562.63        25.02214
563.06        25.41883
563.50        25.44113
563.93        25.14667
564.37        25.12105
564.80        25.37216
565.24        25.58045
565.68         25.7058
566.11        25.83682
566.55        25.97264
566.98        26.07995
567.42         26.1849
567.85        26.30707
568.29        26.46216
568.72        26.63065
569.16        26.83046
569.60        26.99311
570.03        27.09052
570.47        27.23785
570.90        27.56856
571.34        27.34774
571.77        27.71022
572.21        27.83666
572.64        28.06273
573.08        28.06014
573.51        28.40695
573.95        28.69699
574.38        28.27445
574.82        28.72496
