SpectraSmart Spectrum 2.9.0.0
--------- Device Information -----------
Spectrum Name :  反射率_0
Saving Time :  2024/05/01 17:20:38
Spectro-Module Model Name : SE2030-DUVN
Spectro-Module Serial Number : OS361AC55029948
Wavelength Start : 200
Wavelength End : 1025
Wavelength Unit : Wavelength(nm)
Spectrum Unit : Reflectance(%)
-----------Spectrum Setting ------------
Integration Time : 20ms
Average : 10
Boxcar : 0
Background removal :  enabled
linearity correction :  enabled
SC :  disabled
Intensity correction :  disabled
DWT denoise :  enabled
savitzky-golay :  disabled
FFT :  disabled
Running average :  disabled
Kalman :  disabled
High pass :  disabled
---------------BEGIN--------------------
Wavelength(nm)             Reflectance(%)
200.29               0
200.75        284.8265
201.21        1047.841
201.67        -392.832
202.13       -134.8163
202.58       -58.81744
203.04       -16.80989
203.50         6.57729
203.96        12.07159
204.42       -1.190921
204.88       -63.76844
205.34       -1750.978
205.80        296.3557
206.26        198.9198
206.72        166.7614
207.18        169.8678
207.64        48.38682
208.10        52.71746
208.55         36.6438
209.01        21.75282
209.47        15.97516
209.93        17.06119
210.39        19.73791
210.85        20.22245
211.31        9.840704
211.77       -46.18111
212.23        417.6401
212.69        145.9509
213.14        150.9662
213.60        256.3751
214.06       -995.5521
214.52       -133.5294
214.98       -78.50102
215.44       -69.46004
215.90       -90.07298
216.36       -522.0905
216.81         137.811
217.27        148.1965
217.73       -321.3056
218.19       -82.35912
218.65        -78.2998
219.11       -114.0708
219.57       -241.6362
220.02       -751.4976
220.48       -368.0195
220.94       -98.20694
221.40       -30.66885
221.86       -6.273708
222.32         5.42453
222.77        13.88601
223.23         22.9444
223.69        32.68605
224.15        36.55729
224.61        32.55777
225.06        25.81627
225.52        21.28136
225.98        20.86356
226.44        24.18753
226.90        31.08344
227.36        40.85167
227.81         47.4536
228.27        47.31879
228.73        43.80059
229.19        40.38122
229.65        39.17365
230.10        40.06959
230.56        42.54386
231.02        45.88579
231.48        47.95145
231.93        47.63211
232.39        46.22604
232.85        44.82517
233.31        44.41634
233.77          44.978
234.22        46.01949
234.68        47.19016
235.14        48.26707
235.60        49.24623
236.05        50.36338
236.51        51.64793
236.97        52.92451
237.43        53.65537
237.88        53.52515
238.34        52.08212
238.80        49.26398
239.26        44.53503
239.71        36.87649
240.17        24.91653
240.63        11.39268
241.08        3.250778
241.54        3.018672
242.00        7.436069
242.46         12.1481
242.91        17.18267
243.37        24.31909
243.83        36.34253
244.28        50.65203
244.74        55.52705
245.20        52.06995
245.66        46.79325
246.11        42.35289
246.57        37.98119
247.03        32.29432
247.48        20.50514
247.94       -3.265273
248.40       -34.92063
248.85       -66.35522
249.31        -79.3838
249.77       -64.11275
250.22       -34.91487
250.68       -4.976507
251.14         16.7492
251.59        25.09049
252.05        20.81008
252.51       0.2781727
252.96       -55.48719
253.42       -139.1811
253.88       -132.9444
254.33       -55.49522
254.79       -4.361266
255.25         20.0126
255.70        32.08537
256.16        39.48565
256.62        43.76287
257.07        45.26606
257.53        45.38529
257.99        44.67649
258.44        43.87688
258.90        43.92187
259.35        44.50324
259.81        45.54678
260.27        46.48712
260.72        46.60809
261.18        46.12296
261.63        45.15578
262.09        44.24871
262.55        43.67321
263.00        43.33472
263.46        43.15063
263.91        42.83438
264.37        42.28123
264.83        41.45904
265.28        40.50879
265.74        39.56102
266.19         38.5631
266.65        37.63829
267.11        36.71003
267.56        35.97218
268.02        35.81698
268.47        36.22362
268.93        37.03279
269.38        37.82381
269.84        37.85469
270.30        37.00326
270.75        35.50261
271.21        33.82005
271.66        32.55817
272.12        31.93054
272.57        31.68586
273.03        31.66586
273.48        31.57163
273.94        31.32239
274.39        31.00788
274.85        30.63366
275.31        30.13708
275.76        29.52744
276.22        28.85161
276.67        28.17852
277.13        27.71217
277.58        27.41938
278.04        27.27575
278.49        27.13969
278.95        26.90148
279.40        26.48769
279.86        25.98281
280.31        25.41457
280.77        24.90081
281.22        24.43046
281.68        24.03268
282.13        23.62808
282.59        23.17964
283.04        22.66661
283.50        22.15078
283.95        21.71294
284.41         21.5235
284.86        21.57609
285.32        21.79378
285.77        22.04528
286.22        22.17641
286.68        22.15164
287.13        22.00868
287.59        21.76997
288.04         21.4389
288.50        21.07748
288.95        20.65971
289.41        20.31175
289.86        20.14863
290.32        20.19233
290.77        20.39549
291.22         20.6237
291.68         20.6596
292.13        20.46502
292.59        20.13711
293.04        19.79584
293.50        19.68029
293.95        19.82713
294.40        20.16142
294.86        20.59205
295.31        20.98896
295.77        21.29683
296.22        21.55822
296.68        21.76844
297.13        21.90694
297.58        21.99778
298.04        22.06274
298.49        22.15411
298.95        22.39431
299.40         22.7834
299.85        23.26996
300.31        23.80263
300.76        24.30854
301.21        24.75161
301.67        25.15384
302.12        25.44696
302.58        25.55176
303.03        25.46363
303.48         25.2478
303.94        25.04472
304.39        25.01003
304.84        25.19262
305.30        25.52896
305.75        25.94127
306.20        26.31851
306.66        26.61151
307.11        26.82389
307.57        26.94392
308.02        26.91464
308.47        26.75405
308.93        26.49196
309.38        26.16881
309.83        25.89768
310.29        25.71876
310.74        25.60778
311.19        25.55667
311.65        25.53293
312.10        25.51668
312.55        25.51803
313.00        25.52684
313.46        25.52443
313.91        25.49663
314.36        25.43473
314.82        25.33633
315.27        25.21898
315.72        25.08071
316.18        24.91989
316.63        24.72476
317.08        24.47597
317.53        24.17529
317.99        23.84455
318.44        23.49927
318.89        23.18108
319.35        22.91081
319.80         22.6803
320.25        22.49917
320.70        22.37321
321.16        22.29056
321.61        22.25184
322.06        22.22081
322.51        22.14132
322.97          21.995
323.42        21.80118
323.87        21.58554
324.32        21.40547
324.78        21.27291
325.23        21.17711
325.68        21.09724
326.13        21.00432
326.59        20.88119
327.04        20.75035
327.49        20.59826
327.94        20.40951
328.39        20.18546
328.85         19.9228
329.30        19.66439
329.75        19.46611
330.20        19.34376
330.66        19.28167
331.11         19.2449
331.56        19.15067
332.01        18.97852
332.46        18.75096
332.92        18.50673
333.37        18.33474
333.82        18.25328
334.27        18.24682
334.72        18.27973
335.17        18.29102
335.63        18.25065
336.08         18.1794
336.53        18.11551
336.98        18.12938
337.43        18.23177
337.88        18.40332
338.34        18.55126
338.79        18.53528
339.24         18.3247
339.69        17.96353
340.14        17.59329
340.59         17.4379
341.05        17.53691
341.50        17.82706
341.95        18.15427
342.40        18.26695
342.85        18.10883
343.30        17.77502
343.75         17.3955
344.20        17.16919
344.66        17.15532
345.11         17.2754
345.56        17.48143
346.01        17.69267
346.46        17.86299
346.91        18.01028
347.36        18.10327
347.81        18.09319
348.26        17.98194
348.72        17.79358
349.17        17.55703
349.62        17.36189
350.07        17.23444
350.52        17.15238
350.97        17.11135
351.42        17.09486
351.87        17.09357
352.32        17.12448
352.77        17.14097
353.22        17.07087
353.67        16.90757
354.13        16.66919
354.58        16.43869
355.03        16.37397
355.48        16.49903
355.93        16.77482
356.38        17.06141
356.83        17.12172
357.28        16.91236
357.73        16.52018
358.18        16.11939
358.63        15.96895
359.08        16.11584
359.53         16.4643
359.98        16.87906
360.43        17.12964
360.88        17.14191
361.33        16.99855
361.78         16.7593
362.23        16.50948
362.68        16.28836
363.13         16.0643
363.58        15.87719
364.03        15.80091
364.48        15.83625
364.93         15.9589
365.38        16.08581
365.83        16.07922
366.28        15.90955
366.73        15.62339
367.18        15.27625
367.63        14.96616
368.08        14.73901
368.53        14.57427
368.98        14.47879
369.43        14.46106
369.88        14.50651
370.33        14.60398
370.78        14.71644
371.23        14.77283
371.68        14.74632
372.13        14.65491
372.58        14.49813
373.03        14.27997
373.48        14.01755
373.93        13.71733
374.38        13.44558
374.83        13.31193
375.28        13.33721
375.72        13.48658
376.17        13.67689
376.62         13.7766
377.07        13.74924
377.52        13.62798
377.97        13.45658
378.42        13.30807
378.87        13.20652
379.32        13.13081
379.77        13.06344
380.22        12.97876
380.67        12.87321
381.11         12.7665
381.56        12.67611
382.01        12.62968
382.46        12.63317
382.91        12.67219
383.36        12.72488
383.81        12.76229
384.26        12.76906
384.71        12.74222
385.15        12.68413
385.60        12.61586
386.05        12.53936
386.50        12.46189
386.95        12.36434
387.40        12.21791
387.85         12.0323
388.29        11.81501
388.74        11.65193
389.19        11.61672
389.64        11.71278
390.09        11.90199
390.54        12.10667
390.98        12.20088
391.43        12.15626
391.88        12.02267
392.33        11.85213
392.78        11.72463
393.23        11.66265
393.67        11.61917
394.12        11.60659
394.57        11.65313
395.02        11.73433
395.47        11.77197
395.91        11.76195
396.36        11.75441
396.81        11.75473
397.26        11.72482
397.71         11.6684
398.15        11.62276
398.60        11.60658
399.05         11.5591
399.50         11.5001
399.95        11.54151
400.39        11.64557
400.84        11.60436
401.29        11.42007
401.74        11.28281
402.18        11.20637
402.63        11.07715
403.08        10.92958
403.53        10.86719
403.97        10.89631
404.42        10.98722
404.87        11.08428
405.32        11.09734
405.76        11.00487
406.21        10.84141
406.66        10.66254
407.11        10.55826
407.55        10.55478
408.00        10.62607
408.45        10.72685
408.90        10.76271
409.34        10.71488
409.79        10.63529
410.24        10.55809
410.68        10.50553
411.13        10.49025
411.58        10.51064
412.03        10.53854
412.47        10.52275
412.92        10.45118
413.37        10.34161
413.81        10.23066
414.26           10.18
414.71        10.19626
415.15        10.26859
415.60        10.34186
416.05         10.3383
416.49        10.24013
416.94        10.07238
417.39        9.901063
417.83        9.830622
418.28        9.882222
418.73        10.01912
419.17        10.17229
419.62        10.22378
420.07        10.15237
420.51        9.999392
420.96        9.830918
421.41        9.728373
421.85        9.711665
422.30        9.754544
422.74        9.833683
423.19        9.925252
423.64        10.01271
424.08        10.10694
424.53        10.17724
424.98        10.18797
425.42        10.13392
425.87        10.03048
426.31        9.900352
426.76         9.79473
427.21        9.723328
427.65        9.671661
428.10        9.655311
428.54         9.69618
428.99        9.787971
429.44         9.93717
429.88        10.06532
430.33        10.05775
430.77        9.905652
431.22         9.65714
431.66        9.404077
432.11         9.31179
432.56        9.378351
433.00        9.534244
433.45        9.660787
433.89        9.526198
434.34        9.137341
434.78        9.115935
435.23         9.50087
435.67        9.642408
436.12         9.53915
436.57        9.539177
437.01        9.642056
437.46        9.659898
437.90        9.583213
438.35        9.481586
438.79        9.380546
439.24        9.295184
439.68        9.252957
440.13        9.310935
440.57        9.422693
441.02        9.469346
441.46        9.435706
441.91        9.318886
442.35         9.17315
442.80        9.233278
443.24         9.43261
443.69        9.393023
444.13        9.148048
444.58        9.072447
445.02        9.170462
445.47        9.239286
445.91        9.262135
446.36        9.308128
446.80        9.370652
447.24        9.430057
447.69        9.471898
448.13        9.478253
448.58        9.446951
449.02        9.382301
449.47         9.31359
449.91         9.27875
450.36        9.289037
450.80        9.333583
451.25        9.379861
451.69        9.368369
452.13        9.290696
452.58        9.169365
453.02        9.045705
453.47        8.992406
453.91        9.022712
454.36        9.113738
454.80        9.221859
455.24        9.273637
455.69        9.252789
456.13         9.17672
456.58        9.088455
457.02        9.039317
457.46        9.044966
457.91        9.086807
458.35        9.131681
458.79        9.114408
459.24        9.031757
459.68        8.929952
460.13        8.861999
460.57        8.719826
461.01        8.770892
461.46        8.805711
461.90        8.879717
462.34        8.916172
462.79        8.952104
463.23        8.954362
463.68        8.956024
464.12        8.987051
464.56        9.051376
465.01        9.144667
465.45        9.218702
465.89        9.217748
466.34        9.141188
466.78        9.004548
467.22        8.858302
467.67        8.805698
468.11        8.831984
468.55        8.943159
468.99        9.082434
469.44        9.178558
469.88         9.21319
470.32        9.202817
470.77        9.169009
471.21        9.141475
471.65        9.133011
472.10        9.134005
472.54        9.134653
472.98        9.128597
473.42        9.115665
473.87        9.106667
474.31        9.102789
474.75        9.114116
475.20        9.143521
475.64        9.178985
476.08        9.214391
476.52        9.263774
476.97        9.328905
477.41         9.36533
477.85        9.348814
478.29        9.506223
478.74        9.429265
479.18        9.431849
479.62        9.416953
480.06        9.482904
480.50        9.635591
480.95         9.66424
481.39        9.863267
481.83        9.902774
482.27        9.877262
482.72        9.811427
483.16          9.7343
483.60        9.706555
484.04        9.717752
484.48         9.76277
484.93        9.914363
485.37        10.08713
485.81        10.11951
486.25         10.8169
486.69        9.953931
487.14        9.790685
487.58        10.37013
488.02        10.38197
488.46        10.21765
488.90        10.50461
489.34        10.31251
489.79        10.32056
490.23        10.61984
490.67        10.83935
491.11         11.0286
491.55        11.00777
491.99        10.84498
492.43        10.82544
492.88        10.97493
493.32        11.11147
493.76        11.20746
494.20        11.31897
494.64        11.44247
495.08        11.55029
495.52        11.64133
495.96        11.75858
496.41         11.8916
496.85         11.9313
497.29        11.90733
497.73        12.02847
498.17        12.26416
498.61        12.33267
499.05        12.25058
499.49        12.27583
499.93        12.41848
500.37        12.53536
500.82        12.61298
501.26        12.68897
501.70        12.76093
502.14         12.8203
502.58        12.86644
503.02        12.89845
503.46        12.92065
503.90        12.93816
504.34        12.96697
504.78        13.03042
505.22        13.13218
505.66         13.2639
506.10        13.40522
506.54        13.52183
506.98        13.60082
507.42        13.64809
507.86        13.67333
508.30        13.69302
508.74         13.7154
509.18        13.74032
509.62        13.76384
510.06        13.78024
510.50         13.7895
510.94        13.79235
511.38        13.80697
511.82         13.8602
512.26        13.95182
512.70        14.07061
513.14        14.17594
513.58         14.2048
514.02        14.14693
514.46        14.02391
514.90        13.88387
515.34        13.80577
515.78        13.81132
516.22        13.87782
516.66        13.97084
517.10        14.03455
517.54        14.05237
517.98          14.042
518.42        14.01937
518.86        14.00959
519.30        14.01999
519.74        14.03764
520.18        14.05473
520.62        14.06254
521.06        14.05732
521.50        14.04346
521.93        14.02244
522.37        13.99093
522.81        13.95267
523.25        13.91026
523.69         13.8676
524.13        13.83023
524.57        13.80112
525.01        13.78012
525.45        13.76866
525.89        13.76858
526.32        13.77783
526.76        13.79091
527.20        13.80314
527.64         13.8067
528.08        13.79891
528.52        13.78374
528.96        13.75722
529.40        13.71396
529.83        13.65465
530.27         13.5855
530.71        13.52355
531.15        13.49895
531.59         13.5156
532.03        13.56283
532.46        13.61303
532.90        13.62292
533.34        13.58424
533.78        13.50095
534.22        13.39826
534.66        13.33756
535.09        13.31595
535.53         13.2761
535.97        13.21796
536.41        13.18968
536.85        13.19272
537.28        13.20341
537.72        13.21767
538.16        13.24279
538.60        13.27568
539.04        13.30891
539.47         13.3467
539.91        13.40543
540.35        13.48205
540.79        13.57982
541.22        13.67692
541.66        13.71725
542.10        13.73254
542.54        13.70703
542.97         13.6888
543.41        13.74584
543.85          13.886
544.29        14.08824
544.72        14.30454
545.16        14.46627
545.60        14.55452
546.04        14.58688
546.47         14.5999
546.91        14.65794
547.35        14.77515
547.79        14.92577
548.22        15.06476
548.66        15.15758
549.10        15.19723
549.53        15.13276
549.97        15.14078
550.41        15.18778
550.84        15.32827
551.28        15.54128
551.72        15.78253
552.15        15.96478
552.59        16.07397
553.03        16.15289
553.46        16.22068
553.90        16.31728
554.34        16.45244
554.77        16.58539
555.21        16.68148
555.65        16.86982
556.08        16.82597
556.52        16.83074
556.96        16.81695
557.39        16.84306
557.83        16.92336
558.27         17.0179
558.70         17.1101
559.14        17.25646
559.57        17.29249
560.01        17.37881
560.45        17.44697
560.88        17.44841
561.32        17.42226
561.75        17.38154
562.19        17.36974
562.63        17.53014
563.06        17.78646
563.50        17.77032
563.93        17.53027
564.37        17.48571
564.80        17.64611
565.24        17.78767
565.68        17.88265
566.11        17.99352
566.55        18.11705
566.98         18.2262
567.42        18.33649
567.85        18.46226
568.29        18.61072
568.72        18.75645
569.16        18.89288
569.60        18.99561
570.03        19.05998
570.47        19.06119
570.90        19.15676
571.34        19.14921
571.77        19.26446
572.21        19.33314
572.64        19.43799
573.08        19.55747
573.51        20.08079
573.95        20.14396
574.38        20.06317
574.82        20.19408
