SpectraSmart Spectrum 2.9.0.0
--------- Device Information -----------
Spectrum Name :  反射率_0
Saving Time :  2024/05/01 16:53:22
Spectro-Module Model Name : SE2030-DUVN
Spectro-Module Serial Number : OS361AC55029948
Wavelength Start : 200
Wavelength End : 1025
Wavelength Unit : Wavelength(nm)
Spectrum Unit : Reflectance(%)
-----------Spectrum Setting ------------
Integration Time : 20ms
Average : 10
Boxcar : 0
Background removal :  enabled
linearity correction :  enabled
SC :  disabled
Intensity correction :  disabled
DWT denoise :  enabled
savitzky-golay :  disabled
FFT :  disabled
Running average :  disabled
Kalman :  disabled
High pass :  disabled
---------------BEGIN--------------------
Wavelength(nm)             Reflectance(%)
200.29               0
200.75        146.8672
201.21        619.2336
201.67       -246.2926
202.13       -77.40633
202.58       -20.09693
203.04        14.37916
203.50        35.38568
203.96        43.76404
204.42        41.03457
204.88        16.56485
205.34        -686.514
205.80        168.0681
206.26        127.8562
206.72        117.8708
207.18        136.3384
207.64        43.92223
208.10         64.5405
208.55        66.06394
209.01         64.6368
209.47        63.46084
209.93        62.45614
210.39        59.58194
210.85        56.28954
211.31        55.18716
211.77        59.59604
212.23      -0.1274228
212.69        40.06762
213.14        59.21379
213.60        122.2843
214.06       -553.8647
214.52       -84.20099
214.98       -52.59567
215.44       -44.61523
215.90       -45.89056
216.36       -129.5958
216.81       -2.625283
217.27       -10.43137
217.73       -44.25393
218.19       -31.31554
218.65       -35.02515
219.11       -45.14863
219.57        -75.8932
220.02       -178.8723
220.48       -64.86166
220.94       -10.98707
221.40       0.8836861
221.86        5.468464
222.32        9.054615
222.77        13.66839
223.23        20.43706
223.69        29.26922
224.15        34.32947
224.61        32.75776
225.06        28.37784
225.52        25.55445
225.98        26.31766
226.44         30.5009
226.90        37.89131
227.36        47.19695
227.81         51.4645
228.27        47.99575
228.73        41.57806
229.19        35.92944
229.65        32.66683
230.10        31.29682
230.56        31.11277
231.02        32.09166
231.48        34.11093
231.93        36.42727
232.39        38.80758
232.85         40.7683
233.31        42.00539
233.77        42.68937
234.22         43.0256
234.68         43.1633
235.14        43.43956
235.60        43.97673
236.05        44.74226
236.51        46.02261
236.97         48.2824
237.43        51.29502
237.88          54.681
238.34        56.77243
238.80        56.31808
239.26        52.76232
239.71        44.87578
240.17        31.77056
240.63        19.25244
241.08        16.13218
241.54        23.21387
242.00         33.8874
242.46        42.06577
242.91        48.46948
243.37        54.97499
243.83         65.0352
244.28        79.96371
244.74        88.96935
245.20        89.77763
245.66        86.94636
246.11        82.82014
246.57        77.13902
247.03        67.98253
247.48        50.99923
247.94         24.2108
248.40        -3.84542
248.85       -26.28689
249.31       -31.29209
249.77       -15.70436
250.22           8.571
250.68        32.77186
251.14        50.65755
251.59        59.37374
252.05        60.35682
252.51        52.45365
252.96        27.12275
253.42       -10.68404
253.88       -6.541019
254.33        28.38383
254.79        49.06916
255.25        54.93838
255.70        54.38914
256.16        52.71811
256.62        51.83519
257.07        52.89226
257.53        55.39194
257.99         57.9057
258.44        59.54912
258.90        60.08012
259.35        59.38294
259.81        58.20591
260.27        56.78107
260.72        55.49701
261.18        54.73751
261.63        54.07635
262.09         53.6248
262.55        53.14909
263.00        52.51291
263.46        51.89633
263.91        51.15993
264.37        50.42381
264.83        49.64165
265.28        48.81323
265.74        47.99075
266.19        46.98931
266.65        45.92733
267.11        44.79668
267.56        43.79478
268.02        43.32425
268.47        43.38166
268.93        43.78717
269.38        44.23886
269.84        44.19291
270.30        43.53478
270.75        42.42844
271.21        41.10043
271.66        39.77481
272.12        38.62469
272.57        37.54526
273.03        36.65395
273.48        36.07007
273.94        35.80736
274.39        35.78493
274.85        35.84767
275.31        35.69181
275.76        35.24986
276.22        34.66277
276.67        33.98754
277.13        33.42932
277.58        32.96336
278.04        32.55188
278.49        32.14764
278.95        31.80883
279.40        31.47339
279.86        31.18924
280.31        30.81948
280.77        30.26351
281.22        29.48966
281.68        28.62786
282.13        27.77632
282.59           27.16
283.04        26.78646
283.50         26.6268
283.95        26.59049
284.41        26.59279
284.86        26.57163
285.32         26.5507
285.77        26.53508
286.22        26.57276
286.68        26.66593
287.13         26.7755
287.59        26.83053
288.04        26.68267
288.50        26.35643
288.95        25.88301
289.41        25.45276
289.86        25.25373
290.32        25.33732
290.77        25.62294
291.22        25.96962
291.68        26.15081
292.13        26.11831
292.59        25.98032
293.04        25.84381
293.50        25.92638
293.95        26.26114
294.40        26.77978
294.86        27.40394
295.31        28.02588
295.77         28.5922
296.22        29.12321
296.68        29.61361
297.13        30.03729
297.58        30.41652
298.04        30.78171
298.49        31.15058
298.95        31.59394
299.40        32.10916
299.85        32.66955
300.31        33.30232
300.76        34.04223
301.21        34.87658
301.67        35.79051
302.12        36.63028
302.58        37.18359
303.03        37.39684
303.48         37.3714
303.94        37.31669
304.39        37.47119
304.84        37.91547
305.30        38.55861
305.75        39.27282
306.20        39.87921
306.66        40.32039
307.11        40.62411
307.57        40.83384
308.02        40.94909
308.47        41.00608
308.93        41.00859
309.38        40.95732
309.83        40.91821
310.29        40.91646
310.74        40.93731
311.19        40.98091
311.65        41.02551
312.10        41.05326
312.55        41.07126
313.00        41.08469
313.46        41.09939
313.91        41.10817
314.36        41.10599
314.82        41.06747
315.27        40.97108
315.72        40.80728
316.18        40.58956
316.63        40.34068
317.08        40.10908
317.53        39.90297
317.99        39.71536
318.44         39.5071
318.89        39.22399
319.35        38.86445
319.80        38.45715
320.25        38.06008
320.70        37.75809
321.16        37.56495
321.61        37.46282
322.06         37.4057
322.51         37.3224
322.97        37.17859
323.42        37.00335
323.87        36.80096
324.32         36.5936
324.78        36.38638
325.23        36.18391
325.68        35.97918
326.13        35.77274
326.59        35.55675
327.04        35.35051
327.49        35.15323
327.94        34.97344
328.39        34.80916
328.85        34.64098
329.30        34.47675
329.75        34.28809
330.20        34.06931
330.66        33.82164
331.11        33.56105
331.56        33.27452
332.01        32.97209
332.46        32.66488
332.92        32.37802
333.37         32.1868
333.82         32.0971
334.27        32.10111
334.72        32.16535
335.17        32.22929
335.63        32.25263
336.08        32.24823
336.53        32.22882
336.98        32.23892
337.43        32.28263
337.88        32.34749
338.34        32.35246
338.79          32.192
339.24        31.84617
339.69        31.35748
340.14        30.87378
340.59        30.62324
341.05        30.64604
341.50        30.88578
341.95        31.17824
342.40        31.25205
342.85        31.04819
343.30        30.66587
343.75        30.25173
344.20        30.03273
344.66        30.06799
345.11        30.26301
345.56        30.54629
346.01        30.80004
346.46         30.9653
346.91        31.07191
347.36        31.09491
347.81        30.99475
348.26        30.78234
348.72        30.48319
349.17        30.14087
349.62         29.8726
350.07        29.70761
350.52        29.61291
350.97         29.5697
351.42        29.53479
351.87        29.49139
352.32        29.47036
352.77        29.41801
353.22        29.25126
353.67        28.97001
354.13        28.59955
354.58        28.25852
355.03        28.17077
355.48         28.3679
355.93        28.79054
356.38        29.23898
356.83        29.37523
357.28        29.12762
357.73        28.60833
358.18        28.04778
358.63        27.79059
359.08        27.90153
359.53        28.25843
359.98        28.67932
360.43        28.85854
360.88        28.70948
361.33        28.35057
361.78        27.89372
362.23        27.49468
362.68         27.2069
363.13        26.97335
363.58        26.80157
364.03        26.71392
364.48        26.69581
364.93        26.74195
365.38        26.78172
365.83        26.69496
366.28        26.45867
366.73        26.10854
367.18        25.70551
367.63        25.36138
368.08        25.11916
368.53        24.95105
368.98        24.84384
369.43        24.77216
369.88        24.71508
370.33        24.67588
370.78        24.63074
371.23        24.53627
371.68        24.38597
372.13        24.19651
372.58        23.98456
373.03        23.77678
373.48        23.58452
373.93        23.39933
374.38        23.24973
374.83        23.18202
375.28        23.19661
375.72        23.27292
376.17        23.34712
376.62        23.31449
377.07        23.15421
377.52        22.89546
377.97        22.60091
378.42        22.37257
378.87        22.23755
379.32        22.16728
379.77        22.11709
380.22        22.01666
380.67        21.84992
381.11        21.64682
381.56        21.44284
382.01        21.29817
382.46        21.23343
382.91        21.23271
383.36        21.26013
383.81        21.26496
384.26        21.22743
384.71        21.14675
385.15         21.0563
385.60        21.02811
386.05        21.06326
386.50        21.14796
386.95        21.19417
387.40        21.06983
387.85        20.77259
388.29        20.34566
388.74        19.96545
389.19        19.81825
389.64        19.92742
390.09        20.21301
390.54        20.53636
390.98        20.67123
391.43        20.57019
391.88        20.31789
392.33         20.0023
392.78        19.75438
393.23        19.61133
393.67        19.49741
394.12        19.42423
394.57        19.42956
395.02        19.47499
395.47        19.43817
395.91        19.33731
396.36        19.30109
396.81        19.34187
397.26        19.38083
397.71        19.39576
398.15        19.40444
398.60        19.42474
399.05        19.36933
399.50         19.2801
399.95        19.35985
400.39        19.55144
400.84        19.49643
401.29        19.20662
401.74        19.01654
402.18         18.9513
402.63        18.81546
403.08        18.63947
403.53        18.55345
403.97         18.5633
404.42        18.63759
404.87        18.72422
405.32         18.7393
405.76        18.66123
406.21        18.52222
406.66        18.37672
407.11        18.31326
407.55        18.35637
408.00        18.47841
408.45        18.62317
408.90        18.66602
409.34        18.58773
409.79        18.46992
410.24        18.35736
410.68        18.27114
411.13        18.23036
411.58        18.23968
412.03        18.26927
412.47        18.25995
412.92        18.19376
413.37        18.09303
413.81        17.99021
414.26        17.94634
414.71        17.96528
415.15        18.03648
415.60        18.10414
416.05        18.09604
416.49        17.99696
416.94         17.8312
417.39        17.66349
417.83         17.5946
418.28        17.64618
418.73        17.78335
419.17        17.94405
419.62         18.0219
420.07        17.99668
420.51         17.9047
420.96        17.80292
421.41        17.75243
421.85        17.76551
422.30        17.82294
422.74        17.91185
423.19        18.03564
423.64        18.17891
424.08        18.34785
424.53        18.48376
424.98        18.51111
425.42        18.41888
425.87        18.23783
426.31         18.0236
426.76        17.87544
427.21        17.81503
427.65        17.81183
428.10        17.87038
428.54        17.98757
428.99        18.15152
429.44        18.38664
429.88        18.58432
430.33        18.59356
430.77        18.40532
431.22        18.08882
431.66        17.78295
432.11        17.73314
432.56        17.91897
433.00        18.21995
433.45        18.43918
433.89        18.18956
434.34        17.49834
434.78        17.53607
435.23        18.35139
435.67        18.63987
436.12        18.39063
436.57        18.29881
437.01        18.41056
437.46        18.44552
437.90        18.40258
438.35        18.38355
438.79        18.38077
439.24        18.33633
439.68        18.28113
440.13        18.35438
440.57        18.49913
441.02        18.53904
441.46        18.46138
441.91        18.26507
442.35        18.02842
442.80        18.12563
443.24        18.44291
443.69        18.35998
444.13        17.94325
444.58        17.82364
445.02        18.00975
445.47        18.16391
445.91        18.23951
446.36        18.32595
446.80        18.40589
447.24        18.45256
447.69        18.47294
448.13        18.48048
448.58        18.48206
449.02        18.47279
449.47        18.45901
449.91        18.43615
450.36        18.41107
450.80        18.38343
451.25          18.357
451.69        18.32288
452.13        18.28244
452.58        18.24106
453.02        18.19728
453.47        18.16104
453.91        18.13206
454.36        18.11415
454.80        18.10131
455.24        18.08209
455.69        18.05831
456.13         18.0208
456.58        17.99553
457.02        17.99732
457.46        18.03211
457.91        18.09479
458.35        18.14917
458.79        18.11156
459.24        17.98387
459.68        17.84127
460.13         17.7667
460.57        17.52699
461.01        17.64581
461.46        17.71084
461.90        17.83831
462.34        17.89124
462.79        17.94867
463.23         17.9468
463.68        17.93139
464.12        17.93431
464.56        17.96495
465.01        18.03313
465.45        18.08872
465.89        18.09132
466.34        18.04181
466.78        17.95013
467.22          17.854
467.67        17.84885
468.11        17.87686
468.55         17.9804
468.99        18.10474
469.44        18.20139
469.88        18.25776
470.32        18.28129
470.77        18.28414
471.21        18.28398
471.65        18.28688
472.10        18.29078
472.54        18.28402
472.98        18.26044
473.42        18.22339
473.87        18.18763
474.31        18.15972
474.75        18.16683
475.20        18.21673
475.64        18.28738
476.08         18.3596
476.52        18.44987
476.97        18.55939
477.41        18.59599
477.85        18.52617
478.29        18.82188
478.74        18.67563
479.18        18.70624
479.62        18.69245
480.06        18.78032
480.50        18.98081
480.95        18.90877
481.39        19.18101
481.83        19.21738
482.27        19.21469
482.72         19.1939
483.16        19.17743
483.60        19.22832
484.04        19.34888
484.48        19.41974
484.93         19.5412
485.37        19.88013
485.81        20.28908
486.25        20.54682
486.69        19.95599
487.14        19.43074
487.58        19.94587
488.02        20.38036
488.46        20.25685
488.90        20.59731
489.34         20.6558
489.79        20.54346
490.23        20.96062
490.67        21.19818
491.11         21.4605
491.55        21.51391
491.99         21.4096
492.43        21.42948
492.88        21.58838
493.32        21.70494
493.76        21.77733
494.20        21.91578
494.64        22.12959
495.08        22.36533
495.52        22.58695
495.96        22.82066
496.41         23.0322
496.85        23.02751
497.29        22.89588
497.73        23.08541
498.17        23.54689
498.61        23.72285
499.05        23.61837
499.49        23.69037
499.93        23.94819
500.37        24.12866
500.82        24.22353
501.26        24.34119
501.70        24.48316
502.14        24.62099
502.58        24.73964
503.02        24.81777
503.46        24.85566
503.90        24.86613
504.34        24.88519
504.78        24.96651
505.22        25.11941
505.66        25.32648
506.10        25.54033
506.54        25.68094
506.98        25.72875
507.42        25.71091
507.86        25.66671
508.30        25.65792
508.74        25.70443
509.18         25.7876
509.62        25.89623
510.06        26.01153
510.50         26.1223
510.94        26.23378
511.38        26.33544
511.82        26.40958
512.26        26.45062
512.70        26.45634
513.14        26.43935
513.58         26.4234
514.02        26.41657
514.46        26.41957
514.90        26.41781
515.34        26.38539
515.78         26.3225
516.22        26.24208
516.66        26.17884
517.10        26.18471
517.54         26.2663
517.98        26.40245
518.42        26.55084
518.86        26.64187
519.30        26.65578
519.74        26.61336
520.18        26.53942
520.62        26.47568
521.06        26.43567
521.50        26.40318
521.93        26.38054
522.37        26.36657
522.81        26.36056
523.25        26.36886
523.69        26.36919
524.13        26.32284
524.57        26.22783
525.01        26.09701
525.45        25.97142
525.89        25.91688
526.32        25.94388
526.76        26.02639
527.20        26.12141
527.64        26.15943
528.08        26.12098
528.52        26.03075
528.96        25.91024
529.40         25.7926
529.83        25.68992
530.27        25.59961
530.71        25.52694
531.15        25.48824
531.59        25.48148
532.03        25.49827
532.46        25.51733
532.90         25.5082
533.34        25.46419
533.78        25.37836
534.22        25.25843
534.66         25.1604
535.09        25.06959
535.53        24.89703
535.97         24.6898
536.41        24.61008
536.85        24.67332
537.28        24.80675
537.72        24.95825
538.16        25.06805
538.60        25.11236
539.04        25.10457
539.47        25.07966
539.91         25.1088
540.35        25.20007
540.79        25.34241
541.22         25.4987
541.66         25.5726
542.10        25.61929
542.54        25.61236
542.97        25.61139
543.41        25.69106
543.85        25.86051
544.29        26.09363
544.72        26.35066
545.16        26.58245
545.60        26.76802
546.04        26.92656
546.47        27.06873
546.91        27.20092
547.35        27.33825
547.79        27.49893
548.22         27.6543
548.66        27.79418
549.10        27.91951
549.53        27.92432
549.97        28.07832
550.41         28.2269
550.84        28.44706
551.28        28.72926
551.72        29.03263
552.15         29.2608
552.59        29.40964
553.03        29.53946
553.46         29.6621
553.90        29.81571
554.34        30.00933
554.77        30.18083
555.21        30.28842
555.65        30.59724
556.08        30.52291
556.52        30.56181
556.96        30.56419
557.39        30.59617
557.83         30.6773
558.27        30.74922
558.70        30.80952
559.14        31.00386
559.57        31.05028
560.01        31.22413
560.45        31.38352
560.88        31.41059
561.32        31.36632
561.75        31.28187
562.19        31.24982
562.63        31.54628
563.06        32.03598
563.50        32.04347
563.93        31.63897
564.37        31.55404
564.80        31.80188
565.24        31.98704
565.68        32.07271
566.11         32.1922
566.55        32.34926
566.98        32.48409
567.42        32.62483
567.85        32.80954
568.29        33.04362
568.72        33.24432
569.16        33.41417
569.60        33.56694
570.03         33.6878
570.47        33.69437
570.90        33.86533
571.34          33.811
571.77        33.93614
572.21        34.05865
572.64        34.31721
573.08        34.29371
573.51        34.64505
573.95          35.159
574.38        34.68034
574.82        34.98678
