SpectraSmart Spectrum 2.9.0.0
--------- Device Information -----------
Spectrum Name :  反射率_0
Saving Time :  2024/05/01 17:06:51
Spectro-Module Model Name : SE2030-DUVN
Spectro-Module Serial Number : OS361AC55029948
Wavelength Start : 200
Wavelength End : 1025
Wavelength Unit : Wavelength(nm)
Spectrum Unit : Reflectance(%)
-----------Spectrum Setting ------------
Integration Time : 20ms
Average : 10
Boxcar : 0
Background removal :  enabled
linearity correction :  enabled
SC :  disabled
Intensity correction :  disabled
DWT denoise :  enabled
savitzky-golay :  disabled
FFT :  disabled
Running average :  disabled
Kalman :  disabled
High pass :  disabled
---------------BEGIN--------------------
Wavelength(nm)             Reflectance(%)
200.29               0
200.75       -219.7001
201.21       -516.6055
201.67        117.5522
202.13        47.87572
202.58        51.89732
203.04        64.49996
203.50        76.81038
203.96        86.50775
204.42        97.11791
204.88        125.8476
205.34        872.5378
205.80       -51.13643
206.26       -32.23056
206.72       -72.61923
207.18       -358.8905
207.64        526.3964
208.10        238.6798
208.55        179.7906
209.01         155.943
209.47        143.6831
209.93        136.7881
210.39        131.3737
210.85        133.4989
211.31        161.3092
211.77        293.5723
212.23       -830.7133
212.69       -153.8437
213.14       -107.2859
213.60       -139.0132
214.06        450.9925
214.52        59.02472
214.98        44.73813
215.44        63.31211
215.90         143.715
216.36        1449.706
216.81       -583.9206
217.27       -764.0796
217.73        1611.497
218.19        334.7665
218.65        236.8859
219.11         258.163
219.57        420.5853
220.02        1131.317
220.48        625.2734
220.94         245.926
221.40        150.6558
221.86        120.2377
222.32        114.0253
222.77        120.4367
223.23        138.0796
223.69        162.6308
224.15        171.0427
224.61        156.7285
225.06        135.4843
225.52        122.6782
225.98        123.6651
226.44        137.3053
226.90        163.6494
227.36        197.6974
227.81        213.4585
228.27        201.1442
228.73        177.6579
229.19        158.8853
229.65         153.731
230.10        160.7335
230.56        176.8231
231.02        197.7502
231.48        209.4491
231.93        205.1048
232.39        193.3508
232.85        179.8401
233.31        169.1985
233.77        162.2928
234.22        157.0467
234.68        154.7123
235.14        156.9945
235.60        164.4081
236.05        179.0895
236.51        200.1368
236.97        218.7331
237.43        224.8106
237.88        216.0967
238.34        199.2293
238.80        188.2159
239.26        186.9462
239.71        195.8478
240.17        212.0134
240.63        219.3467
241.08        203.7206
241.54        173.8204
242.00         148.841
242.46         141.466
242.91        153.0555
243.37        185.9657
243.83        240.2687
244.28        264.2455
244.74        224.3721
245.20        169.7507
245.66        130.7268
246.11        110.8372
246.57        102.5888
247.03        100.2048
247.48        99.50221
247.94        88.82204
248.40        63.75711
248.85        34.60762
249.31        17.73642
249.77        22.71626
250.22         40.5365
250.68        60.80807
251.14        77.81481
251.59        90.35525
252.05        101.9779
252.51        119.6728
252.96        159.3208
253.42        236.2278
253.88        272.9311
254.33        230.8065
254.79        191.7207
255.25        170.1011
255.70        156.7858
256.16        148.8535
256.62        142.5479
257.07        135.8382
257.53        130.6461
257.99        126.8586
258.44        124.8407
258.90        126.1094
259.35        129.3548
259.81        134.0862
260.27        138.7992
260.72        141.5573
261.18        142.5446
261.63        141.8305
262.09        140.5658
262.55        139.0039
263.00        137.1136
263.46        135.2815
263.91        133.1768
264.37        131.2982
264.83        129.5383
265.28        127.8722
265.74        126.5418
266.19        125.1979
266.65         124.035
267.11        122.9321
267.56        122.0353
268.02        121.7641
268.47        122.0245
268.93        122.6243
269.38        123.0886
269.84        122.6641
270.30        121.2036
270.75        118.9171
271.21        116.2963
271.66        113.8786
272.12        111.9296
272.57        110.1815
273.03        108.6057
273.48        106.9704
273.94        105.3422
274.39        103.7661
274.85        102.3047
275.31        100.7671
275.76        99.10677
276.22        97.48981
276.67         95.9622
277.13        94.94878
277.58        94.27527
278.04        93.87384
278.49        93.35675
278.95         92.4311
279.40        90.93596
279.86        89.17839
280.31        87.20744
280.77        85.38375
281.22        83.65657
281.68        82.09337
282.13        80.61224
282.59        79.35499
283.04        78.21577
283.50        77.29201
283.95        76.40636
284.41        75.44424
284.86        74.34824
285.32         73.2238
285.77        72.19241
286.22        71.56942
286.68        71.35043
287.13         71.3649
287.59        71.35126
288.04        70.83376
288.50        69.79465
288.95        68.35334
289.41        66.86657
289.86        65.63423
290.32        64.80982
290.77        64.24632
291.22        63.83462
291.68        63.38086
292.13         62.8111
292.59        62.22742
293.04         61.7027
293.50        61.42615
293.95        61.38654
294.40        61.50746
294.86        61.64308
295.31        61.58216
295.77        61.28265
296.22        60.80384
296.68        60.26251
297.13         59.7771
297.58        59.41909
298.04        59.18023
298.49        59.02158
298.95        58.94468
299.40         58.9081
299.85        58.90942
300.31        58.98564
300.76        59.14417
301.21        59.37833
301.67         59.6732
302.12        59.87286
302.58        59.80077
303.03        59.41598
303.48        58.83017
303.94        58.28918
304.39        58.02906
304.84        58.13009
305.30        58.48645
305.75         58.9175
306.20        59.18634
306.66        59.23277
307.11        59.09267
307.57        58.85578
308.02        58.56083
308.47        58.26219
308.93        57.95057
309.38        57.60752
309.83         57.2826
310.29        57.00327
310.74        56.76841
311.19        56.58044
311.65        56.41449
312.10        56.25101
312.55        56.09221
313.00        55.97184
313.46        55.94411
313.91        55.99569
314.36        56.09366
314.82        56.14207
315.27        56.00966
315.72        55.66526
316.18        55.17283
316.63        54.60968
317.08        54.11756
317.53        53.73646
317.99        53.43453
318.44        53.17977
318.89        52.92164
319.35        52.64836
319.80        52.38873
320.25        52.15662
320.70        51.96554
321.16        51.80762
321.61        51.67548
322.06        51.55775
322.51        51.45195
322.97        51.33704
323.42        51.22454
323.87        51.08128
324.32        50.87128
324.78        50.58578
325.23        50.26032
325.68        49.91621
326.13        49.59759
326.59        49.31214
327.04        49.07574
327.49         48.8845
327.94         48.7445
328.39        48.64795
328.85        48.56955
329.30        48.51987
329.75        48.44819
330.20        48.34336
330.66        48.20933
331.11        48.05982
331.56        47.86454
332.01        47.63417
332.46        47.37442
332.92        47.15184
333.37        47.12881
333.82        47.31695
334.27        47.68538
334.72        48.10463
335.17        48.34464
335.63        48.32049
336.08        48.10608
336.53        47.82153
336.98        47.69529
337.43        47.78878
337.88        48.04289
338.34        48.31316
338.79        48.39376
339.24        48.21817
339.69        47.85938
340.14        47.48394
340.59        47.34763
341.05        47.49884
341.50        47.86394
341.95        48.26484
342.40        48.41787
342.85        48.26125
343.30         47.9006
343.75        47.50377
344.20        47.32735
344.66        47.43448
345.11        47.72472
345.56         48.0989
346.01        48.39062
346.46        48.53537
346.91        48.58832
347.36        48.55935
347.81        48.46009
348.26        48.31454
348.72        48.12787
349.17         47.9311
349.62        47.82724
350.07        47.82744
350.52        47.89194
350.97        47.97165
351.42        47.97628
351.87        47.88131
352.32        47.73501
352.77         47.5101
353.22        47.16775
353.67        46.72665
354.13        46.20874
354.58         45.7385
355.03        45.56007
355.48        45.70457
355.93        46.11437
356.38         46.5564
356.83        46.63353
357.28         46.2673
357.73        45.59237
358.18        44.88825
358.63        44.57267
359.08        44.72252
359.53        45.18679
359.98        45.74146
360.43        46.01305
360.88        45.88314
361.33        45.47717
361.78        44.92467
362.23        44.40631
362.68        43.98726
363.13        43.61664
363.58        43.27657
364.03        42.95428
364.48        42.64215
364.93        42.34871
365.38        42.09616
365.83        41.90038
366.28         41.7511
366.73         41.6419
367.18        41.48298
367.63        41.13857
368.08        40.60594
368.53        39.94384
368.98        39.30921
369.43        38.93225
369.88        38.84872
370.33        38.98096
370.78        39.19072
371.23        39.23027
371.68        39.02357
372.13        38.65843
372.58        38.21434
373.03        37.80746
373.48         37.4806
373.93        37.18856
374.38        36.95776
374.83        36.84248
375.28        36.83382
375.72        36.90545
376.17        36.97495
376.62        36.89188
377.07        36.62831
377.52        36.23382
377.97        35.77789
378.42        35.37588
378.87        35.07154
379.32        34.83766
379.77        34.67096
380.22         34.5621
380.67        34.49868
381.11        34.48988
381.56        34.50124
382.01         34.4795
382.46        34.41059
382.91        34.29975
383.36        34.16914
383.81        34.06337
384.26          33.985
384.71        33.90697
385.15        33.80476
385.60        33.66716
386.05        33.48289
386.50        33.27657
386.95        33.03613
387.40        32.74149
387.85        32.41014
388.29        32.03824
388.74        31.73986
389.19        31.58739
389.64        31.58327
390.09        31.68552
390.54        31.81113
390.98        31.82072
391.43        31.69818
391.88        31.48833
392.33          31.244
392.78        31.05351
393.23        30.94167
393.67        30.83245
394.12        30.75044
394.57        30.76531
395.02        30.82372
395.47         30.7156
395.91        30.49737
396.36        30.43145
396.81         30.5413
397.26        30.69205
397.71         30.7939
398.15        30.78733
398.60        30.69504
399.05        30.42288
399.50         30.1039
399.95        30.14101
400.39        30.46362
400.84        30.49145
401.29        30.19845
401.74        30.02366
402.18        29.97846
402.63        29.77767
403.08         29.4789
403.53        29.30264
403.97        29.26464
404.42        29.30405
404.87         29.3559
405.32        29.32027
405.76        29.17028
406.21         28.9563
406.66        28.72741
407.11        28.55825
407.55         28.4788
408.00        28.46483
408.45        28.49774
408.90        28.50355
409.34        28.47675
409.79        28.50277
410.24        28.56236
410.68        28.56183
411.13        28.50054
411.58        28.41751
412.03        28.32733
412.47        28.24731
412.92        28.18109
413.37        28.13134
413.81        28.08866
414.26        28.05942
414.71        28.03268
415.15        28.01916
415.60         27.9961
416.05        27.95211
416.49        27.88584
416.94        27.79603
417.39        27.70589
417.83        27.65166
418.28        27.63888
418.73        27.65398
419.17        27.66705
419.62        27.62538
420.07        27.52473
420.51        27.38386
420.96        27.24887
421.41        27.15582
421.85        27.10787
422.30        27.10359
422.74        27.13095
423.19        27.20176
423.64        27.30132
424.08         27.4372
424.53        27.54783
424.98        27.56536
425.42         27.4828
425.87        27.32589
426.31        27.15093
426.76         27.0566
427.21        27.05824
427.65        27.11656
428.10        27.22535
428.54         27.3653
428.99        27.52576
429.44        27.74389
429.88        27.89792
430.33         27.8269
430.77        27.53197
431.22        27.10519
431.66        26.70197
432.11        26.64375
432.56        26.89623
433.00         27.1374
433.45        27.15996
433.89        26.95709
434.34         26.3819
434.78        26.28208
435.23        26.85062
435.67        27.07464
436.12        27.00219
436.57        27.12482
437.01        27.40241
437.46        27.45233
437.90        27.24339
438.35        26.94105
438.79        26.63719
439.24        26.39983
439.68        26.30934
440.13         26.5225
440.57        26.92021
441.02        27.15971
441.46        27.17734
441.91         27.0372
442.35        26.82242
442.80        26.93627
443.24        27.26179
443.69        27.13862
444.13        26.63849
444.58        26.43695
445.02        26.54471
445.47        26.61879
445.91         26.6219
446.36        26.65715
446.80        26.70901
447.24        26.75045
447.69        26.78505
448.13        26.81718
448.58        26.84801
449.02        26.86351
449.47        26.86947
449.91        26.85645
450.36        26.83223
450.80        26.79934
451.25        26.74969
451.69        26.65215
452.13        26.51214
452.58        26.34392
453.02        26.19017
453.47         26.1326
453.91        26.17947
454.36        26.31469
454.80        26.46631
455.24         26.5193
455.69        26.45601
456.13        26.29657
456.58        26.13491
457.02        26.07995
457.46        26.15955
457.91        26.33411
458.35        26.51831
458.79         26.5405
459.24        26.38381
459.68        26.17809
460.13        26.04713
460.57        25.65584
461.01        25.77489
461.46        25.80111
461.90        25.91364
462.34        25.93623
462.79         25.9891
463.23        25.97614
463.68        25.95657
464.12        25.96362
464.56        26.00396
465.01        26.09643
465.45        26.16414
465.89        26.14628
466.34        26.04256
466.78        25.86736
467.22         25.6804
467.67        25.63134
468.11        25.64281
468.55        25.77171
468.99        25.93339
469.44        26.04535
469.88        26.08694
470.32        26.07855
470.77        26.04283
471.21        26.01759
471.65        26.01341
472.10        26.01913
472.54        26.02277
472.98        26.02269
473.42        26.01828
473.87        26.02481
474.31        26.02596
474.75        26.01965
475.20        26.01225
475.64        25.99289
476.08         25.9764
476.52        26.00619
476.97         26.0875
477.41        26.16148
477.85        26.18625
478.29        26.37878
478.74        26.31644
479.18        26.30024
479.62        26.22464
480.06        26.25841
480.50        26.42635
480.95        26.19817
481.39          26.452
481.83        26.43781
482.27        26.43011
482.72        26.44105
483.16        26.48082
483.60        26.56178
484.04        26.64596
484.48        26.70275
484.93         26.8869
485.37        27.09608
485.81        27.18614
486.25        27.93646
486.69        27.31163
487.14        26.53708
487.58        26.60864
488.02        27.38519
488.46        27.25856
488.90        27.34102
489.34        27.35107
489.79         27.1936
490.23        27.29675
490.67         27.5832
491.11         28.0335
491.55        28.06842
491.99        27.74351
492.43        27.68662
492.88        27.93122
493.32        28.09287
493.76        28.14055
494.20        28.23292
494.64        28.37597
495.08        28.49923
495.52        28.59377
495.96        28.75187
496.41        28.94556
496.85        28.91953
497.29        28.75174
497.73        28.94577
498.17        29.42413
498.61        29.50853
499.05        29.24061
499.49        29.23614
499.93        29.51621
500.37        29.73827
500.82        29.86777
501.26        30.00236
501.70        30.13119
502.14        30.23036
502.58        30.29443
503.02        30.31643
503.46        30.30305
503.90        30.26426
504.34        30.23698
504.78        30.27649
505.22        30.39338
505.66        30.57254
506.10        30.76794
506.54        30.89974
506.98        30.94683
507.42        30.93426
507.86        30.89674
508.30          30.889
508.74         30.9294
509.18        31.00191
509.62        31.09614
510.06         31.1962
510.50        31.29211
510.94        31.38576
511.38         31.4737
511.82        31.54926
512.26        31.60714
512.70        31.64334
513.14         31.6503
513.58        31.61961
514.02        31.55455
514.46        31.46455
514.90        31.36639
515.34        31.28602
515.78        31.23428
516.22        31.20829
516.66        31.20721
517.10        31.22577
517.54        31.25917
517.98        31.30789
518.42         31.3606
518.86        31.39823
519.30         31.4156
519.74        31.41401
520.18        31.40326
520.62        31.40286
521.06        31.41487
521.50        31.42846
521.93        31.43612
522.37        31.41994
522.81        31.37881
523.25        31.32384
523.69        31.25179
524.13        31.15518
524.57         31.0418
525.01        30.92007
525.45        30.81955
525.89        30.78572
526.32        30.82344
526.76        30.91183
527.20        31.01787
527.64        31.08817
528.08        31.10382
528.52        31.08017
528.96        31.02075
529.40        30.93331
529.83        30.82478
530.27         30.7034
530.71        30.59208
531.15        30.53505
531.59        30.54015
532.03        30.59442
532.46         30.6643
532.90        30.70099
533.34        30.69063
533.78        30.62296
534.22        30.51999
534.66        30.46926
535.09        30.45161
535.53         30.3491
535.97        30.18097
536.41        30.08786
536.85        30.08075
537.28        30.09059
537.72        30.10679
538.16        30.13945
538.60        30.18147
539.04        30.22838
539.47        30.27676
539.91        30.34005
540.35        30.41034
540.79        30.49401
541.22        30.58511
541.66        30.63099
542.10        30.70735
542.54        30.75489
542.97        30.80071
543.41        30.86711
543.85        30.95456
544.29        31.06328
544.72        31.18088
545.16        31.30353
545.60        31.42319
546.04        31.53539
546.47        31.65502
546.91        31.81116
547.35        32.00403
547.79        32.21338
548.22        32.38021
548.66        32.48624
549.10        32.52872
549.53         32.3765
549.97        32.38055
550.41        32.43815
550.84        32.65572
551.28         32.9977
551.72        33.38937
552.15        33.67327
552.59        33.82813
553.03        33.93863
553.46        34.02116
553.90         34.1225
554.34        34.25838
554.77        34.35577
555.21        34.38225
555.65        34.66497
556.08        34.54734
556.52        34.58665
556.96        34.59741
557.39        34.62713
557.83        34.69183
558.27        34.73385
558.70        34.75951
559.14        34.94876
559.57        34.98583
560.01        35.17105
560.45         35.3429
560.88        35.35979
561.32        35.28762
561.75        35.18826
562.19        35.15125
562.63        35.41691
563.06        35.85351
563.50         35.8144
563.93        35.38668
564.37        35.30817
564.80        35.59004
565.24         35.8387
565.68        35.98556
566.11        36.10719
566.55        36.20058
566.98        36.23372
567.42        36.26859
567.85        36.36972
568.29        36.56696
568.72        36.81004
569.16        37.09156
569.60         37.2971
570.03        37.38239
570.47        37.42477
570.90         37.7737
571.34        37.37608
571.77        37.76031
572.21        37.87521
572.64        38.15368
573.08        38.05096
573.51         38.3592
573.95        38.68591
574.38        38.42221
574.82        38.73702
