SpectraSmart Spectrum 2.9.0.0
--------- Device Information -----------
Spectrum Name :  反射率_0
Saving Time :  2024/05/01 17:20:04
Spectro-Module Model Name : SE2030-DUVN
Spectro-Module Serial Number : OS361AC55029948
Wavelength Start : 200
Wavelength End : 1025
Wavelength Unit : Wavelength(nm)
Spectrum Unit : Reflectance(%)
-----------Spectrum Setting ------------
Integration Time : 20ms
Average : 10
Boxcar : 0
Background removal :  enabled
linearity correction :  enabled
SC :  disabled
Intensity correction :  disabled
DWT denoise :  enabled
savitzky-golay :  disabled
FFT :  disabled
Running average :  disabled
Kalman :  disabled
High pass :  disabled
---------------BEGIN--------------------
Wavelength(nm)             Reflectance(%)
200.29               0
200.75        307.0785
201.21        1166.097
201.67       -448.7103
202.13       -160.6913
202.58       -76.61457
203.04       -30.74923
203.50       -5.286461
203.96        1.501759
204.42       -10.60047
204.88       -71.79608
205.34       -1724.836
205.80        275.8001
206.26        173.9972
206.72        127.2664
207.18        58.83226
207.64        122.6382
208.10        52.63062
208.55        14.72607
209.01       -11.87408
209.47       -22.19231
209.93        -20.8704
210.39       -15.75934
210.85       -11.71312
211.31        -17.8332
211.77       -64.47707
212.23        331.4576
212.69        101.1644
213.14        108.0708
213.60        206.8558
214.06       -961.6765
214.52       -156.4324
214.98       -104.0632
215.44       -93.18328
215.90       -103.3181
216.36       -359.4581
216.81        26.70486
217.27        9.533781
217.73       -125.0704
218.19       -61.86944
218.65         -60.332
219.11       -66.94664
219.57       -89.62625
220.02        -162.429
220.48       -69.79504
220.94       -31.30276
221.40       -22.82269
221.86       -18.88724
222.32       -14.47077
222.77       -7.914558
223.23        1.728393
223.69        14.81663
224.15        23.71953
224.61         23.3886
225.06        18.87316
225.52        14.92316
225.98        13.55811
226.44        14.50535
226.90        16.93779
227.36        20.75133
227.81        24.10375
228.27         25.2409
228.73        25.14245
229.19        24.47675
229.65        23.51298
230.10        22.31517
230.56        20.89889
231.02        19.64741
231.48        19.85971
231.93        21.80134
232.39        24.60891
232.85        27.64544
233.31        30.54224
233.77        33.18618
234.22        35.64465
234.68        37.71886
235.14        39.39093
235.60        40.83178
236.05        42.24969
236.51        43.86092
236.97         45.8336
237.43         47.7743
237.88        49.18891
238.34        49.51025
238.80        48.89195
239.26        47.29096
239.71        44.50097
240.17        39.43544
240.63        31.92418
241.08         24.7949
241.54        20.59511
242.00        20.29341
242.46        23.65304
242.91        31.43115
243.37        46.05346
243.83        70.36179
244.28        89.84757
244.74        85.75835
245.20        70.68201
245.66        57.21897
246.11        48.46465
246.57        42.03911
247.03        35.10716
247.48        23.30939
247.94        2.461791
248.40       -23.23229
248.85       -46.93696
249.31       -55.00699
249.77       -41.44122
250.22       -17.69977
250.68        6.258782
251.14        23.67288
251.59        30.87896
252.05        28.89563
252.51        15.75529
252.96       -19.36503
253.42       -63.01083
253.88       -39.57018
254.33        17.30157
254.79        48.76398
255.25        61.25339
255.70        65.59241
256.16        67.49261
256.62        68.09158
257.07        67.85787
257.53        67.73285
257.99        67.44795
258.44        67.12332
258.90        67.41647
259.35         67.8534
259.81        68.55588
260.27        69.02029
260.72        68.65257
261.18        67.77913
261.63        66.40178
262.09         65.0567
262.55        63.84552
263.00         62.6841
263.46        61.65892
263.91        60.57637
264.37        59.57876
264.83        58.59076
265.28        57.61899
265.74        56.69429
266.19        55.54901
266.65        54.29634
267.11        52.91969
267.56        51.65698
268.02        50.98595
268.47        50.91494
268.93        51.26196
269.38          51.641
269.84        51.37973
270.30        50.35344
270.75        48.76625
271.21        47.00991
271.66        45.54677
272.12          44.569
272.57        43.86489
273.03        43.33597
273.48        42.76178
273.94        42.11581
274.39         41.4617
274.85        40.83494
275.31        40.18699
275.76        39.50408
276.22        38.82414
276.67        38.15633
277.13        37.65725
277.58        37.25969
278.04         36.9609
278.49        36.61286
278.95        36.12735
279.40        35.44236
279.86        34.66784
280.31        33.84414
280.77        33.13464
281.22        32.51892
281.68        32.02405
282.13        31.55536
282.59        31.07762
283.04        30.55168
283.50        30.05062
283.95        29.61525
284.41        29.37148
284.86        29.30807
285.32        29.37577
285.77        29.49893
286.22         29.6206
286.68        29.71759
287.13        29.79533
287.59        29.81196
288.04        29.65667
288.50        29.36771
288.95        28.94828
289.41        28.59005
289.86        28.48335
290.32        28.67655
290.77        29.08459
291.22         29.5445
291.68        29.79111
292.13        29.77301
292.59        29.61962
293.04        29.46871
293.50        29.58865
293.95        30.02706
294.40        30.70239
294.86        31.52633
295.31        32.37033
295.77        33.16959
296.22        33.94379
296.68        34.67332
297.13        35.31032
297.58        35.87037
298.04        36.37598
298.49        36.85963
298.95        37.42249
299.40         38.0633
299.85        38.75428
300.31         39.4874
300.76        40.23619
301.21        40.99189
301.67        41.76614
302.12        42.47778
302.58        43.03238
303.03        43.38825
303.48        43.59893
303.94        43.79464
304.39        44.09006
304.84        44.54632
305.30        45.11393
305.75        45.70872
306.20        46.22615
306.66        46.63693
307.11        46.94387
307.57        47.18093
308.02        47.32521
308.47        47.40654
308.93        47.43475
309.38        47.41292
309.83         47.4118
310.29        47.45626
310.74        47.52774
311.19        47.60468
311.65        47.63344
312.10        47.59216
312.55        47.49719
313.00        47.39912
313.46        47.37627
313.91        47.43081
314.36        47.53223
314.82        47.59356
315.27        47.49327
315.72        47.20109
316.18        46.77287
316.63        46.28475
317.08        45.86778
317.53        45.55584
317.99        45.31969
318.44        45.10621
318.89        44.83577
319.35        44.49333
319.80        44.11346
320.25        43.74994
320.70        43.47993
321.16         43.3099
321.61        43.21548
322.06        43.13891
322.51        42.99754
322.97        42.75416
323.42        42.44361
323.87        42.08632
324.32        41.73291
324.78         41.4007
325.23        41.09718
325.68        40.80284
326.13        40.49447
326.59         40.1581
327.04        39.82076
327.49        39.50521
327.94        39.25895
328.39         39.0885
328.85         38.9636
329.30        38.85407
329.75        38.66087
330.20         38.3605
330.66        37.96796
331.11         37.5582
331.56        37.21258
332.01        36.96401
332.46        36.79672
332.92         36.6643
333.37        36.52734
333.82        36.35781
334.27        36.17666
334.72        36.02087
335.17        35.95594
335.63        35.97764
336.08        36.06247
336.53        36.14883
336.98        36.16344
337.43        36.07967
337.88        35.92435
338.34        35.67886
338.79        35.34296
339.24        34.93091
339.69        34.45714
340.14        34.02501
340.59        33.79208
341.05        33.77779
341.50         33.9469
341.95        34.17016
342.40        34.23098
342.85        34.07783
343.30        33.78172
343.75        33.44454
344.20          33.229
344.66        33.17897
345.11        33.22349
345.56          33.328
346.01        33.43371
346.46        33.50777
346.91        33.57357
347.36        33.58952
347.81         33.4891
348.26        33.27303
348.72        32.96736
349.17         32.6396
349.62        32.44339
350.07        32.40764
350.52        32.48639
350.97        32.59237
351.42        32.57518
351.87        32.40493
352.32        32.15081
352.77        31.86246
353.22         31.6169
353.67        31.43991
354.13        31.29652
354.58        31.20719
355.03        31.24747
355.48        31.41049
355.93        31.68745
356.38        31.92591
356.83        31.86893
357.28        31.48251
357.73        30.85789
358.18        30.23113
358.63        29.95398
359.08         30.0875
359.53        30.51547
359.98        31.03111
360.43        31.28024
360.88        31.15882
361.33        30.78566
361.78        30.29988
362.23        29.90353
362.68        29.65833
363.13        29.49681
363.58        29.38263
364.03        29.26872
364.48        29.13101
364.93        28.98841
365.38        28.84438
365.83        28.69013
366.28         28.5237
366.73        28.34955
367.18        28.14199
367.63        27.86923
368.08        27.54252
368.53         27.1809
368.98        26.86295
369.43        26.70149
369.88        26.70566
370.33          26.834
370.78        26.98609
371.23        26.98514
371.68        26.78117
372.13        26.43265
372.58        26.02103
373.03        25.66734
373.48        25.41047
373.93        25.21766
374.38        25.07577
374.83        24.96614
375.28        24.87525
375.72        24.80594
376.17        24.75086
376.62        24.68463
377.07        24.59747
377.52        24.49038
377.97        24.35167
378.42        24.17007
378.87        23.95288
379.32         23.7104
379.77        23.48111
380.22        23.32053
380.67        23.23991
381.11        23.22952
381.56        23.24779
382.01        23.23087
382.46        23.16104
382.91        23.05194
383.36        22.93507
383.81        22.86292
384.26        22.83898
384.71        22.83472
385.15        22.80667
385.60        22.70975
386.05        22.53162
386.50        22.30772
386.95        22.06236
387.40        21.83079
387.85        21.63573
388.29        21.45417
388.74        21.34662
389.19        21.33273
389.64        21.40337
390.09        21.53504
390.54        21.66809
390.98        21.70373
391.43        21.62702
391.88        21.46988
392.33         21.2724
392.78         21.1027
393.23        20.98121
393.67        20.85658
394.12        20.74967
394.57        20.70986
395.02        20.70138
395.47          20.584
395.91        20.39598
396.36        20.30679
396.81        20.33619
397.26        20.40083
397.71        20.44314
398.15        20.42671
398.60        20.36603
399.05        20.18871
399.50        19.99043
399.95        20.05409
400.39        20.32984
400.84        20.42175
401.29        20.27837
401.74        20.14367
402.18        20.01692
402.63        19.72751
403.08        19.36728
403.53        19.16485
403.97        19.14942
404.42        19.25358
404.87        19.39961
405.32        19.46394
405.76        19.40724
406.21        19.27859
406.66        19.11676
407.11        18.98215
407.55        18.90024
408.00         18.8487
408.45        18.81822
408.90        18.77019
409.34        18.70778
409.79         18.6893
410.24        18.70416
410.68        18.68864
411.13        18.64057
411.58        18.58583
412.03        18.53142
412.47        18.48344
412.92        18.44343
413.37        18.41294
413.81         18.3859
414.26        18.36881
414.71        18.35499
415.15        18.35102
415.60        18.34218
416.05         18.3242
416.49        18.29465
416.94        18.25047
417.39        18.20298
417.83        18.17082
418.28        18.15612
418.73         18.1522
419.17        18.13964
419.62        18.07995
420.07        17.97611
420.51        17.84635
420.96        17.73098
421.41        17.66555
421.85        17.65266
422.30        17.68155
422.74         17.7443
423.19         17.8479
423.64        17.97827
424.08        18.14079
424.53        18.26629
424.98        18.26478
425.42        18.12414
425.87        17.87774
426.31        17.60943
426.76        17.46217
427.21        17.46146
427.65        17.56107
428.10        17.71783
428.54        17.84956
428.99        17.93229
429.44        18.02494
429.88        18.06827
430.33        17.97878
430.77         17.7619
431.22         17.4628
431.66          17.201
432.11         17.1915
432.56        17.40399
433.00        17.73031
433.45        17.96902
433.89        17.72473
434.34        17.02274
434.78        17.00402
435.23        17.72837
435.67        17.96336
436.12         17.7085
436.57        17.62709
437.01         17.7441
437.46         17.7552
437.90        17.65522
438.35        17.55927
438.79        17.48589
439.24        17.41738
439.68         17.3922
440.13        17.52824
440.57        17.75616
441.02        17.88755
441.46        17.89521
441.91        17.75562
442.35        17.54665
442.80        17.68457
443.24        18.03936
443.69        17.89802
444.13        17.35419
444.58        17.15625
445.02        17.32225
445.47        17.46188
445.91        17.52629
446.36        17.61922
446.80        17.72009
447.24        17.79963
447.69        17.85419
448.13        17.88026
448.58        17.88009
449.02        17.85019
449.47         17.8111
449.91        17.78188
450.36        17.77424
450.80        17.78369
451.25        17.79305
451.69        17.76035
452.13        17.68253
452.58        17.57585
453.02        17.47044
453.47        17.42531
453.91        17.44747
454.36        17.52123
454.80        17.60279
455.24         17.6212
455.69        17.56464
456.13        17.44539
456.58        17.31768
457.02         17.2399
457.46        17.23004
457.91        17.26805
458.35        17.31023
458.79        17.26229
459.24        17.12185
459.68        16.97038
460.13        16.88264
460.57        16.62804
461.01        16.70463
461.46        16.72092
461.90        16.80425
462.34         16.8547
462.79        16.94972
463.23        17.01752
463.68        17.07387
464.12        17.10304
464.56        17.10514
465.01        17.10889
465.45        17.08843
465.89         17.0344
466.34        16.95514
466.78        16.84846
467.22        16.75239
467.67        16.76143
468.11        16.81794
468.55        16.96202
468.99        17.12103
469.44        17.21436
469.88        17.22572
470.32        17.17271
470.77        17.09607
471.21        17.06206
471.65        17.08885
472.10        17.15742
472.54        17.23347
472.98        17.27473
473.42        17.27216
473.87        17.25057
474.31        17.22099
474.75        17.21661
475.20        17.24973
475.64        17.29687
476.08        17.34546
476.52        17.42135
476.97        17.52753
477.41        17.57534
477.85        17.52858
478.29        17.82492
478.74        17.69703
479.18         17.7342
479.62        17.72604
480.06        17.80914
480.50        17.99626
480.95        17.92401
481.39        18.18197
481.83          18.229
482.27        18.24791
482.72        18.24879
483.16         18.2551
483.60        18.31211
484.04         18.4103
484.48        18.51805
484.93        18.70414
485.37        18.91436
485.81        19.03904
486.25        19.44558
486.69        18.77971
487.14        18.40035
487.58        19.10399
488.02        19.40435
488.46        19.42897
488.90        19.39779
489.34        19.55233
489.79        19.37714
490.23         19.6832
490.67        19.84444
491.11        20.04262
491.55        20.13877
491.99        20.15266
492.43        20.24605
492.88        20.41673
493.32        20.54659
493.76        20.63682
494.20        20.77635
494.64        20.97317
495.08        21.17465
495.52        21.35945
495.96        21.55721
496.41        21.73539
496.85        21.76656
497.29        21.70351
497.73        21.78992
498.17        22.03196
498.61        22.21957
499.05        22.32735
499.49        22.46783
499.93        22.63436
500.37        22.75578
500.82        22.84228
501.26         22.9412
501.70         23.0589
502.14        23.18253
502.58        23.29542
503.02        23.37348
503.46         23.4156
503.90        23.43336
504.34          23.458
504.78        23.53715
505.22        23.67883
505.66        23.86574
506.10        24.05707
506.54        24.18581
506.98        24.23352
507.42        24.22031
507.86        24.17833
508.30          24.158
508.74        24.17634
509.18        24.22149
509.62        24.28091
510.06        24.33351
510.50        24.37323
510.94        24.40915
511.38        24.45073
511.82        24.51067
512.26        24.58813
512.70        24.67127
513.14        24.74653
513.58        24.79563
514.02        24.81376
514.46        24.80902
514.90        24.78406
515.34        24.74355
515.78        24.69451
516.22        24.63875
516.66        24.59368
517.10        24.58484
517.54        24.61539
517.98        24.67801
518.42        24.74904
518.86        24.78769
519.30        24.78318
519.74        24.74623
520.18        24.69449
520.62        24.65803
521.06        24.64386
521.50        24.63922
521.93        24.63722
522.37        24.62201
522.81        24.59186
523.25        24.55717
523.69        24.51372
524.13        24.45181
524.57        24.37649
525.01        24.29387
525.45        24.22775
525.89        24.21655
526.32         24.2627
526.76        24.34489
527.20        24.43583
527.64         24.4912
528.08        24.49577
528.52          24.466
528.96        24.39803
529.40        24.28746
529.83        24.14123
530.27        23.96916
530.71        23.81288
531.15        23.74434
531.59        23.77368
532.03        23.87785
532.46        23.99604
532.90        24.03235
533.34        23.96643
533.78        23.81423
534.22        23.62573
534.66        23.51793
535.09        23.48944
535.53        23.43193
535.97         23.3514
536.41        23.34353
536.85        23.40643
537.28        23.48843
537.72        23.56354
538.16        23.61165
538.60        23.62376
539.04        23.60519
539.47        23.57546
539.91        23.58147
540.35        23.62794
540.79        23.71216
541.22        23.82129
541.66        23.89817
542.10        23.99632
542.54          24.075
542.97        24.15526
543.41        24.25465
543.85        24.37214
544.29        24.50312
544.72         24.6388
545.16        24.78005
545.60        24.92024
546.04        25.05421
546.47        25.18738
546.91        25.33292
547.35        25.49215
547.79        25.65565
548.22        25.78551
548.66        25.88924
549.10        25.97022
549.53        25.88942
549.97        25.92873
550.41        26.07126
550.84        26.36633
551.28        26.63841
551.72         26.8497
552.15        27.03967
552.59         27.2029
553.03         27.3177
553.46        27.38495
553.90        27.46113
554.34        27.55745
554.77        27.61497
555.21        27.61871
555.65        27.84715
556.08        27.77651
556.52        27.84879
556.96        27.90716
557.39        27.97911
557.83        28.07173
558.27        28.13729
558.70        28.18082
559.14        28.34868
559.57        28.38539
560.01        28.53663
560.45        28.66439
560.88        28.64906
561.32        28.54835
561.75         28.4035
562.19        28.31114
562.63        28.53555
563.06        28.96311
563.50        28.98034
563.93        28.64248
564.37          28.614
564.80        28.88657
565.24        29.04813
565.68        29.07959
566.11        29.17071
566.55        29.32836
566.98         29.4696
567.42        29.59867
567.85         29.7163
568.29        29.83503
568.72        29.92906
569.16        30.02647
569.60        30.13684
570.03        30.24973
570.47         30.3115
570.90        30.54603
571.34        30.48639
571.77        30.62186
572.21        30.66893
572.64         30.8014
573.08        30.75147
573.51        31.15713
573.95        31.28533
574.38        31.27907
574.82         31.2775
